File: XRD/Ni3Fe_FD0519.xy
TT I
1.27165 7.401
1.45013 6.80293
1.62863 5.19093
1.80712 5.24891
1.98562 5.21253
2.16411 4.6885
2.34263 5.48497
2.52115 7.11078
2.69965 7.56874
2.87818 8.3698
3.05672 11.3744
3.23527 15.3635
3.4138 18.8704
3.59237 24.5804
3.77094 26.6761
3.9495 30.3443
4.12809 35.3037
4.30669 247.57
4.4853 69.0382
4.6639 55.8292
4.84253 67.7179
5.02118 87.7134
5.19981 382.495
5.37848 204.844
5.55716 103.202
5.73586 93.6017
5.91455 95.4274
6.09328 4136.14
6.27201 85.3402
6.45075 68.1322
6.62952 63.9113
6.8083 59.3324
6.98711 56.985
7.16591 56.2401
7.34475 98.8892
7.5236 55.5949
7.70247 57.0692
7.88135 58.4609
8.06026 62.6799
8.23919 70.4944
8.41812 86.8495
8.59709 1127.28
8.77609 101.799
8.9551 93.8179
9.13412 82.5955
9.31318 83.3682
9.49226 85.6598
9.67134 101.218
9.85047 101.414
10.0296 344.163
10.2088 447.383
10.388 106.527
10.5672 498.078
10.7465 88.2145
10.9257 79.562
11.105 72.7752
11.2844 71.471
11.4637 65.8887
11.6431 64.6336
11.8225 63.4032
12.002 64.4452
12.1814 151.619
12.3609 72.9161
12.5405 65.2703
12.72 71.1562
12.8996 71.647
13.0792 79.6915
13.2589 231.21
13.4386 131.802
13.6183 238.478
13.7981 102.771
13.9779 76.6466
14.1577 73.5905
14.3376 72.9188
14.5175 69.7239
14.6974 71.3339
14.8774 110.26
15.0574 156.384
15.2374 72.4185
15.4175 67.2291
15.5976 66.3617
15.7778 95.1094
15.958 162.529
16.1382 64.0601
16.3185 59.7704
16.4988 56.309
16.6792 55.1017
16.8596 56.1433
17.04 56.3225
17.2205 66.9172
17.401 72.6049
17.5815 60.1561
17.7622 61.7273
17.9428 74.2821
18.1237 137.805
18.3044 90.1959
18.4852 80.4505
18.666 61.4143
18.8469 58.9305
19.0278 57.7196
19.2088 60.3647
19.3898 76.7475
19.5709 54.8472
19.752 53.9407
19.9332 56.9135
20.1144 70.4212
20.2957 64.0941
20.477 54.8477
20.6586 50.3881
20.84 49.2835
21.0215 49.1746
21.203 51.1164
21.3846 49.7152
21.5662 49.3661
21.7479 52.9758
21.9297 64.7398
22.1115 56.3206
22.2933 50.5825
22.4753 49.5359
22.6572 49.4183
22.8393 52.3208
23.0214 58.3604
23.2037 49.6065
23.3859 50.2934
23.5682 56.9849
23.7505 49.1864
23.9329 45.8938
24.1154 44.6072
24.2979 44.0521
24.4805 43.599
24.6631 43.4189
24.8458 42.7852
25.0286 43.3943
25.2114 45.13
25.3943 45.2711
25.5773 41.3155
25.7605 40.924
25.9436 41.2891
26.1268 42.3369
26.31 40.7492
26.4933 41.3034
26.6767 42.67
26.8601 41.1131
27.0437 39.3957
27.2272 38.9901
27.4109 38.802
27.5946 38.88
27.7784 38.312
27.9623 38.7362
28.1462 39.2802
28.3304 37.6185
28.5145 36.515
28.6987 36.0598
28.8829 35.8072
29.0673 35.1391
29.2517 34.8573
29.4361 34.5288
29.6207 33.6048
29.8053 33.2957
29.99 33.0417
30.1748 32.8341
30.3597 32.698
30.5447 32.6104
30.7297 32.543
30.915 31.9503
31.1002 31.5766
31.2855 31.2658
31.4708 31.2077
31.6563 30.7437
31.8418 30.4403
32.0275 30.2986
32.2132 29.7618
32.399 29.3185
32.5848 28.9406
32.7708 28.4911
32.9569 28.3406
33.143 28.1167
33.3293 27.7787
33.5158 27.3578
33.7022 26.9479
33.8887 26.5994
34.0753 26.3028
34.262 25.9573
34.4488 25.6922
34.6357 25.2419
34.8227 25.0859
35.0098 24.7949
35.1969 24.4624
35.3842 24.2408
35.5716 23.9899
35.759 23.7387
35.9468 23.3459
36.1345 23.159
36.3222 22.8909
36.5101 22.6844
36.6981 22.3796
36.8861 22.1473
37.0743 21.7446
37.2626 21.5104
37.451 21.2583
37.6395 21.0861
37.8281 20.8114
38.0168 20.5185
38.2056 20.2632
38.3945 19.9583
38.5837 19.69
38.7728 19.4742
38.9621 19.2333
39.1514 18.9794
39.3409 18.6687
39.5304 18.4251
39.7201 18.3017
39.9099 18.0742
40.0999 17.8005
40.2899 17.5516
40.48 17.353
40.6703 17.1591
40.8607 16.9534
41.0512 16.7008
41.242 16.4948
41.4327 16.2943
41.6236 16.018
41.8146 15.9472
42.0057 15.6056
42.1969 15.4543
42.3882 15.2567
42.5797 15.0598
42.7713 14.8765
42.963 14.5651
43.1549 14.3811
43.3468 14.1673
43.5389 14.012
43.7312 13.7954
43.9237 13.6782
44.1162 13.452
44.3088 13.285
44.5016 13.0709
44.6945 12.9548
44.8875 12.7261
45.0806 12.5404
45.2739 12.3366
45.4673 12.1398
45.6609 12.0235
45.8546 11.8975
46.0484 11.6194
46.2424 11.4965
46.4365 11.3601
46.631 11.1452
46.8254 10.9956
47.0199 10.8697
47.2146 10.6675
47.4095 10.536
47.6044 10.3213
47.7996 10.2172
47.9948 10.0668
48.1902 9.92438
48.3858 9.81268
48.5815 9.67567
48.7774 9.54672
48.9734 9.33373
49.1696 9.23531
49.3661 9.12409
49.5626 8.91974
49.7592 8.78687
49.956 8.70172
50.153 8.55577
50.3501 8.43263
50.5474 8.29472
50.7448 8.18069
50.9424 8.04511
51.1402 7.89369
51.3381 7.80816
51.5362 7.6632
51.7344 7.55109
51.9328 7.38537
52.1316 7.26757
52.3304 7.12867
52.5293 7.03536
52.7284 6.92483
52.9276 6.80548
53.1271 6.72843
53.3267 6.60252
53.5265 6.50594
53.7264 6.35494
53.9266 6.23493
54.1269 6.13755
54.3274 6.01766
54.528 5.85621
54.7289 5.69317
54.9301 5.55268
55.1314 5.42679
55.3328 5.23626
55.5344 5.00329
55.7361 4.82202