File: XRD/Ni3Fe_FD0094.xy
TT I
1.27165 9.0721
1.45013 7.28467
1.62863 6.31389
1.80712 5.685
1.98562 5.62557
2.16411 5.09347
2.34263 4.25952
2.52115 4.118
2.69965 5.10513
2.87818 8.05074
3.05672 11.0249
3.23527 14.492
3.4138 18.7318
3.59237 21.8625
3.77094 24.6176
3.9495 28.3233
4.12809 32.0005
4.30669 37.2176
4.4853 44.6514
4.6639 52.894
4.84253 65.5069
5.02118 94.5595
5.19981 701.449
5.37848 787.689
5.55716 113.728
5.73586 98.7034
5.91455 114.279
6.09328 1995.27
6.27201 99.1098
6.45075 67.0511
6.62952 59.3135
6.8083 54.7664
6.98711 52.5135
7.16591 51.6055
7.34475 51.0559
7.5236 60.2103
7.70247 53.2354
7.88135 55.1776
8.06026 59.5187
8.23919 67.4449
8.41812 84.6831
8.59709 721.21
8.77609 134.819
8.9551 85.7135
9.13412 81.3427
9.31318 100.501
9.49226 82.2703
9.67134 87.2784
9.85047 98.6272
10.0296 601.054
10.2088 1258.87
10.388 105.856
10.5672 243.383
10.7465 97.7173
10.9257 74.9568
11.105 68.9817
11.2844 65.183
11.4637 62.2586
11.6431 61.0403
11.8225 60.3737
12.002 71.5605
12.1814 100.496
12.3609 84.6016
12.5405 61.8645
12.72 63.9296
12.8996 68.7307
13.0792 78.9909
13.2589 179.101
13.4386 269.637
13.6183 161.437
13.7981 196.329
13.9779 75.3057
14.1577 78.2694
14.3376 67.7222
14.5175 67.1857
14.6974 68.7281
14.8774 119.749
15.0574 207.416
15.2374 68.6003
15.4175 64.9273
15.5976 64.5929
15.7778 108.183
15.958 171.128
16.1382 62.6036
16.3185 56.4295
16.4988 53.87
16.6792 52.9103
16.8596 53.2297
17.04 54.413
17.2205 62.7164
17.401 80.9105
17.5815 57.8968
17.7622 60.6032
17.9428 85.3925
18.1237 95.9588
18.3044 88.1592
18.4852 101.159
18.666 60.1217
18.8469 57.065
19.0278 55.7273
19.2088 61.3553
19.3898 63.9188
19.5709 57.6092
19.752 52.2628
19.9332 57.5396
20.1144 62.3124
20.2957 59.1048
20.477 61.6175
20.6586 49.1435
20.84 48.4035
21.0215 48.1395
21.203 48.3135
21.3846 50.1526
21.5662 48.0318
21.7479 53.0113
21.9297 57.6335
22.1115 56.2189
22.2933 53.136
22.4753 47.9284
22.6572 48.1883
22.8393 50.5239
23.0214 53.7681
23.2037 49.7779
23.3859 51.4271
23.5682 50.4436
23.7505 55.1482
23.9329 44.8982
24.1154 43.5413
24.2979 42.9016
24.4805 42.1974
24.6631 42.5607
24.8458 41.8028
25.0286 42.0599
25.2114 42.9831
25.3943 43.4037
25.5773 41.5658
25.7605 40.0936
25.9436 40.0723
26.1268 40.3864
26.31 40.5324
26.4933 40.1075
26.6767 40.5406
26.8601 40.8506
27.0437 39.0387
27.2272 38.3131
27.4109 37.9082
27.5946 37.7839
27.7784 38.0
27.9623 37.6135
28.1462 38.3913
28.3304 37.3811
28.5145 35.6898
28.6987 35.2193
28.8829 34.7801
29.0673 34.6443
29.2517 33.8753
29.4361 33.5062
29.6207 33.1539
29.8053 32.4292
29.99 32.2509
30.1748 31.8935
30.3597 32.0007
30.5447 31.6444
30.7297 31.5441
30.915 31.6166
31.1002 30.8703
31.2855 30.5146
31.4708 30.1549
31.6563 30.3137
31.8418 29.7019
32.0275 29.5228
32.2132 29.1691
32.399 28.6213
32.5848 28.1859
32.7708 27.8299
32.9569 27.6219
33.143 27.3366
33.3293 27.1249
33.5158 26.8742
33.7022 26.2678
33.8887 25.9663
34.0753 25.7115
34.262 25.2473
34.4488 24.907
34.6357 24.6072
34.8227 24.3267
35.0098 24.1817
35.1969 23.9061
35.3842 23.5801
35.5716 23.4913
35.759 23.1817
35.9468 22.7802
36.1345 22.5882
36.3222 22.3218
36.5101 22.0967
36.6981 21.856
36.8861 21.5411
37.0743 21.2406
37.2626 21.0018
37.451 20.8007
37.6395 20.5312
37.8281 20.2166
38.0168 19.9323
38.2056 19.6253
38.3945 19.4521
38.5837 19.1721
38.7728 18.9779
38.9621 18.7424
39.1514 18.4634
39.3409 18.2312
39.5304 18.0225
39.7201 17.8087
39.9099 17.5941
40.0999 17.3297
40.2899 17.1761
40.48 16.8659
40.6703 16.668
40.8607 16.5209
41.0512 16.3182
41.242 16.046
41.4327 15.8125
41.6236 15.6404
41.8146 15.4774
42.0057 15.2206
42.1969 14.971
42.3882 14.8557
42.5797 14.6338
42.7713 14.4397
42.963 14.2326
43.1549 14.0333
43.3468 13.8074
43.5389 13.6981
43.7312 13.467
43.9237 13.2701
44.1162 13.103
44.3088 12.9182
44.5016 12.7141
44.6945 12.5595
44.8875 12.4052
45.0806 12.2226
45.2739 12.0241
45.4673 11.8392
45.6609 11.6518
45.8546 11.5854
46.0484 11.3773
46.2424 11.2487
46.4365 11.0722
46.631 10.8583
46.8254 10.7173
47.0199 10.5824
47.2146 10.4043
47.4095 10.2285
47.6044 10.0915
47.7996 9.94926
47.9948 9.80424
48.1902 9.61739
48.3858 9.57063
48.5815 9.4092
48.7774 9.26175
48.9734 9.14753
49.1696 9.00376
49.3661 8.87552
49.5626 8.70527
49.7592 8.5935
49.956 8.48756
50.153 8.32818
50.3501 8.20434
50.5474 8.09618
50.7448 7.99989
50.9424 7.84499
51.1402 7.76444
51.3381 7.59178
51.5362 7.465
51.7344 7.34621
51.9328 7.2278
52.1316 7.07962
52.3304 6.99542
52.5293 6.89113
52.7284 6.74658
52.9276 6.65851
53.1271 6.57018
53.3267 6.44573
53.5265 6.33334
53.7264 6.20182
53.9266 6.09721
54.1269 5.99324
54.3274 5.84161
54.528 5.63247
54.7289 5.51012
54.9301 5.37745
55.1314 5.19702
55.3328 4.96855
55.5344 4.77111
55.7361 4.72725