File: XRD/Ni3Fe_FD0418.xy
TT I
1.27165 7.98786
1.45013 6.55174
1.62863 5.38762
1.80712 4.99299
1.98562 4.94921
2.16411 5.39779
2.34263 5.068
2.52115 6.74738
2.69965 7.67077
2.87818 8.64671
3.05672 11.0323
3.23527 15.2375
3.4138 19.3282
3.59237 25.2563
3.77094 26.6946
3.9495 30.5659
4.12809 35.7903
4.30669 290.711
4.4853 73.9564
4.6639 56.4268
4.84253 68.0757
5.02118 88.6939
5.19981 423.842
5.37848 222.423
5.55716 104.921
5.73586 94.1857
5.91455 96.7943
6.09328 3832.97
6.27201 87.3674
6.45075 69.3808
6.62952 64.7203
6.8083 60.3128
6.98711 57.3625
7.16591 57.3499
7.34475 108.458
7.5236 56.1744
7.70247 57.5444
7.88135 58.7891
8.06026 63.5672
8.23919 71.0521
8.41812 88.0529
8.59709 1063.68
8.77609 104.096
8.9551 95.7148
9.13412 82.8995
9.31318 84.3736
9.49226 86.0893
9.67134 104.086
9.85047 102.173
10.0296 353.522
10.2088 507.821
10.388 108.186
10.5672 473.078
10.7465 89.2483
10.9257 80.8575
11.105 73.62
11.2844 73.1606
11.4637 66.5355
11.6431 65.2753
11.8225 63.8032
12.002 64.9981
12.1814 141.955
12.3609 74.8607
12.5405 66.0661
12.72 72.9331
12.8996 72.4514
13.0792 80.3986
13.2589 221.464
13.4386 138.43
13.6183 226.504
13.7981 105.982
13.9779 77.471
14.1577 74.5203
14.3376 74.2321
14.5175 70.1725
14.6974 72.2699
14.8774 109.279
15.0574 164.901
15.2374 73.6186
15.4175 67.8816
15.5976 67.14
15.7778 94.8714
15.958 171.674
16.1382 65.1434
16.3185 60.5819
16.4988 56.9553
16.6792 55.8918
16.8596 56.8492
17.04 57.1021
17.2205 66.8873
17.401 74.8603
17.5815 60.5173
17.7622 62.6081
17.9428 75.141
18.1237 136.773
18.3044 89.0652
18.4852 82.937
18.666 62.0169
18.8469 59.2178
19.0278 58.1702
19.2088 60.9604
19.3898 77.5108
19.5709 55.6927
19.752 54.5548
19.9332 57.4539
20.1144 70.5962
20.2957 63.732
20.477 55.9269
20.6586 50.9413
20.84 50.0926
21.0215 49.6341
21.203 51.77
21.3846 50.2575
21.5662 49.7786
21.7479 53.4604
21.9297 65.5488
22.1115 56.8943
22.2933 51.351
22.4753 50.3357
22.6572 49.9365
22.8393 52.6876
23.0214 59.0648
23.2037 50.0105
23.3859 50.6832
23.5682 57.1303
23.7505 50.1611
23.9329 46.2745
24.1154 45.2875
24.2979 44.4695
24.4805 43.994
24.6631 43.9563
24.8458 43.3048
25.0286 43.6947
25.2114 45.5455
25.3943 45.7979
25.5773 41.9258
25.7605 41.377
25.9436 41.7483
26.1268 42.7509
26.31 41.0946
26.4933 41.7334
26.6767 43.0668
26.8601 41.4629
27.0437 39.8675
27.2272 39.4012
27.4109 39.3188
27.5946 39.3181
27.7784 38.6357
27.9623 39.2075
28.1462 39.8887
28.3304 38.1973
28.5145 36.8828
28.6987 36.4675
28.8829 36.223
29.0673 35.4555
29.2517 35.1345
29.4361 34.9391
29.6207 33.8876
29.8053 33.653
29.99 33.4225
30.1748 33.1559
30.3597 32.9683
30.5447 32.919
30.7297 32.8944
30.915 32.4343
31.1002 31.8956
31.2855 31.514
31.4708 31.5532
31.6563 31.0176
31.8418 30.8181
32.0275 30.6367
32.2132 30.1147
32.399 29.5413
32.5848 29.1753
32.7708 28.6927
32.9569 28.6014
33.143 28.4183
33.3293 28.1414
33.5158 27.5972
33.7022 27.1331
33.8887 26.9529
34.0753 26.6223
34.262 26.2362
34.4488 25.9061
34.6357 25.6349
34.8227 25.3089
35.0098 25.0795
35.1969 24.7905
35.3842 24.5052
35.5716 24.3427
35.759 24.1447
35.9468 23.6538
36.1345 23.441
36.3222 23.2531
36.5101 22.8407
36.6981 22.6122
36.8861 22.2995
37.0743 21.957
37.2626 21.7861
37.451 21.4438
37.6395 21.3213
37.8281 20.9747
38.0168 20.6461
38.2056 20.4156
38.3945 20.1777
38.5837 19.8875
38.7728 19.6035
38.9621 19.3537
39.1514 19.1655
39.3409 18.8194
39.5304 18.6698
39.7201 18.4573
39.9099 18.1793
40.0999 17.9596
40.2899 17.8015
40.48 17.4688
40.6703 17.2707
40.8607 17.1184
41.0512 16.9141
41.242 16.6394
41.4327 16.3984
41.6236 16.2119
41.8146 16.0157
42.0057 15.8088
42.1969 15.5444
42.3882 15.4179
42.5797 15.1547
42.7713 14.9925
42.963 14.7644
43.1549 14.5933
43.3468 14.3416
43.5389 14.1707
43.7312 13.9737
43.9237 13.7559
44.1162 13.6193
44.3088 13.4085
44.5016 13.2004
44.6945 12.9827
44.8875 12.8657
45.0806 12.6068
45.2739 12.5027
45.4673 12.3054
45.6609 12.0991
45.8546 11.9489
46.0484 11.7975
46.2424 11.603
46.4365 11.4577
46.631 11.2518
46.8254 11.0903
47.0199 10.9132
47.2146 10.8022
47.4095 10.6118
47.6044 10.4788
47.7996 10.3308
47.9948 10.1875
48.1902 10.0374
48.3858 9.88895
48.5815 9.72349
48.7774 9.62381
48.9734 9.47793
49.1696 9.30701
49.3661 9.18742
49.5626 9.00816
49.7592 8.87018
49.956 8.80163
50.153 8.66252
50.3501 8.50677
50.5474 8.33841
50.7448 8.2718
50.9424 8.10781
51.1402 7.97413
51.3381 7.89423
51.5362 7.75172
51.7344 7.57834
51.9328 7.44291
52.1316 7.33904
52.3304 7.24615
52.5293 7.12321
52.7284 6.9945
52.9276 6.94167
53.1271 6.79159
53.3267 6.6104
53.5265 6.51813
53.7264 6.44162
53.9266 6.31805
54.1269 6.22494
54.3274 6.06796
54.528 5.94374
54.7289 5.74409
54.9301 5.56042
55.1314 5.49507
55.3328 5.25799
55.5344 5.06991
55.7361 4.94773