File: XRD/Ni3Fe_FD0500.xy
TT I
1.27165 7.5725
1.45013 5.67478
1.62863 5.66598
1.80712 5.09897
1.98562 4.87725
2.16411 5.10506
2.34263 5.52736
2.52115 5.85415
2.69965 7.64409
2.87818 8.59416
3.05672 11.1458
3.23527 14.9535
3.4138 19.0252
3.59237 24.7382
3.77094 26.3161
3.9495 30.6498
4.12809 35.0111
4.30669 199.744
4.4853 64.3677
4.6639 56.3392
4.84253 67.9381
5.02118 88.7576
5.19981 403.309
5.37848 205.038
5.55716 104.357
5.73586 93.7446
5.91455 96.8975
6.09328 4140.56
6.27201 84.8078
6.45075 68.7194
6.62952 63.6423
6.8083 59.552
6.98711 56.2771
7.16591 56.2857
7.34475 88.4705
7.5236 55.6566
7.70247 57.0085
7.88135 58.8912
8.06026 63.3431
8.23919 70.2665
8.41812 87.0497
8.59709 1194.07
8.77609 102.261
8.9551 92.3494
9.13412 83.0507
9.31318 83.7371
9.49226 85.7038
9.67134 99.8026
9.85047 101.508
10.0296 364.912
10.2088 444.463
10.388 106.695
10.5672 499.217
10.7465 88.3149
10.9257 79.3976
11.105 72.6686
11.2844 71.316
11.4637 65.7289
11.6431 64.3751
11.8225 63.3045
12.002 64.6676
12.1814 155.043
12.3609 71.576
12.5405 65.4221
12.72 70.7011
12.8996 72.2171
13.0792 80.068
13.2589 241.18
13.4386 131.863
13.6183 247.013
13.7981 102.714
13.9779 76.8185
14.1577 73.4571
14.3376 72.539
14.5175 69.8421
14.6974 71.3583
14.8774 112.984
15.0574 155.699
15.2374 72.11
15.4175 67.4655
15.5976 66.7583
15.7778 97.39
15.958 159.359
16.1382 63.4586
16.3185 59.5124
16.4988 56.3382
16.6792 55.3541
16.8596 56.1317
17.04 56.6381
17.2205 67.905
17.401 72.4305
17.5815 60.1272
17.7622 61.9232
17.9428 75.3384
18.1237 137.048
18.3044 91.3965
18.4852 80.4262
18.666 61.3961
18.8469 58.9432
19.0278 57.7175
19.2088 60.4852
19.3898 76.2729
19.5709 55.1777
19.752 54.122
19.9332 57.2321
20.1144 69.9579
20.2957 63.93
20.477 54.9492
20.6586 50.3814
20.84 49.7317
21.0215 49.1636
21.203 51.4117
21.3846 49.7669
21.5662 49.4466
21.7479 53.5357
21.9297 64.7044
22.1115 56.5274
22.2933 50.8304
22.4753 49.4976
22.6572 49.5776
22.8393 52.7356
23.0214 57.9855
23.2037 49.5583
23.3859 50.5261
23.5682 57.1385
23.7505 49.3725
23.9329 45.85
24.1154 44.7309
24.2979 44.1486
24.4805 43.4288
24.6631 43.4912
24.8458 42.934
25.0286 43.4761
25.2114 45.192
25.3943 45.1737
25.5773 41.581
25.7605 41.0452
25.9436 41.4553
26.1268 42.2319
26.31 40.738
26.4933 41.3662
26.6767 42.6958
26.8601 41.0699
27.0437 39.4373
27.2272 39.1218
27.4109 38.9563
27.5946 38.9603
27.7784 38.4138
27.9623 38.9211
28.1462 39.3363
28.3304 37.6941
28.5145 36.5445
28.6987 36.0599
28.8829 35.9059
29.0673 35.2385
29.2517 34.9107
29.4361 34.5638
29.6207 33.7484
29.8053 33.2752
29.99 33.0496
30.1748 32.9039
30.3597 32.7232
30.5447 32.6739
30.7297 32.6815
30.915 31.9939
31.1002 31.433
31.2855 31.3968
31.4708 31.2156
31.6563 30.7891
31.8418 30.5838
32.0275 30.4443
32.2132 29.8155
32.399 29.375
32.5848 28.9306
32.7708 28.4596
32.9569 28.4837
33.143 28.1468
33.3293 27.7722
33.5158 27.4367
33.7022 27.0311
33.8887 26.7464
34.0753 26.3906
34.262 26.0363
34.4488 25.5699
34.6357 25.3559
34.8227 25.1045
35.0098 24.8276
35.1969 24.5057
35.3842 24.2819
35.5716 24.0237
35.759 23.7983
35.9468 23.4217
36.1345 23.2123
36.3222 22.9812
36.5101 22.7181
36.6981 22.3935
36.8861 22.0973
37.0743 21.864
37.2626 21.5631
37.451 21.3008
37.6395 21.1738
37.8281 20.7614
38.0168 20.4464
38.2056 20.1608
38.3945 19.9904
38.5837 19.7272
38.7728 19.481
38.9621 19.233
39.1514 18.982
39.3409 18.7592
39.5304 18.5105
39.7201 18.3329
39.9099 18.1047
40.0999 17.8483
40.2899 17.5735
40.48 17.3291
40.6703 17.0817
40.8607 16.9909
41.0512 16.7013
41.242 16.5211
41.4327 16.3241
41.6236 16.0764
41.8146 15.8259
42.0057 15.6193
42.1969 15.4513
42.3882 15.2548
42.5797 15.028
42.7713 14.7917
42.963 14.6355
43.1549 14.4
43.3468 14.211
43.5389 14.0381
43.7312 13.8503
43.9237 13.5997
44.1162 13.439
44.3088 13.3064
44.5016 13.1022
44.6945 12.9107
44.8875 12.7141
45.0806 12.5803
45.2739 12.3505
45.4673 12.2191
45.6609 12.0056
45.8546 11.883
46.0484 11.6889
46.2424 11.5193
46.4365 11.3538
46.631 11.1483
46.8254 11.0216
47.0199 10.8568
47.2146 10.6916
47.4095 10.5497
47.6044 10.3612
47.7996 10.2694
47.9948 10.0505
48.1902 9.94946
48.3858 9.79699
48.5815 9.65763
48.7774 9.54253
48.9734 9.39711
49.1696 9.26244
49.3661 9.09616
49.5626 8.95132
49.7592 8.83887
49.956 8.69507
50.153 8.59359
50.3501 8.42459
50.5474 8.27403
50.7448 8.20091
50.9424 8.05701
51.1402 7.89734
51.3381 7.80846
51.5362 7.63907
51.7344 7.54286
51.9328 7.39984
52.1316 7.2444
52.3304 7.16468
52.5293 7.06321
52.7284 6.92659
52.9276 6.80328
53.1271 6.69992
53.3267 6.56764
53.5265 6.47222
53.7264 6.32999
53.9266 6.24208
54.1269 6.1444
54.3274 6.02668
54.528 5.85266
54.7289 5.7185
54.9301 5.52257
55.1314 5.45744
55.3328 5.21622
55.5344 5.01134
55.7361 4.90221