File: XRD/Ni3Fe_FD0219.xy
TT I
1.27165 8.11922
1.45013 6.1566
1.62863 5.1909
1.80712 5.54605
1.98562 4.99196
2.16411 4.81739
2.34263 4.88695
2.52115 4.63509
2.69965 6.09279
2.87818 7.74486
3.05672 11.0796
3.23527 15.303
3.4138 19.2273
3.59237 22.2357
3.77094 26.3949
3.9495 30.0924
4.12809 34.8006
4.30669 40.5106
4.4853 48.567
4.6639 58.4421
4.84253 71.6693
5.02118 96.3294
5.19981 888.915
5.37848 278.078
5.55716 112.717
5.73586 100.765
5.91455 110.711
6.09328 3586.84
6.27201 89.6821
6.45075 71.1249
6.62952 64.0429
6.8083 59.6393
6.98711 57.6419
7.16591 56.7163
7.34475 55.9349
7.5236 56.1525
7.70247 57.9718
7.88135 60.2127
8.06026 65.4164
8.23919 73.1054
8.41812 90.7032
8.59709 1055.79
8.77609 111.875
8.9551 90.9699
9.13412 86.8107
9.31318 87.6731
9.49226 89.6149
9.67134 95.7391
9.85047 106.857
10.0296 521.904
10.2088 565.464
10.388 114.957
10.5672 433.619
10.7465 92.4744
10.9257 81.1093
11.105 75.0757
11.2844 70.8286
11.4637 67.9554
11.6431 66.5451
11.8225 65.3605
12.002 68.7296
12.1814 139.995
12.3609 70.4051
12.5405 67.4768
12.72 69.6419
12.8996 74.9609
13.0792 86.2514
13.2589 227.339
13.4386 150.316
13.6183 224.329
13.7981 112.569
13.9779 80.2524
14.1577 75.5276
14.3376 73.3167
14.5175 72.6022
14.6974 74.5022
14.8774 119.081
15.0574 173.84
15.2374 72.5744
15.4175 70.0127
15.5976 70.0177
15.7778 103.593
15.958 178.657
16.1382 64.0296
16.3185 60.501
16.4988 58.0881
16.6792 57.042
16.8596 57.4746
17.04 59.3927
17.2205 68.8912
17.401 78.0242
17.5815 62.1332
17.7622 64.6949
17.9428 82.8474
18.1237 139.025
18.3044 90.0144
18.4852 84.4241
18.666 63.5452
18.8469 60.9863
19.0278 59.6969
19.2088 63.0323
19.3898 76.2746
19.5709 57.2151
19.752 56.2841
19.9332 59.8084
20.1144 72.4888
20.2957 64.353
20.477 57.0754
20.6586 52.024
20.84 51.3444
21.0215 51.3702
21.203 52.6522
21.3846 51.6189
21.5662 51.9649
21.7479 55.5756
21.9297 66.6472
22.1115 57.912
22.2933 52.6924
22.4753 51.016
22.6572 51.9885
22.8393 54.2465
23.0214 60.1515
23.2037 51.4912
23.3859 52.8348
23.5682 57.6806
23.7505 51.474
23.9329 47.5641
24.1154 46.2222
24.2979 45.5283
24.4805 45.0418
24.6631 44.9889
24.8458 44.3371
25.0286 45.0831
25.2114 46.6237
25.3943 46.8957
25.5773 42.9573
25.7605 42.5464
25.9436 42.7263
26.1268 43.7258
26.31 42.2408
26.4933 42.659
26.6767 44.165
26.8601 42.527
27.0437 40.8239
27.2272 40.472
27.4109 40.1715
27.5946 40.2028
27.7784 39.763
27.9623 40.0348
28.1462 40.7406
28.3304 39.1224
28.5145 37.7068
28.6987 37.2503
28.8829 37.0546
29.0673 36.3545
29.2517 36.0007
29.4361 35.7695
29.6207 34.8049
29.8053 34.4457
29.99 34.2251
30.1748 33.9595
30.3597 33.8496
30.5447 33.7856
30.7297 33.6411
30.915 33.1459
31.1002 32.5988
31.2855 32.2751
31.4708 32.2689
31.6563 31.9095
31.8418 31.5842
32.0275 31.3037
32.2132 30.8791
32.399 30.4112
32.5848 29.9134
32.7708 29.4924
32.9569 29.3763
33.143 29.1435
33.3293 28.7002
33.5158 28.3558
33.7022 27.8442
33.8887 27.5772
34.0753 27.2625
34.262 26.8422
34.4488 26.5148
34.6357 26.1113
34.8227 25.8115
35.0098 25.7297
35.1969 25.3218
35.3842 25.0946
35.5716 24.9831
35.759 24.589
35.9468 24.2642
36.1345 24.0076
36.3222 23.7213
36.5101 23.4621
36.6981 23.1936
36.8861 22.8701
37.0743 22.5485
37.2626 22.2308
37.451 21.9276
37.6395 21.827
37.8281 21.483
38.0168 21.1162
38.2056 20.8795
38.3945 20.6457
38.5837 20.3809
38.7728 20.0765
38.9621 19.8215
39.1514 19.5872
39.3409 19.301
39.5304 19.1277
39.7201 18.8975
39.9099 18.6946
40.0999 18.4275
40.2899 18.2046
40.48 17.956
40.6703 17.6778
40.8607 17.493
41.0512 17.2646
41.242 16.9903
41.4327 16.8648
41.6236 16.6002
41.8146 16.3505
42.0057 16.09
42.1969 15.9386
42.3882 15.733
42.5797 15.5489
42.7713 15.2889
42.963 15.0862
43.1549 14.8874
43.3468 14.6082
43.5389 14.4623
43.7312 14.2923
43.9237 14.0377
44.1162 13.9032
44.3088 13.6994
44.5016 13.4963
44.6945 13.3187
44.8875 13.1214
45.0806 12.9431
45.2739 12.7695
45.4673 12.5812
45.6609 12.3862
45.8546 12.2473
46.0484 12.0239
46.2424 11.8468
46.4365 11.7125
46.631 11.5479
46.8254 11.3684
47.0199 11.1689
47.2146 11.0652
47.4095 10.8751
47.6044 10.6395
47.7996 10.5438
47.9948 10.3808
48.1902 10.2242
48.3858 10.0841
48.5815 9.97716
48.7774 9.82504
48.9734 9.64636
49.1696 9.50996
49.3661 9.35761
49.5626 9.2174
49.7592 9.07308
49.956 8.94424
50.153 8.80735
50.3501 8.66721
50.5474 8.58115
50.7448 8.42724
50.9424 8.26816
51.1402 8.1575
51.3381 8.01829
51.5362 7.88548
51.7344 7.73185
51.9328 7.63925
52.1316 7.44944
52.3304 7.38748
52.5293 7.29711
52.7284 7.16359
52.9276 7.021
53.1271 6.89028
53.3267 6.77812
53.5265 6.673
53.7264 6.5148
53.9266 6.41048
54.1269 6.34853
54.3274 6.20257
54.528 6.01689
54.7289 5.87907
54.9301 5.71468
55.1314 5.53736
55.3328 5.3153
55.5344 5.10932
55.7361 4.9946