File: XRD/Ni3Fe_FD0297.xy
TT I
1.27165 7.82772
1.45013 7.03553
1.62863 5.55767
1.80712 5.04615
1.98562 4.46654
2.16411 5.00241
2.34263 5.27059
2.52115 5.74348
2.69965 7.14631
2.87818 8.56159
3.05672 11.3764
3.23527 15.4068
3.4138 19.4226
3.59237 25.4034
3.77094 27.0017
3.9495 31.0245
4.12809 36.5314
4.30669 296.939
4.4853 75.0891
4.6639 57.3239
4.84253 69.1342
5.02118 90.9987
5.19981 496.344
5.37848 258.425
5.55716 107.368
5.73586 96.1273
5.91455 100.467
6.09328 3649.63
6.27201 90.2573
6.45075 70.4846
6.62952 65.6416
6.8083 61.7066
6.98711 58.0815
7.16591 57.8376
7.34475 110.789
7.5236 56.9886
7.70247 58.4606
7.88135 59.702
8.06026 64.2263
8.23919 72.2809
8.41812 90.0315
8.59709 995.071
8.77609 108.094
8.9551 97.5669
9.13412 84.3259
9.31318 85.6204
9.49226 87.22
9.67134 105.282
9.85047 103.863
10.0296 379.11
10.2088 581.403
10.388 110.534
10.5672 450.332
10.7465 90.979
10.9257 81.9415
11.105 74.4702
11.2844 74.2478
11.4637 67.2193
11.6431 65.7542
11.8225 64.9091
12.002 66.1354
12.1814 137.312
12.3609 77.1861
12.5405 67.2904
12.72 74.0616
12.8996 73.4751
13.0792 81.6803
13.2589 211.484
13.4386 148.879
13.6183 213.686
13.7981 113.097
13.9779 78.6364
14.1577 75.5082
14.3376 74.8902
14.5175 71.1707
14.6974 73.2292
14.8774 109.236
15.0574 176.593
15.2374 74.6538
15.4175 68.9974
15.5976 68.1781
15.7778 95.4863
15.958 178.878
16.1382 66.1848
16.3185 61.2854
16.4988 57.6479
16.6792 56.6123
16.8596 57.3546
17.04 57.9456
17.2205 66.9071
17.401 77.2844
17.5815 61.3439
17.7622 63.5249
17.9428 76.9664
18.1237 137.961
18.3044 88.6571
18.4852 85.686
18.666 62.8965
18.8469 60.3785
19.0278 59.1357
19.2088 61.9706
19.3898 78.2442
19.5709 56.5053
19.752 55.2642
19.9332 58.1669
20.1144 71.2957
20.2957 63.9014
20.477 56.927
20.6586 51.4786
20.84 50.6814
21.0215 50.5541
21.203 52.0536
21.3846 51.0918
21.5662 50.444
21.7479 54.0462
21.9297 66.2773
22.1115 57.4792
22.2933 52.2157
22.4753 50.8423
22.6572 50.6574
22.8393 53.1416
23.0214 60.1101
23.2037 50.8794
23.3859 51.3202
23.5682 57.1872
23.7505 50.8946
23.9329 46.9569
24.1154 45.7327
24.2979 45.0763
24.4805 44.4166
24.6631 44.4069
24.8458 43.8492
25.0286 44.2357
25.2114 45.8876
25.3943 46.4447
25.5773 42.463
25.7605 41.8811
25.9436 42.0676
26.1268 43.1607
26.31 41.531
26.4933 42.0176
26.6767 43.6114
26.8601 41.9261
27.0437 40.3607
27.2272 39.8977
27.4109 39.5839
27.5946 39.8352
27.7784 39.3285
27.9623 39.5848
28.1462 40.3285
28.3304 38.6935
28.5145 37.2077
28.6987 36.8808
28.8829 36.6145
29.0673 36.0107
29.2517 35.4715
29.4361 35.3164
29.6207 34.2844
29.8053 34.0583
29.99 33.6944
30.1748 33.6339
30.3597 33.5391
30.5447 33.1774
30.7297 33.3534
30.915 32.7046
31.1002 32.1906
31.2855 31.9381
31.4708 31.9148
31.6563 31.4411
31.8418 31.1135
32.0275 31.0894
32.2132 30.4776
32.399 30.0385
32.5848 29.474
32.7708 29.2085
32.9569 29.0861
33.143 28.7991
33.3293 28.45
33.5158 28.0996
33.7022 27.5902
33.8887 27.2342
34.0753 26.9235
34.262 26.5854
34.4488 26.2747
34.6357 25.9045
34.8227 25.5361
35.0098 25.375
35.1969 25.0712
35.3842 24.84
35.5716 24.6501
35.759 24.3189
35.9468 23.9082
36.1345 23.7007
36.3222 23.4568
36.5101 23.207
36.6981 22.9367
36.8861 22.6459
37.0743 22.265
37.2626 22.0368
37.451 21.8219
37.6395 21.5624
37.8281 21.2869
38.0168 20.9669
38.2056 20.6493
38.3945 20.3937
38.5837 20.1479
38.7728 19.8902
38.9621 19.6264
39.1514 19.4306
39.3409 19.0783
39.5304 18.9091
39.7201 18.7
39.9099 18.5018
40.0999 18.1997
40.2899 17.9403
40.48 17.7281
40.6703 17.5914
40.8607 17.3909
41.0512 17.1704
41.242 16.8455
41.4327 16.6449
41.6236 16.4173
41.8146 16.2871
42.0057 16.0041
42.1969 15.8208
42.3882 15.5877
42.5797 15.4082
42.7713 15.1236
42.963 14.9856
43.1549 14.7705
43.3468 14.5111
43.5389 14.3605
43.7312 14.176
43.9237 13.9636
44.1162 13.7957
44.3088 13.5442
44.5016 13.4053
44.6945 13.1868
44.8875 13.0246
45.0806 12.8515
45.2739 12.6425
45.4673 12.4654
45.6609 12.3299
45.8546 12.1557
46.0484 11.9395
46.2424 11.7856
46.4365 11.6478
46.631 11.4089
46.8254 11.2525
47.0199 11.1066
47.2146 10.9425
47.4095 10.7886
47.6044 10.6157
47.7996 10.4511
47.9948 10.3186
48.1902 10.1688
48.3858 10.035
48.5815 9.86321
48.7774 9.71503
48.9734 9.63771
49.1696 9.45043
49.3661 9.29051
49.5626 9.13679
49.7592 9.01804
49.956 8.88222
50.153 8.76535
50.3501 8.62163
50.5474 8.4826
50.7448 8.39896
50.9424 8.247
51.1402 8.11691
51.3381 7.93876
51.5362 7.8335
51.7344 7.68647
51.9328 7.58304
52.1316 7.43736
52.3304 7.34357
52.5293 7.18201
52.7284 7.13254
52.9276 6.97667
53.1271 6.88887
53.3267 6.72894
53.5265 6.63719
53.7264 6.48226
53.9266 6.3838
54.1269 6.26575
54.3274 6.21163
54.528 6.01027
54.7289 5.86723
54.9301 5.63357
55.1314 5.51421
55.3328 5.33074
55.5344 5.13383
55.7361 4.96189