File: XRD/Ni3Fe_FD0611.xy
TT I
1.27165 6.75343
1.45013 6.66299
1.62863 5.9353
1.80712 5.36123
1.98562 4.79887
2.16411 5.26362
2.34263 5.51566
2.52115 7.1457
2.69965 7.96813
2.87818 8.42419
3.05672 10.8628
3.23527 14.8297
3.4138 18.7463
3.59237 24.1559
3.77094 26.4395
3.9495 30.0229
4.12809 35.4274
4.30669 185.369
4.4853 62.5951
4.6639 55.8648
4.84253 67.8533
5.02118 87.9651
5.19981 369.551
5.37848 194.21
5.55716 102.995
5.73586 93.0664
5.91455 95.4361
6.09328 4369.63
6.27201 83.4201
6.45075 67.9477
6.62952 63.1966
6.8083 59.1702
6.98711 56.0175
7.16591 55.5792
7.34475 85.2655
7.5236 55.1729
7.70247 56.3439
7.88135 58.4256
8.06026 62.6844
8.23919 69.8998
8.41812 85.6424
8.59709 1224.11
8.77609 100.822
8.9551 91.0729
9.13412 82.5983
9.31318 83.1096
9.49226 85.4771
9.67134 98.1875
9.85047 100.839
10.0296 353.453
10.2088 409.522
10.388 105.425
10.5672 506.04
10.7465 87.2861
10.9257 78.8916
11.105 72.5784
11.2844 70.4914
11.4637 65.3584
11.6431 64.257
11.8225 62.8506
12.002 64.073
12.1814 154.628
12.3609 70.5974
12.5405 65.0559
12.72 69.9255
12.8996 71.6316
13.0792 79.7975
13.2589 246.35
13.4386 127.585
13.6183 252.705
13.7981 99.9474
13.9779 76.3961
14.1577 73.2725
14.3376 72.0272
14.5175 69.2055
14.6974 70.8892
14.8774 113.214
15.0574 150.729
15.2374 71.3615
15.4175 66.9703
15.5976 66.4347
15.7778 96.9666
15.958 154.006
16.1382 62.9997
16.3185 59.1275
16.4988 56.002
16.6792 55.0111
16.8596 55.6392
17.04 56.282
17.2205 67.3983
17.401 72.3501
17.5815 59.7141
17.7622 61.7346
17.9428 74.5414
18.1237 137.854
18.3044 91.8896
18.4852 78.7674
18.666 60.9394
18.8469 58.4319
19.0278 57.4026
19.2088 60.0048
19.3898 76.0117
19.5709 54.6826
19.752 53.6104
19.9332 56.6728
20.1144 69.4296
20.2957 64.1434
20.477 54.2466
20.6586 50.2294
20.84 49.2707
21.0215 49.011
21.203 51.3072
21.3846 49.2727
21.5662 49.056
21.7479 52.942
21.9297 64.3814
22.1115 56.2748
22.2933 50.1387
22.4753 49.1422
22.6572 49.123
22.8393 52.342
23.0214 57.5143
23.2037 49.1811
23.3859 50.0855
23.5682 57.0845
23.7505 48.6893
23.9329 45.5628
24.1154 44.4031
24.2979 43.8067
24.4805 43.2559
24.6631 43.0885
24.8458 42.5917
25.0286 43.1258
25.2114 44.9868
25.3943 44.7141
25.5773 41.2607
25.7605 40.624
25.9436 41.2105
26.1268 41.8916
26.31 40.3966
26.4933 41.003
26.6767 42.3466
26.8601 40.793
27.0437 39.1877
27.2272 38.7593
27.4109 38.6581
27.5946 38.5731
27.7784 38.1565
27.9623 38.5862
28.1462 39.199
28.3304 37.3988
28.5145 36.05
28.6987 35.8791
28.8829 35.5759
29.0673 34.9815
29.2517 34.5948
29.4361 34.3158
29.6207 33.3755
29.8053 33.1402
29.99 32.7766
30.1748 32.6671
30.3597 32.4163
30.5447 32.3885
30.7297 32.3832
30.915 31.9086
31.1002 31.4349
31.2855 30.9824
31.4708 31.0315
31.6563 30.6027
31.8418 30.3318
32.0275 30.1563
32.2132 29.5651
32.399 29.1334
32.5848 28.8118
32.7708 28.334
32.9569 28.1428
33.143 28.0054
33.3293 27.5377
33.5158 27.163
33.7022 26.7967
33.8887 26.4556
34.0753 26.1581
34.262 25.7643
34.4488 25.4577
34.6357 25.1615
34.8227 24.8261
35.0098 24.6803
35.1969 24.3519
35.3842 24.13
35.5716 23.9435
35.759 23.6382
35.9468 23.278
36.1345 23.0197
36.3222 22.826
36.5101 22.5648
36.6981 22.2816
36.8861 22.0181
37.0743 21.6224
37.2626 21.4617
37.451 21.1675
37.6395 20.9508
37.8281 20.6294
38.0168 20.3495
38.2056 20.0638
38.3945 19.8299
38.5837 19.5796
38.7728 19.3149
38.9621 19.0932
39.1514 18.8666
39.3409 18.5665
39.5304 18.3939
39.7201 18.157
39.9099 17.9354
40.0999 17.7259
40.2899 17.4738
40.48 17.2412
40.6703 17.0018
40.8607 16.8497
41.0512 16.6693
41.242 16.3488
41.4327 16.1403
41.6236 15.9462
41.8146 15.7379
42.0057 15.4757
42.1969 15.3261
42.3882 15.1647
42.5797 14.9463
42.7713 14.7241
42.963 14.5325
43.1549 14.3631
43.3468 14.0896
43.5389 13.954
43.7312 13.7432
43.9237 13.5383
44.1162 13.3763
44.3088 13.1671
44.5016 12.955
44.6945 12.8325
44.8875 12.6226
45.0806 12.4503
45.2739 12.266
45.4673 12.0967
45.6609 11.9625
45.8546 11.7774
46.0484 11.5844
46.2424 11.3932
46.4365 11.2844
46.631 11.1063
46.8254 10.934
47.0199 10.7739
47.2146 10.6148
47.4095 10.4405
47.6044 10.3548
47.7996 10.1256
47.9948 9.98586
48.1902 9.86498
48.3858 9.72489
48.5815 9.58073
48.7774 9.47008
48.9734 9.30157
49.1696 9.18249
49.3661 9.01733
49.5626 8.86509
49.7592 8.7945
49.956 8.60565
50.153 8.50291
50.3501 8.37085
50.5474 8.24076
50.7448 8.09908
50.9424 7.95539
51.1402 7.87271
51.3381 7.71748
51.5362 7.59361
51.7344 7.47414
51.9328 7.31724
52.1316 7.20814
52.3304 7.14216
52.5293 6.95557
52.7284 6.87123
52.9276 6.81262
53.1271 6.70169
53.3267 6.50589
53.5265 6.43398
53.7264 6.30103
53.9266 6.21811
54.1269 6.08745
54.3274 6.0196
54.528 5.84004
54.7289 5.71516
54.9301 5.50736
55.1314 5.42267
55.3328 5.16315
55.5344 5.01116
55.7361 4.83122