File: XRD/Ni3Fe_FD1074.xy
TT I
1.27165 7.12827
1.45013 6.01859
1.62863 4.49918
1.80712 4.28578
1.98562 4.56813
2.16411 4.18233
2.34263 4.54962
2.52115 7.64216
2.69965 8.06448
2.87818 8.84326
3.05672 11.6355
3.23527 14.4486
3.4138 18.2511
3.59237 20.852
3.77094 24.3454
3.9495 27.77
4.12809 32.5069
4.30669 56.5501
4.4853 46.4021
4.6639 53.0338
4.84253 64.158
5.02118 82.7473
5.19981 230.113
5.37848 206.301
5.55716 97.2345
5.73586 87.7192
5.91455 89.0604
6.09328 4469.29
6.27201 75.9409
6.45075 63.5809
6.62952 57.8715
6.8083 54.6237
6.98711 52.4372
7.16591 51.8377
7.34475 56.0164
7.5236 57.7136
7.70247 53.2161
7.88135 54.95
8.06026 58.8676
8.23919 65.6092
8.41812 78.1413
8.59709 1111.48
8.77609 94.9631
8.9551 82.5352
9.13412 79.1526
9.31318 87.836
9.49226 81.0297
9.67134 86.9138
9.85047 94.2792
10.0296 350.723
10.2088 445.968
10.388 97.6862
10.5672 513.107
10.7465 86.0624
10.9257 73.8204
11.105 68.4539
11.2844 64.8751
11.4637 61.9311
11.6431 60.5809
11.8225 59.591
12.002 66.4322
12.1814 146.875
12.3609 64.7186
12.5405 61.5315
12.72 64.1168
12.8996 68.0441
13.0792 76.6719
13.2589 230.633
13.4386 126.086
13.6183 237.009
13.7981 99.9965
13.9779 73.2737
14.1577 75.0282
14.3376 67.3114
14.5175 66.3194
14.6974 67.7495
14.8774 110.538
15.0574 159.163
15.2374 66.7587
15.4175 64.0991
15.5976 63.4199
15.7778 95.2227
15.958 169.628
16.1382 59.8844
16.3185 55.599
16.4988 53.627
16.6792 52.4043
16.8596 52.8238
17.04 54.0466
17.2205 65.165
17.401 72.2532
17.5815 57.3543
17.7622 59.9976
17.9428 73.4396
18.1237 142.632
18.3044 88.888
18.4852 78.7629
18.666 58.858
18.8469 56.4436
19.0278 55.0789
19.2088 58.1217
19.3898 76.0646
19.5709 53.0227
19.752 51.8594
19.9332 55.1801
20.1144 70.6207
20.2957 63.7076
20.477 52.8696
20.6586 48.4937
20.84 47.9691
21.0215 47.4493
21.203 49.7816
21.3846 48.0067
21.5662 47.7708
21.7479 51.968
21.9297 65.3157
22.1115 55.9274
22.2933 49.1844
22.4753 47.5929
22.6572 47.8137
22.8393 51.3033
23.0214 57.4333
23.2037 47.8809
23.3859 49.4969
23.5682 57.284
23.7505 48.1265
23.9329 44.3373
24.1154 43.2593
24.2979 42.3562
24.4805 41.9996
24.6631 42.1975
24.8458 41.4046
25.0286 42.1362
25.2114 44.2628
25.3943 44.4088
25.5773 40.2103
25.7605 39.6804
25.9436 40.1956
26.1268 41.3547
26.31 39.44
26.4933 40.2377
26.6767 42.1052
26.8601 40.1948
27.0437 38.3208
27.2272 37.9715
27.4109 37.7493
27.5946 37.9702
27.7784 37.3179
27.9623 37.8766
28.1462 38.6492
28.3304 36.8398
28.5145 35.4427
28.6987 35.11
28.8829 35.027
29.0673 34.249
29.2517 33.7823
29.4361 33.6713
29.6207 32.6206
29.8053 32.2561
29.99 32.1818
30.1748 32.0701
30.3597 31.8394
30.5447 31.7757
30.7297 31.8734
30.915 31.2544
31.1002 30.732
31.2855 30.4633
31.4708 30.5146
31.6563 30.0879
31.8418 29.82
32.0275 29.6553
32.2132 29.0221
32.399 28.5428
32.5848 28.1433
32.7708 27.7976
32.9569 27.6137
33.143 27.4737
33.3293 27.0481
33.5158 26.6141
33.7022 26.1499
33.8887 25.9236
34.0753 25.615
34.262 25.3285
34.4488 24.9493
34.6357 24.6316
34.8227 24.4522
35.0098 24.057
35.1969 23.8648
35.3842 23.789
35.5716 23.4924
35.759 23.1118
35.9468 22.8645
36.1345 22.6019
36.3222 22.3272
36.5101 22.1781
36.6981 21.9397
36.8861 21.6226
37.0743 21.2095
37.2626 20.9479
37.451 20.6717
37.6395 20.6163
37.8281 20.2017
38.0168 19.9171
38.2056 19.662
38.3945 19.4983
38.5837 19.2473
38.7728 18.9714
38.9621 18.6422
39.1514 18.4456
39.3409 18.1914
39.5304 17.9802
39.7201 17.7844
39.9099 17.5661
40.0999 17.3362
40.2899 17.131
40.48 16.8609
40.6703 16.6663
40.8607 16.5281
41.0512 16.3133
41.242 16.0447
41.4327 15.8785
41.6236 15.6247
41.8146 15.4695
42.0057 15.1646
42.1969 15.0112
42.3882 14.8595
42.5797 14.6372
42.7713 14.4856
42.963 14.2313
43.1549 14.0575
43.3468 13.8392
43.5389 13.6005
43.7312 13.4261
43.9237 13.3153
44.1162 13.0701
44.3088 12.8937
44.5016 12.7207
44.6945 12.5591
44.8875 12.3696
45.0806 12.2303
45.2739 12.0437
45.4673 11.8714
45.6609 11.6802
45.8546 11.5355
46.0484 11.3636
46.2424 11.218
46.4365 11.0645
46.631 10.9004
46.8254 10.7081
47.0199 10.5523
47.2146 10.4104
47.4095 10.2547
47.6044 10.0985
47.7996 9.97238
47.9948 9.77475
48.1902 9.65594
48.3858 9.52708
48.5815 9.38441
48.7774 9.24879
48.9734 9.14168
49.1696 8.96344
49.3661 8.83173
49.5626 8.66328
49.7592 8.59694
49.956 8.44872
50.153 8.33676
50.3501 8.15816
50.5474 8.06607
50.7448 7.96698
50.9424 7.78829
51.1402 7.70915
51.3381 7.59112
51.5362 7.44713
51.7344 7.33553
51.9328 7.19933
52.1316 7.09361
52.3304 6.96593
52.5293 6.87296
52.7284 6.74555
52.9276 6.62443
53.1271 6.52329
53.3267 6.38774
53.5265 6.29548
53.7264 6.18328
53.9266 6.07556
54.1269 5.91709
54.3274 5.83228
54.528 5.71172
54.7289 5.55708
54.9301 5.41383
55.1314 5.23841
55.3328 5.08052
55.5344 4.91806
55.7361 4.78808