File: XRD/Ni3Fe_FD0857.xy
TT I
1.27165 7.03549
1.45013 5.76092
1.62863 5.25769
1.80712 4.85292
1.98562 4.85653
2.16411 4.63482
2.34263 5.99832
2.52115 7.38305
2.69965 8.79955
2.87818 9.00968
3.05672 11.9194
3.23527 15.435
3.4138 18.4842
3.59237 23.6098
3.77094 26.1113
3.9495 29.4438
4.12809 34.2509
4.30669 218.494
4.4853 65.4868
4.6639 54.6794
4.84253 66.6262
5.02118 84.5432
5.19981 293.842
5.37848 177.543
5.55716 100.282
5.73586 90.6253
5.91455 91.4069
6.09328 4381.73
6.27201 81.5491
6.45075 66.4625
6.62952 62.2561
6.8083 58.1517
6.98711 55.4239
7.16591 54.7349
7.34475 91.1363
7.5236 54.2853
7.70247 55.7171
7.88135 57.0349
8.06026 61.2119
8.23919 68.3323
8.41812 83.4751
8.59709 1128.77
8.77609 97.3008
8.9551 90.8317
9.13412 81.073
9.31318 81.1708
9.49226 83.2281
9.67134 97.2611
9.85047 98.0947
10.0296 305.048
10.2088 401.206
10.388 102.585
10.5672 526.037
10.7465 85.4151
10.9257 77.6282
11.105 70.7146
11.2844 69.6036
11.4637 64.1257
11.6431 62.7482
11.8225 61.638
12.002 62.4101
12.1814 153.188
12.3609 69.4499
12.5405 63.3361
12.72 69.0244
12.8996 69.7187
13.0792 77.2916
13.2589 232.09
13.4386 122.098
13.6183 246.969
13.7981 95.9903
13.9779 74.5664
14.1577 71.4241
14.3376 70.609
14.5175 67.5829
14.6974 69.4305
14.8774 105.951
15.0574 148.277
15.2374 70.0114
15.4175 65.6297
15.5976 64.6222
15.7778 91.7777
15.958 154.497
16.1382 61.8442
16.3185 57.7674
16.4988 54.7952
16.6792 53.564
16.8596 54.3758
17.04 54.6933
17.2205 65.3155
17.401 70.3913
17.5815 58.4453
17.7622 60.3056
17.9428 71.4236
18.1237 138.042
18.3044 89.683
18.4852 76.243
18.666 59.5379
18.8469 57.3189
19.0278 56.1251
19.2088 58.4357
19.3898 76.2612
19.5709 53.3463
19.752 52.6045
19.9332 55.1673
20.1144 68.8294
20.2957 63.8222
20.477 53.0145
20.6586 49.094
20.84 48.0156
21.0215 47.8171
21.203 50.3227
21.3846 48.3043
21.5662 47.8925
21.7479 51.5897
21.9297 63.8092
22.1115 55.5464
22.2933 49.0969
22.4753 48.2525
22.6572 48.0986
22.8393 51.0284
23.0214 56.9011
23.2037 48.1078
23.3859 48.9241
23.5682 56.7241
23.7505 47.8102
23.9329 44.5274
24.1154 43.4027
24.2979 42.8036
24.4805 42.477
24.6631 42.2487
24.8458 41.7456
25.0286 42.2146
25.2114 44.0404
25.3943 44.0234
25.5773 40.2765
25.7605 39.7675
25.9436 40.3248
26.1268 41.105
26.31 39.627
26.4933 40.0471
26.6767 41.583
26.8601 39.9649
27.0437 38.37
27.2272 38.1175
27.4109 37.9076
27.5946 37.8809
27.7784 37.3908
27.9623 38.0058
28.1462 38.4057
28.3304 36.6836
28.5145 35.5157
28.6987 35.246
28.8829 35.0766
29.0673 34.2472
29.2517 33.8732
29.4361 33.6258
29.6207 32.7988
29.8053 32.5525
29.99 32.1226
30.1748 32.1287
30.3597 31.8962
30.5447 31.7057
30.7297 31.8927
30.915 31.1735
31.1002 30.8172
31.2855 30.5421
31.4708 30.5736
31.6563 30.0861
31.8418 29.6683
32.0275 29.5644
32.2132 28.9694
32.399 28.5685
32.5848 28.1611
32.7708 27.8386
32.9569 27.7157
33.143 27.5196
33.3293 26.9844
33.5158 26.6777
33.7022 26.2354
33.8887 26.0364
34.0753 25.6215
34.262 25.3205
34.4488 24.9793
34.6357 24.7247
34.8227 24.411
35.0098 24.2123
35.1969 23.9626
35.3842 23.7804
35.5716 23.5084
35.759 23.2254
35.9468 22.8378
36.1345 22.5989
36.3222 22.3876
36.5101 22.1649
36.6981 21.8477
36.8861 21.5179
37.0743 21.2786
37.2626 20.9707
37.451 20.7016
37.6395 20.5687
37.8281 20.2584
38.0168 19.9862
38.2056 19.6753
38.3945 19.4174
38.5837 19.2955
38.7728 19.0155
38.9621 18.8036
39.1514 18.5222
39.3409 18.2439
39.5304 18.0881
39.7201 17.8341
39.9099 17.6327
40.0999 17.3709
40.2899 17.1326
40.48 16.962
40.6703 16.7661
40.8607 16.5599
41.0512 16.2977
41.242 16.1
41.4327 15.8784
41.6236 15.6927
41.8146 15.465
42.0057 15.2623
42.1969 15.0452
42.3882 14.8747
42.5797 14.6674
42.7713 14.4549
42.963 14.2549
43.1549 14.0978
43.3468 13.8847
43.5389 13.7191
43.7312 13.5029
43.9237 13.2915
44.1162 13.0846
44.3088 12.932
44.5016 12.7656
44.6945 12.6147
44.8875 12.3805
45.0806 12.2216
45.2739 12.0849
45.4673 11.8564
45.6609 11.7304
45.8546 11.5854
46.0484 11.4167
46.2424 11.2945
46.4365 11.1064
46.631 10.898
46.8254 10.76
47.0199 10.5911
47.2146 10.4556
47.4095 10.2762
47.6044 10.1594
47.7996 9.98195
47.9948 9.83822
48.1902 9.6939
48.3858 9.56448
48.5815 9.39303
48.7774 9.29514
48.9734 9.16654
49.1696 8.94456
49.3661 8.8576
49.5626 8.7071
49.7592 8.58101
49.956 8.47319
50.153 8.34922
50.3501 8.20104
50.5474 8.0673
50.7448 7.94774
50.9424 7.81993
51.1402 7.72768
51.3381 7.57266
51.5362 7.44754
51.7344 7.35453
51.9328 7.21175
52.1316 7.08603
52.3304 7.00051
52.5293 6.88111
52.7284 6.77736
52.9276 6.65465
53.1271 6.58873
53.3267 6.45722
53.5265 6.32751
53.7264 6.26202
53.9266 6.06757
54.1269 6.02506
54.3274 5.91259
54.528 5.77036
54.7289 5.58053
54.9301 5.37743
55.1314 5.28778
55.3328 5.12373
55.5344 4.9344
55.7361 4.79344