File: XRD/Ni3Fe_FD1018.xy
TT I
1.27165 7.32023
1.45013 6.06476
1.62863 5.09634
1.80712 4.21839
1.98562 3.65633
2.16411 4.02058
2.34263 5.10166
2.52115 7.17179
2.69965 8.75493
2.87818 8.96707
3.05672 10.8749
3.23527 14.733
3.4138 18.3409
3.59237 21.5242
3.77094 24.6219
3.9495 28.2497
4.12809 32.1386
4.30669 58.3914
4.4853 45.5026
4.6639 52.3361
4.84253 63.4733
5.02118 82.4724
5.19981 225.058
5.37848 238.192
5.55716 96.5549
5.73586 86.5191
5.91455 88.0297
6.09328 4333.15
6.27201 75.5356
6.45075 62.8238
6.62952 57.6083
6.8083 53.832
6.98711 52.1267
7.16591 51.2916
7.34475 56.1871
7.5236 62.1459
7.70247 52.6861
7.88135 54.1472
8.06026 58.5451
8.23919 64.6806
8.41812 76.4322
8.59709 1048.48
8.77609 94.6923
8.9551 81.588
9.13412 78.2273
9.31318 94.6127
9.49226 79.9144
9.67134 85.7089
9.85047 92.6871
10.0296 316.734
10.2088 455.132
10.388 96.4719
10.5672 489.5
10.7465 87.46
10.9257 72.5104
11.105 67.6797
11.2844 64.0638
11.4637 61.1291
11.6431 60.0177
11.8225 58.9977
12.002 69.0586
12.1814 142.89
12.3609 63.7853
12.5405 60.7023
12.72 63.2083
12.8996 66.8167
13.0792 76.1339
13.2589 217.929
13.4386 127.7
13.6183 228.266
13.7981 99.7089
13.9779 72.6395
14.1577 78.05
14.3376 66.3537
14.5175 65.5354
14.6974 66.2978
14.8774 104.587
15.0574 158.55
15.2374 65.6993
15.4175 63.4346
15.5976 62.6051
15.7778 90.1444
15.958 168.663
16.1382 59.7491
16.3185 54.919
16.4988 52.8326
16.6792 52.0477
16.8596 52.2764
17.04 53.3114
17.2205 63.3104
17.401 71.2276
17.5815 56.4422
17.7622 59.4486
17.9428 70.689
18.1237 140.627
18.3044 87.3087
18.4852 78.5737
18.666 58.1509
18.8469 55.7078
19.0278 54.4172
19.2088 57.0236
19.3898 75.9552
19.5709 52.5282
19.752 51.0716
19.9332 54.053
20.1144 69.4636
20.2957 62.6608
20.477 52.4523
20.6586 47.7931
20.84 47.392
21.0215 46.6453
21.203 48.8023
21.3846 47.3871
21.5662 46.8323
21.7479 50.7561
21.9297 64.3623
22.1115 55.4067
22.2933 48.6549
22.4753 46.9199
22.6572 46.9687
22.8393 50.195
23.0214 56.9622
23.2037 47.2009
23.3859 48.4862
23.5682 56.4346
23.7505 47.7808
23.9329 43.8632
24.1154 42.7478
24.2979 41.9515
24.4805 41.4339
24.6631 41.56
24.8458 40.8483
25.0286 41.2838
25.2114 43.6177
25.3943 43.9775
25.5773 39.7564
25.7605 39.2246
25.9436 39.4256
26.1268 40.8578
26.31 39.018
26.4933 39.5417
26.6767 41.3504
26.8601 39.5923
27.0437 37.7966
27.2272 37.3626
27.4109 37.31
27.5946 37.4716
27.7784 36.8228
27.9623 37.5751
28.1462 38.2146
28.3304 36.3662
28.5145 34.8744
28.6987 34.5719
28.8829 34.4685
29.0673 33.7125
29.2517 33.3052
29.4361 33.3704
29.6207 32.185
29.8053 31.8854
29.99 31.6905
30.1748 31.5071
30.3597 31.3508
30.5447 31.228
30.7297 31.358
30.915 30.8822
31.1002 30.3274
31.2855 30.0047
31.4708 29.9768
31.6563 29.6229
31.8418 29.373
32.0275 29.1554
32.2132 28.6068
32.399 28.1293
32.5848 27.6574
32.7708 27.4056
32.9569 27.3823
33.143 27.1772
33.3293 26.7148
33.5158 26.3136
33.7022 25.8507
33.8887 25.6362
34.0753 25.2359
34.262 25.015
34.4488 24.5719
34.6357 24.3016
34.8227 24.0091
35.0098 23.7324
35.1969 23.5326
35.3842 23.3145
35.5716 23.2233
35.759 22.8352
35.9468 22.5125
36.1345 22.3214
36.3222 22.0982
36.5101 21.8279
36.6981 21.5846
36.8861 21.2471
37.0743 20.9956
37.2626 20.6786
37.451 20.3579
37.6395 20.25
37.8281 19.9106
38.0168 19.6641
38.2056 19.4539
38.3945 19.1684
38.5837 18.946
38.7728 18.7441
38.9621 18.4669
39.1514 18.2045
39.3409 17.9651
39.5304 17.7385
39.7201 17.5881
39.9099 17.3557
40.0999 17.133
40.2899 16.8943
40.48 16.6979
40.6703 16.4755
40.8607 16.2885
41.0512 16.1
41.242 15.771
41.4327 15.6505
41.6236 15.4082
41.8146 15.2153
42.0057 15.0263
42.1969 14.8447
42.3882 14.6514
42.5797 14.4211
42.7713 14.2069
42.963 14.0664
43.1549 13.8654
43.3468 13.65
43.5389 13.4306
43.7312 13.2606
43.9237 13.1081
44.1162 12.8928
44.3088 12.7345
44.5016 12.5691
44.6945 12.371
44.8875 12.2047
45.0806 12.039
45.2739 11.8904
45.4673 11.7355
45.6609 11.5403
45.8546 11.3951
46.0484 11.2013
46.2424 11.0413
46.4365 10.9059
46.631 10.703
46.8254 10.5623
47.0199 10.4479
47.2146 10.2776
47.4095 10.1358
47.6044 9.96883
47.7996 9.80801
47.9948 9.68502
48.1902 9.54124
48.3858 9.40281
48.5815 9.27339
48.7774 9.13241
48.9734 8.95311
49.1696 8.88924
49.3661 8.72023
49.5626 8.54982
49.7592 8.45223
49.956 8.34609
50.153 8.24161
50.3501 8.05541
50.5474 7.95241
50.7448 7.84524
50.9424 7.72215
51.1402 7.58332
51.3381 7.46604
51.5362 7.35757
51.7344 7.19664
51.9328 7.10869
52.1316 6.97136
52.3304 6.87939
52.5293 6.73987
52.7284 6.63397
52.9276 6.56174
53.1271 6.44142
53.3267 6.32537
53.5265 6.20697
53.7264 6.0993
53.9266 5.97919
54.1269 5.93896
54.3274 5.76777
54.528 5.68912
54.7289 5.51797
54.9301 5.32061
55.1314 5.21673
55.3328 5.00414
55.5344 4.84567
55.7361 4.68512