File: XRD/Ni3Fe_FD0233.xy
TT I
1.27165 7.53422
1.45013 6.32759
1.62863 6.27771
1.80712 5.26817
1.98562 5.07335
2.16411 4.44743
2.34263 5.02518
2.52115 5.40161
2.69965 6.41485
2.87818 8.16178
3.05672 11.0906
3.23527 14.7634
3.4138 19.0711
3.59237 22.1797
3.77094 25.925
3.9495 30.3182
4.12809 34.8582
4.30669 40.2908
4.4853 48.4452
4.6639 57.9071
4.84253 71.5041
5.02118 96.6909
5.19981 884.77
5.37848 275.379
5.55716 111.75
5.73586 101.116
5.91455 110.078
6.09328 3682.58
6.27201 88.7875
6.45075 71.1635
6.62952 64.1781
6.8083 60.5002
6.98711 57.3535
7.16591 56.7094
7.34475 55.8944
7.5236 56.1586
7.70247 58.5438
7.88135 60.2908
8.06026 65.3767
8.23919 73.7453
8.41812 91.1461
8.59709 1075.77
8.77609 111.055
8.9551 90.715
9.13412 87.1498
9.31318 88.5038
9.49226 89.5434
9.67134 95.7984
9.85047 106.952
10.0296 517.809
10.2088 551.648
10.388 115.509
10.5672 448.426
10.7465 92.3378
10.9257 80.9934
11.105 74.8024
11.2844 70.5051
11.4637 68.0119
11.6431 66.6038
11.8225 65.3416
12.002 68.5951
12.1814 142.455
12.3609 70.0015
12.5405 67.5584
12.72 69.5803
12.8996 74.7653
13.0792 86.3365
13.2589 230.801
13.4386 149.2
13.6183 227.268
13.7981 110.783
13.9779 80.1481
14.1577 75.3134
14.3376 73.2767
14.5175 72.4473
14.6974 74.6379
14.8774 120.333
15.0574 169.078
15.2374 72.5869
15.4175 69.8423
15.5976 69.7899
15.7778 103.655
15.958 173.83
16.1382 63.9147
16.3185 60.3067
16.4988 58.0881
16.6792 57.0634
16.8596 57.1854
17.04 59.4646
17.2205 68.7588
17.401 77.0121
17.5815 62.1528
17.7622 64.497
17.9428 82.733
18.1237 138.895
18.3044 90.4403
18.4852 83.247
18.666 63.5138
18.8469 61.0463
19.0278 59.713
19.2088 62.8933
19.3898 76.1047
19.5709 56.9421
19.752 56.1024
19.9332 59.4989
20.1144 72.4596
20.2957 64.5037
20.477 56.9031
20.6586 52.0784
20.84 51.2634
21.0215 51.2212
21.203 52.5788
21.3846 51.6032
21.5662 51.8416
21.7479 55.5025
21.9297 66.7608
22.1115 57.6588
22.2933 52.5284
22.4753 51.1298
22.6572 51.9538
22.8393 54.223
23.0214 59.8505
23.2037 51.4195
23.3859 52.546
23.5682 57.7033
23.7505 51.2189
23.9329 47.3054
24.1154 46.196
24.2979 45.5702
24.4805 44.8684
24.6631 44.8339
24.8458 44.3645
25.0286 44.9994
25.2114 46.6951
25.3943 46.7027
25.5773 42.9399
25.7605 42.5512
25.9436 42.7111
26.1268 43.5195
26.31 42.17
26.4933 42.5793
26.6767 43.9231
26.8601 42.3738
27.0437 40.7151
27.2272 40.4623
27.4109 40.0734
27.5946 40.2865
27.7784 39.7703
27.9623 39.9386
28.1462 40.6013
28.3304 38.9117
28.5145 37.6355
28.6987 37.2884
28.8829 37.0163
29.0673 36.2282
29.2517 35.9286
29.4361 35.569
29.6207 34.5785
29.8053 34.4483
29.99 34.0866
30.1748 33.8716
30.3597 33.8053
30.5447 33.5558
30.7297 33.7256
30.915 33.1736
31.1002 32.5768
31.2855 32.2478
31.4708 32.2376
31.6563 31.8134
31.8418 31.4644
32.0275 31.3608
32.2132 30.7671
32.399 30.3703
32.5848 29.8671
32.7708 29.3937
32.9569 29.3928
33.143 29.0504
33.3293 28.6665
33.5158 28.2895
33.7022 27.8144
33.8887 27.4925
34.0753 27.2569
34.262 26.8838
34.4488 26.4747
34.6357 26.066
34.8227 25.8842
35.0098 25.6299
35.1969 25.3136
35.3842 25.0481
35.5716 24.7619
35.759 24.5398
35.9468 24.1425
36.1345 24.0015
36.3222 23.7295
36.5101 23.4841
36.6981 23.1474
36.8861 22.7655
37.0743 22.4793
37.2626 22.2227
37.451 21.9233
37.6395 21.7657
37.8281 21.3378
38.0168 21.1632
38.2056 20.8725
38.3945 20.5575
38.5837 20.3215
38.7728 20.0644
38.9621 19.8037
39.1514 19.6163
39.3409 19.2725
39.5304 19.0789
39.7201 18.8146
39.9099 18.5994
40.0999 18.428
40.2899 18.1692
40.48 17.8894
40.6703 17.6898
40.8607 17.5248
41.0512 17.3079
41.242 17.0003
41.4327 16.7484
41.6236 16.5252
41.8146 16.3525
42.0057 16.046
42.1969 15.8627
42.3882 15.6821
42.5797 15.5153
42.7713 15.2479
42.963 15.0348
43.1549 14.8305
43.3468 14.6166
43.5389 14.4586
43.7312 14.1963
43.9237 14.0508
44.1162 13.8119
44.3088 13.6736
44.5016 13.4938
44.6945 13.2967
44.8875 13.0567
45.0806 12.9416
45.2739 12.7282
45.4673 12.5729
45.6609 12.3568
45.8546 12.1926
46.0484 12.029
46.2424 11.8183
46.4365 11.6808
46.631 11.5589
46.8254 11.2939
47.0199 11.155
47.2146 10.9961
47.4095 10.85
47.6044 10.6843
47.7996 10.5364
47.9948 10.3761
48.1902 10.211
48.3858 10.0897
48.5815 9.92408
48.7774 9.7931
48.9734 9.67498
49.1696 9.48351
49.3661 9.30408
49.5626 9.1902
49.7592 9.06043
49.956 8.92812
50.153 8.79703
50.3501 8.6448
50.5474 8.51487
50.7448 8.37136
50.9424 8.26074
51.1402 8.13308
51.3381 7.99218
51.5362 7.86601
51.7344 7.71289
51.9328 7.55409
52.1316 7.47772
52.3304 7.3396
52.5293 7.20896
52.7284 7.11373
52.9276 7.01679
53.1271 6.89233
53.3267 6.76691
53.5265 6.65553
53.7264 6.53219
53.9266 6.42383
54.1269 6.30228
54.3274 6.18748
54.528 6.04496
54.7289 5.84117
54.9301 5.65294
55.1314 5.54612
55.3328 5.32075
55.5344 5.1029
55.7361 5.00287