File: XRD/Ni3Fe_FD0593.xy
TT I
1.27165 7.26047
1.45013 6.45869
1.62863 5.30028
1.80712 5.21885
1.98562 4.68278
2.16411 4.57195
2.34263 5.19879
2.52115 6.68138
2.69965 7.42649
2.87818 8.84726
3.05672 11.1879
3.23527 15.5216
3.4138 18.8426
3.59237 22.8231
3.77094 25.6921
3.9495 29.5729
4.12809 34.3332
4.30669 107.954
4.4853 55.1173
4.6639 55.7791
4.84253 68.65
5.02118 89.0491
5.19981 481.249
5.37848 201.917
5.55716 103.466
5.73586 93.6861
5.91455 97.3496
6.09328 4369.91
6.27201 81.9133
6.45075 69.0319
6.62952 63.0
6.8083 59.5261
6.98711 56.0706
7.16591 56.0282
7.34475 68.6117
7.5236 54.6878
7.70247 57.1592
7.88135 57.9544
8.06026 63.0348
8.23919 70.2543
8.41812 85.3076
8.59709 1271.9
8.77609 99.7085
8.9551 89.9761
9.13412 83.4597
9.31318 84.9517
9.49226 85.6666
9.67134 95.9248
9.85047 102.52
10.0296 382.906
10.2088 362.57
10.388 107.432
10.5672 515.103
10.7465 87.1289
10.9257 78.6379
11.105 72.1534
11.2844 69.1624
11.4637 65.2749
11.6431 63.9983
11.8225 62.9921
12.002 65.257
12.1814 157.368
12.3609 67.6967
12.5405 65.11
12.72 68.8677
12.8996 72.2682
13.0792 81.619
13.2589 254.076
13.4386 121.756
13.6183 255.786
13.7981 96.5091
13.9779 76.7058
14.1577 72.5713
14.3376 71.1048
14.5175 69.5685
14.6974 71.3792
14.8774 116.548
15.0574 143.156
15.2374 70.2779
15.4175 66.9987
15.5976 66.6428
15.7778 100.027
15.958 149.771
16.1382 62.2197
16.3185 58.3459
16.4988 55.8513
16.6792 54.9656
16.8596 55.282
17.04 56.5068
17.2205 68.2069
17.401 70.9997
17.5815 59.7199
17.7622 61.9376
17.9428 75.7331
18.1237 141.143
18.3044 92.531
18.4852 76.5225
18.666 60.6992
18.8469 58.5859
19.0278 57.1836
19.2088 60.162
19.3898 75.9878
19.5709 54.4686
19.752 53.6746
19.9332 57.0006
20.1144 70.3219
20.2957 64.3955
20.477 53.5668
20.6586 50.0434
20.84 49.208
21.0215 48.9302
21.203 51.1142
21.3846 49.1735
21.5662 49.4718
21.7479 53.454
21.9297 64.9931
22.1115 56.2454
22.2933 50.1422
22.4753 49.0834
22.6572 49.4149
22.8393 52.7369
23.0214 57.2913
23.2037 49.2571
23.3859 50.3448
23.5682 57.3269
23.7505 48.2961
23.9329 45.4679
24.1154 44.3282
24.2979 43.6977
24.4805 43.1924
24.6631 43.0318
24.8458 42.5638
25.0286 43.2458
25.2114 45.0871
25.3943 44.83
25.5773 41.0806
25.7605 40.5886
25.9436 41.0903
26.1268 41.9799
26.31 40.33
26.4933 41.0957
26.6767 42.3873
26.8601 40.6124
27.0437 39.2093
27.2272 38.7239
27.4109 38.7443
27.5946 38.5623
27.7784 38.1102
27.9623 38.7764
28.1462 39.0047
28.3304 37.3377
28.5145 36.2196
28.6987 35.817
28.8829 35.5399
29.0673 34.9211
29.2517 34.5244
29.4361 34.3785
29.6207 33.2533
29.8053 33.0095
29.99 32.9199
30.1748 32.6331
30.3597 32.4826
30.5447 32.3494
30.7297 32.516
30.915 31.8418
31.1002 31.3662
31.2855 31.0673
31.4708 31.0365
31.6563 30.4728
31.8418 30.4016
32.0275 30.1853
32.2132 29.5724
32.399 29.0854
32.5848 28.6783
32.7708 28.2848
32.9569 28.2157
33.143 28.0299
33.3293 27.6105
33.5158 27.1936
33.7022 26.8463
33.8887 26.5016
34.0753 26.0716
34.262 25.8293
34.4488 25.5141
34.6357 25.1948
34.8227 24.8558
35.0098 24.6707
35.1969 24.3211
35.3842 24.1482
35.5716 23.8679
35.759 23.6172
35.9468 23.2852
36.1345 23.0488
36.3222 22.8493
36.5101 22.5741
36.6981 22.2356
36.8861 21.9987
37.0743 21.689
37.2626 21.4076
37.451 21.1185
37.6395 20.8942
37.8281 20.5846
38.0168 20.3574
38.2056 20.0569
38.3945 19.7583
38.5837 19.6044
38.7728 19.3728
38.9621 19.1189
39.1514 18.7725
39.3409 18.5702
39.5304 18.4248
39.7201 18.1643
39.9099 17.9367
40.0999 17.6763
40.2899 17.4703
40.48 17.2039
40.6703 17.0311
40.8607 16.8322
41.0512 16.5853
41.242 16.3149
41.4327 16.1201
41.6236 15.9446
41.8146 15.7074
42.0057 15.5071
42.1969 15.3464
42.3882 15.0945
42.5797 14.902
42.7713 14.6895
42.963 14.5073
43.1549 14.3151
43.3468 14.0711
43.5389 13.861
43.7312 13.7223
43.9237 13.5224
44.1162 13.3384
44.3088 13.2029
44.5016 13.013
44.6945 12.8154
44.8875 12.6209
45.0806 12.4388
45.2739 12.2452
45.4673 12.1317
45.6609 11.9332
45.8546 11.7628
46.0484 11.5618
46.2424 11.3928
46.4365 11.2672
46.631 11.0663
46.8254 10.9124
47.0199 10.7665
47.2146 10.5996
47.4095 10.4229
47.6044 10.3173
47.7996 10.1112
47.9948 9.95758
48.1902 9.86341
48.3858 9.72585
48.5815 9.59209
48.7774 9.4707
48.9734 9.288
49.1696 9.17667
49.3661 9.00531
49.5626 8.81422
49.7592 8.71681
49.956 8.65402
50.153 8.48131
50.3501 8.36015
50.5474 8.19859
50.7448 8.08074
50.9424 7.99282
51.1402 7.86074
51.3381 7.72612
51.5362 7.60415
51.7344 7.49106
51.9328 7.34418
52.1316 7.2031
52.3304 7.09994
52.5293 6.97285
52.7284 6.84697
52.9276 6.77695
53.1271 6.64361
53.3267 6.56417
53.5265 6.39362
53.7264 6.29109
53.9266 6.19561
54.1269 6.06075
54.3274 6.0044
54.528 5.86133
54.7289 5.65219
54.9301 5.49938
55.1314 5.39421
55.3328 5.17861
55.5344 4.98987
55.7361 4.85221