File: XRD/Ni3Fe_FD0419.xy
TT I
1.27165 7.63479
1.45013 6.12175
1.62863 4.94227
1.80712 5.35518
1.98562 5.20834
2.16411 4.34283
2.34263 5.61862
2.52115 6.33476
2.69965 7.0276
2.87818 8.46342
3.05672 11.0751
3.23527 15.2508
3.4138 19.2107
3.59237 25.3265
3.77094 26.5962
3.9495 30.2458
4.12809 35.7843
4.30669 292.425
4.4853 74.1548
4.6639 56.4155
4.84253 68.1352
5.02118 88.8708
5.19981 423.848
5.37848 222.522
5.55716 104.37
5.73586 94.303
5.91455 97.3055
6.09328 3823.54
6.27201 87.42
6.45075 68.8245
6.62952 64.8439
6.8083 60.4046
6.98711 57.0399
7.16591 57.2285
7.34475 108.371
7.5236 56.4382
7.70247 57.643
7.88135 59.0199
8.06026 63.3831
8.23919 71.0658
8.41812 88.0162
8.59709 1063.71
8.77609 103.983
8.9551 95.9233
9.13412 83.4952
9.31318 84.2276
9.49226 86.0791
9.67134 104.088
9.85047 102.26
10.0296 353.458
10.2088 508.562
10.388 108.176
10.5672 473.482
10.7465 89.3579
10.9257 80.7182
11.105 73.459
11.2844 73.5221
11.4637 66.4399
11.6431 65.0402
11.8225 63.9226
12.002 64.851
12.1814 141.77
12.3609 75.1294
12.5405 66.4785
12.72 73.033
12.8996 72.3097
13.0792 80.4147
13.2589 220.896
13.4386 138.559
13.6183 226.4
13.7981 106.021
13.9779 77.5853
14.1577 74.591
14.3376 74.1804
14.5175 70.4392
14.6974 72.2311
14.8774 109.367
15.0574 164.852
15.2374 73.8202
15.4175 68.0108
15.5976 67.231
15.7778 94.7982
15.958 171.314
16.1382 65.1287
16.3185 60.7383
16.4988 56.9468
16.6792 56.0623
16.8596 56.7562
17.04 57.2094
17.2205 66.8474
17.401 74.8543
17.5815 60.5826
17.7622 62.6058
17.9428 75.0387
18.1237 136.748
18.3044 89.0504
18.4852 82.9787
18.666 61.9403
18.8469 59.431
19.0278 58.4813
19.2088 60.8965
19.3898 77.857
19.5709 55.5976
19.752 54.4647
19.9332 57.5791
20.1144 70.813
20.2957 63.7597
20.477 55.8937
20.6586 50.6323
20.84 49.9951
21.0215 49.7414
21.203 51.656
21.3846 50.2432
21.5662 49.737
21.7479 53.4694
21.9297 65.4353
22.1115 56.8385
22.2933 51.2707
22.4753 50.1688
22.6572 49.9278
22.8393 52.6093
23.0214 58.9798
23.2037 49.9873
23.3859 50.7448
23.5682 57.0126
23.7505 50.067
23.9329 46.2521
24.1154 45.2468
24.2979 44.5342
24.4805 43.8767
24.6631 43.9682
24.8458 43.2077
25.0286 43.6943
25.2114 45.6526
25.3943 45.7152
25.5773 41.9007
25.7605 41.4808
25.9436 41.6954
26.1268 42.6055
26.31 41.1069
26.4933 41.5941
26.6767 43.0766
26.8601 41.4868
27.0437 39.8381
27.2272 39.4321
27.4109 39.2867
27.5946 39.3024
27.7784 38.686
27.9623 39.103
28.1462 39.7174
28.3304 38.1386
28.5145 36.7933
28.6987 36.4795
28.8829 36.2566
29.0673 35.4362
29.2517 35.103
29.4361 34.8949
29.6207 33.8759
29.8053 33.751
29.99 33.3149
30.1748 33.0748
30.3597 33.0261
30.5447 32.9222
30.7297 32.9191
30.915 32.3493
31.1002 31.8151
31.2855 31.5999
31.4708 31.5301
31.6563 31.0834
31.8418 30.7312
32.0275 30.5793
32.2132 30.0803
32.399 29.6236
32.5848 29.1284
32.7708 28.8125
32.9569 28.7342
33.143 28.5014
33.3293 28.0141
33.5158 27.6701
33.7022 27.2464
33.8887 26.9402
34.0753 26.6269
34.262 26.282
34.4488 25.8704
34.6357 25.5496
34.8227 25.3228
35.0098 25.0377
35.1969 24.6538
35.3842 24.5561
35.5716 24.2844
35.759 23.9537
35.9468 23.5632
36.1345 23.3963
36.3222 23.1613
36.5101 22.9627
36.6981 22.5919
36.8861 22.3247
37.0743 21.9927
37.2626 21.7211
37.451 21.4367
37.6395 21.3086
37.8281 20.9286
38.0168 20.6966
38.2056 20.4268
38.3945 20.0683
38.5837 19.8917
38.7728 19.6639
38.9621 19.3479
39.1514 19.1389
39.3409 18.9231
39.5304 18.6922
39.7201 18.4788
39.9099 18.2455
40.0999 17.9603
40.2899 17.7505
40.48 17.5364
40.6703 17.3191
40.8607 17.095
41.0512 16.9171
41.242 16.5857
41.4327 16.4295
41.6236 16.2252
41.8146 15.9779
42.0057 15.7901
42.1969 15.5586
42.3882 15.4407
42.5797 15.2011
42.7713 14.9524
42.963 14.7285
43.1549 14.5633
43.3468 14.3095
43.5389 14.153
43.7312 13.9308
43.9237 13.7821
44.1162 13.5484
44.3088 13.3788
44.5016 13.2056
44.6945 13.0009
44.8875 12.8258
45.0806 12.647
45.2739 12.4731
45.4673 12.3072
45.6609 12.1358
45.8546 11.9745
46.0484 11.7889
46.2424 11.5889
46.4365 11.4531
46.631 11.3093
46.8254 11.0968
47.0199 10.9838
47.2146 10.838
47.4095 10.591
47.6044 10.4407
47.7996 10.2754
47.9948 10.1663
48.1902 10.025
48.3858 9.86983
48.5815 9.75754
48.7774 9.58853
48.9734 9.4901
49.1696 9.31034
49.3661 9.18109
49.5626 9.02899
49.7592 8.8987
49.956 8.79015
50.153 8.63183
50.3501 8.49801
50.5474 8.39029
50.7448 8.23608
50.9424 8.1231
51.1402 7.98744
51.3381 7.87327
51.5362 7.7442
51.7344 7.5876
51.9328 7.45496
52.1316 7.32947
52.3304 7.25509
52.5293 7.09036
52.7284 6.99774
52.9276 6.87086
53.1271 6.7841
53.3267 6.64617
53.5265 6.50713
53.7264 6.40159
53.9266 6.32726
54.1269 6.17061
54.3274 6.05681
54.528 5.98029
54.7289 5.77618
54.9301 5.58347
55.1314 5.47182
55.3328 5.2779
55.5344 5.0814
55.7361 4.84032