File: XRD/Ni3Fe_FD0683.xy
TT I
1.27165 7.30397
1.45013 5.74532
1.62863 4.89299
1.80712 4.74679
1.98562 4.85298
2.16411 4.90479
2.34263 5.15047
2.52115 5.95783
2.69965 8.21621
2.87818 8.67329
3.05672 11.1005
3.23527 14.6184
3.4138 18.7506
3.59237 23.1562
3.77094 25.6466
3.9495 29.9895
4.12809 34.0637
4.30669 138.511
4.4853 56.8057
4.6639 55.2707
4.84253 67.3383
5.02118 87.3837
5.19981 410.44
5.37848 189.328
5.55716 102.393
5.73586 92.5219
5.91455 95.3161
6.09328 4561.61
6.27201 81.0269
6.45075 67.79
6.62952 62.1531
6.8083 58.1859
6.98711 55.4173
7.16591 55.586
7.34475 75.4431
7.5236 54.4564
7.70247 56.1037
7.88135 57.4769
8.06026 62.2013
8.23919 69.1671
8.41812 84.2244
8.59709 1230.52
8.77609 98.3085
8.9551 89.4795
9.13412 82.3782
9.31318 83.1344
9.49226 84.4954
9.67134 95.5737
9.85047 99.9521
10.0296 364.067
10.2088 365.188
10.388 104.774
10.5672 512.08
10.7465 86.1418
10.9257 77.8539
11.105 71.4335
11.2844 68.9663
11.4637 64.3936
11.6431 63.4673
11.8225 62.4763
12.002 64.0086
12.1814 156.021
12.3609 68.008
12.5405 64.4743
12.72 68.6235
12.8996 70.9142
13.0792 80.048
13.2589 247.381
13.4386 120.334
13.6183 255.471
13.7981 93.649
13.9779 75.7599
14.1577 71.8813
14.3376 70.7287
14.5175 68.9613
14.6974 70.625
14.8774 113.213
15.0574 141.004
15.2374 69.8175
15.4175 66.1861
15.5976 65.7622
15.7778 96.3328
15.958 150.462
16.1382 61.6742
16.3185 57.7875
16.4988 55.205
16.6792 54.3322
16.8596 54.8766
17.04 55.9331
17.2205 67.1547
17.401 69.8113
17.5815 59.025
17.7622 61.4435
17.9428 74.2383
18.1237 142.673
18.3044 91.3082
18.4852 75.5125
18.666 60.1197
18.8469 57.8361
19.0278 56.7638
19.2088 59.4673
19.3898 76.3076
19.5709 53.9808
19.752 53.1671
19.9332 56.1733
20.1144 70.0247
20.2957 64.0291
20.477 52.9436
20.6586 49.5658
20.84 48.8865
21.0215 48.4293
21.203 50.9041
21.3846 48.7407
21.5662 48.9789
21.7479 52.7929
21.9297 64.9461
22.1115 56.0996
22.2933 49.49
22.4753 48.7148
22.6572 48.9462
22.8393 52.1345
23.0214 57.157
23.2037 48.5884
23.3859 49.8554
23.5682 57.2729
23.7505 47.798
23.9329 45.1735
24.1154 44.0725
24.2979 43.2188
24.4805 42.8525
24.6631 42.7478
24.8458 42.1385
25.0286 42.8006
25.2114 44.5881
25.3943 44.5458
25.5773 40.7644
25.7605 40.3901
25.9436 40.8104
26.1268 41.6765
26.31 40.0065
26.4933 40.7619
26.6767 42.1542
26.8601 40.2543
27.0437 38.7854
27.2272 38.5369
27.4109 38.3703
27.5946 38.3692
27.7784 37.8634
27.9623 38.3709
28.1462 38.7567
28.3304 36.9999
28.5145 35.8997
28.6987 35.5245
28.8829 35.3535
29.0673 34.5988
29.2517 34.4644
29.4361 34.0509
29.6207 32.9958
29.8053 32.7462
29.99 32.4794
30.1748 32.302
30.3597 32.2111
30.5447 32.0353
30.7297 32.2517
30.915 31.4966
31.1002 31.0303
31.2855 30.725
31.4708 30.7941
31.6563 30.252
31.8418 30.0838
32.0275 29.8404
32.2132 29.2679
32.399 28.8906
32.5848 28.3654
32.7708 28.0742
32.9569 27.9461
33.143 27.7654
33.3293 27.3721
33.5158 26.9042
33.7022 26.5431
33.8887 26.2709
34.0753 25.9072
34.262 25.6373
34.4488 25.2446
34.6357 24.9435
34.8227 24.6527
35.0098 24.4656
35.1969 24.1099
35.3842 24.0185
35.5716 23.7491
35.759 23.3749
35.9468 23.0809
36.1345 22.8845
36.3222 22.5837
36.5101 22.392
36.6981 22.0941
36.8861 21.764
37.0743 21.4519
37.2626 21.1671
37.451 20.9262
37.6395 20.7389
37.8281 20.4639
38.0168 20.1735
38.2056 19.9643
38.3945 19.6445
38.5837 19.3962
38.7728 19.225
38.9621 18.9345
39.1514 18.6549
39.3409 18.4154
39.5304 18.199
39.7201 18.0703
39.9099 17.8409
40.0999 17.5523
40.2899 17.3115
40.48 17.0751
40.6703 16.8938
40.8607 16.6791
41.0512 16.4634
41.242 16.2289
41.4327 16.0059
41.6236 15.8205
41.8146 15.6117
42.0057 15.3966
42.1969 15.1674
42.3882 15.0293
42.5797 14.8167
42.7713 14.628
42.963 14.3984
43.1549 14.1926
43.3468 13.9534
43.5389 13.7762
43.7312 13.6002
43.9237 13.4008
44.1162 13.2527
44.3088 13.0312
44.5016 12.861
44.6945 12.6758
44.8875 12.4875
45.0806 12.3352
45.2739 12.1164
45.4673 12.0482
45.6609 11.7893
45.8546 11.6968
46.0484 11.511
46.2424 11.3276
46.4365 11.1554
46.631 10.9698
46.8254 10.8029
47.0199 10.7009
47.2146 10.5124
47.4095 10.3467
47.6044 10.1984
47.7996 10.0904
47.9948 9.89556
48.1902 9.7827
48.3858 9.60996
48.5815 9.50997
48.7774 9.37245
48.9734 9.24607
49.1696 9.07206
49.3661 8.90107
49.5626 8.8183
49.7592 8.71625
49.956 8.56929
50.153 8.42574
50.3501 8.27809
50.5474 8.17452
50.7448 7.9938
50.9424 7.89339
51.1402 7.78538
51.3381 7.66173
51.5362 7.57113
51.7344 7.41076
51.9328 7.29544
52.1316 7.12909
52.3304 7.07159
52.5293 6.9512
52.7284 6.8146
52.9276 6.67415
53.1271 6.58481
53.3267 6.4838
53.5265 6.32398
53.7264 6.28087
53.9266 6.17038
54.1269 6.00365
54.3274 5.94131
54.528 5.7577
54.7289 5.64157
54.9301 5.49491
55.1314 5.34649
55.3328 5.15218
55.5344 4.93589
55.7361 4.82138