File: XRD/Ni3Fe_FD1078.xy
TT I
1.27165 6.64893
1.45013 5.62018
1.62863 4.75566
1.80712 3.85747
1.98562 3.95532
2.16411 4.25843
2.34263 5.27381
2.52115 7.38915
2.69965 8.04975
2.87818 8.28834
3.05672 10.854
3.23527 14.7834
3.4138 18.205
3.59237 21.2671
3.77094 24.3872
3.9495 28.6245
4.12809 32.0177
4.30669 56.3787
4.4853 46.268
4.6639 52.7868
4.84253 64.3418
5.02118 82.7063
5.19981 231.393
5.37848 203.846
5.55716 97.3839
5.73586 87.776
5.91455 89.2377
6.09328 4452.99
6.27201 76.3642
6.45075 63.2069
6.62952 58.0689
6.8083 54.5721
6.98711 52.6059
7.16591 51.8506
7.34475 55.8028
7.5236 57.9904
7.70247 53.1969
7.88135 54.7289
8.06026 59.0231
8.23919 65.907
8.41812 77.9402
8.59709 1115.04
8.77609 94.9476
8.9551 82.3122
9.13412 78.7757
9.31318 88.1673
9.49226 81.2519
9.67134 86.5409
9.85047 93.8989
10.0296 353.373
10.2088 442.657
10.388 98.0109
10.5672 514.781
10.7465 85.8958
10.9257 73.6137
11.105 68.0094
11.2844 64.8987
11.4637 62.0794
11.6431 60.5565
11.8225 59.6978
12.002 65.837
12.1814 147.183
12.3609 64.6137
12.5405 61.5477
12.72 63.9297
12.8996 68.1215
13.0792 76.4615
13.2589 231.227
13.4386 125.806
13.6183 237.621
13.7981 100.003
13.9779 73.4719
14.1577 74.6268
14.3376 67.5369
14.5175 66.4306
14.6974 67.4288
14.8774 110.873
15.0574 158.742
15.2374 66.5468
15.4175 64.2732
15.5976 63.5242
15.7778 95.555
15.958 169.338
16.1382 59.7939
16.3185 55.6041
16.4988 53.5601
16.6792 52.4755
16.8596 52.9858
17.04 53.9642
17.2205 64.8685
17.401 72.1194
17.5815 57.3882
17.7622 60.0346
17.9428 73.5106
18.1237 142.287
18.3044 88.6874
18.4852 78.799
18.666 58.8923
18.8469 56.3134
19.0278 55.2415
19.2088 58.217
19.3898 76.0308
19.5709 52.9397
19.752 51.8186
19.9332 55.38
20.1144 70.3846
20.2957 63.5301
20.477 52.9383
20.6586 48.4937
20.84 47.8367
21.0215 47.5487
21.203 49.8392
21.3846 48.0257
21.5662 47.5475
21.7479 52.0096
21.9297 65.2484
22.1115 55.94
22.2933 49.0139
22.4753 47.7073
22.6572 47.6634
22.8393 51.3519
23.0214 57.4341
23.2037 47.883
23.3859 49.4187
23.5682 57.1095
23.7505 48.2662
23.9329 44.2398
24.1154 43.116
24.2979 42.374
24.4805 42.0307
24.6631 42.026
24.8458 41.2967
25.0286 42.0513
25.2114 44.2803
25.3943 44.3254
25.5773 40.1538
25.7605 39.5889
25.9436 40.1036
26.1268 41.2547
26.31 39.4417
26.4933 40.1487
26.6767 42.0749
26.8601 40.1446
27.0437 38.3834
27.2272 37.9015
27.4109 37.8847
27.5946 37.8617
27.7784 37.3325
27.9623 38.1893
28.1462 38.719
28.3304 36.6794
28.5145 35.3006
28.6987 35.0743
28.8829 34.9869
29.0673 34.185
29.2517 33.7489
29.4361 33.6259
29.6207 32.6144
29.8053 32.3513
29.99 32.0412
30.1748 32.0186
30.3597 31.7461
30.5447 31.7879
30.7297 31.9842
30.915 31.2749
31.1002 30.7157
31.2855 30.3446
31.4708 30.5051
31.6563 29.981
31.8418 29.7271
32.0275 29.54
32.2132 28.9829
32.399 28.5205
32.5848 28.1284
32.7708 27.7247
32.9569 27.683
33.143 27.4347
33.3293 27.1026
33.5158 26.6738
33.7022 26.2782
33.8887 26.0361
34.0753 25.6969
34.262 25.3347
34.4488 24.9993
34.6357 24.6018
34.8227 24.3537
35.0098 24.0791
35.1969 23.879
35.3842 23.6681
35.5716 23.4511
35.759 23.1213
35.9468 22.8309
36.1345 22.5258
36.3222 22.4012
36.5101 22.1887
36.6981 21.8481
36.8861 21.5051
37.0743 21.2648
37.2626 20.9585
37.451 20.6907
37.6395 20.517
37.8281 20.2572
38.0168 19.9358
38.2056 19.6574
38.3945 19.3963
38.5837 19.1914
38.7728 19.0153
38.9621 18.7179
39.1514 18.48
39.3409 18.229
39.5304 17.9947
39.7201 17.791
39.9099 17.5759
40.0999 17.3079
40.2899 17.143
40.48 16.9301
40.6703 16.6753
40.8607 16.4743
41.0512 16.2709
41.242 16.0462
41.4327 15.8398
41.6236 15.6147
41.8146 15.3908
42.0057 15.227
42.1969 15.0106
42.3882 14.8129
42.5797 14.6144
42.7713 14.4225
42.963 14.231
43.1549 14.0369
43.3468 13.8181
43.5389 13.6091
43.7312 13.475
43.9237 13.2253
44.1162 13.1019
44.3088 12.8764
44.5016 12.6735
44.6945 12.5641
44.8875 12.3821
45.0806 12.2023
45.2739 12.0746
45.4673 11.9075
45.6609 11.6391
45.8546 11.5585
46.0484 11.3661
46.2424 11.239
46.4365 11.0606
46.631 10.8959
46.8254 10.7346
47.0199 10.5579
47.2146 10.4726
47.4095 10.2406
47.6044 10.0924
47.7996 9.9075
47.9948 9.77514
48.1902 9.60725
48.3858 9.51614
48.5815 9.41228
48.7774 9.27427
48.9734 9.14346
49.1696 8.94484
49.3661 8.84806
49.5626 8.65506
49.7592 8.5301
49.956 8.45359
50.153 8.3185
50.3501 8.14921
50.5474 8.07141
50.7448 7.94898
50.9424 7.81686
51.1402 7.70101
51.3381 7.58694
51.5362 7.4687
51.7344 7.32664
51.9328 7.20544
52.1316 7.06836
52.3304 6.9744
52.5293 6.8435
52.7284 6.73546
52.9276 6.62465
53.1271 6.51017
53.3267 6.38825
53.5265 6.34425
53.7264 6.17102
53.9266 6.09766
54.1269 5.95789
54.3274 5.84182
54.528 5.71436
54.7289 5.56511
54.9301 5.42916
55.1314 5.33232
55.3328 5.0656
55.5344 4.90264
55.7361 4.70887