File: XRD/Ni3Fe_FD0999.xy
TT I
1.27165 7.06424
1.45013 5.75098
1.62863 4.96889
1.80712 5.07205
1.98562 5.07882
2.16411 4.82897
2.34263 5.57849
2.52115 7.23361
2.69965 8.51773
2.87818 8.74647
3.05672 11.0204
3.23527 15.1414
3.4138 19.0699
3.59237 24.4887
3.77094 25.8734
3.9495 29.6644
4.12809 34.5889
4.30669 262.001
4.4853 69.8171
4.6639 53.9186
4.84253 65.4226
5.02118 83.7412
5.19981 267.478
5.37848 173.337
5.55716 99.5041
5.73586 88.9158
5.91455 89.4449
6.09328 4523.4
6.27201 81.0184
6.45075 65.9889
6.62952 62.0291
6.8083 57.7778
6.98711 55.1007
7.16591 54.9526
7.34475 100.487
7.5236 54.0825
7.70247 55.3742
7.88135 56.7303
8.06026 60.8731
8.23919 68.077
8.41812 83.1396
8.59709 1090.42
8.77609 96.4149
8.9551 91.1142
9.13412 80.2768
9.31318 80.3113
9.49226 82.701
9.67134 98.4631
9.85047 97.0172
10.0296 279.214
10.2088 373.322
10.388 101.692
10.5672 525.242
10.7465 84.3798
10.9257 77.0275
11.105 70.5045
11.2844 69.6745
11.4637 63.882
11.6431 62.4697
11.8225 60.9577
12.002 61.65
12.1814 147.488
12.3609 70.4633
12.5405 62.9181
12.72 69.7053
12.8996 68.8931
13.0792 76.5036
13.2589 220.034
13.4386 121.884
13.6183 235.134
13.7981 94.8606
13.9779 73.9556
14.1577 71.0574
14.3376 70.6974
14.5175 67.0909
14.6974 68.7567
14.8774 102.021
15.0574 151.246
15.2374 70.103
15.4175 65.071
15.5976 64.2359
15.7778 87.971
15.958 155.25
16.1382 61.8107
16.3185 57.6925
16.4988 54.304
16.6792 53.5679
16.8596 54.2245
17.04 54.5797
17.2205 64.35
17.401 69.2434
17.5815 57.7042
17.7622 59.7616
17.9428 69.9749
18.1237 139.552
18.3044 87.8883
18.4852 76.146
18.666 59.1816
18.8469 56.8273
19.0278 55.7823
19.2088 57.8209
19.3898 75.7316
19.5709 53.1538
19.752 52.2246
19.9332 54.5816
20.1144 68.979
20.2957 63.0013
20.477 52.5607
20.6586 48.6208
20.84 47.7824
21.0215 47.3949
21.203 49.9523
21.3846 47.9345
21.5662 47.7375
21.7479 51.0528
21.9297 63.5268
22.1115 55.266
22.2933 48.8589
22.4753 48.0211
22.6572 47.5627
22.8393 50.5427
23.0214 56.4986
23.2037 47.7709
23.3859 48.3981
23.5682 56.3557
23.7505 47.5025
23.9329 44.2659
24.1154 43.3463
24.2979 42.5652
24.4805 42.1108
24.6631 41.9593
24.8458 41.2756
25.0286 41.8468
25.2114 43.709
25.3943 43.8364
25.5773 40.0279
25.7605 39.5646
25.9436 39.9037
26.1268 41.099
26.31 39.2799
26.4933 39.7706
26.6767 41.3014
26.8601 39.6714
27.0437 38.205
27.2272 37.6023
27.4109 37.7203
27.5946 37.6501
27.7784 37.1141
27.9623 37.4963
28.1462 37.9737
28.3304 36.3961
28.5145 35.2011
28.6987 35.0498
28.8829 34.8804
29.0673 34.0707
29.2517 33.6252
29.4361 33.5026
29.6207 32.5015
29.8053 32.323
29.99 31.8843
30.1748 31.8472
30.3597 31.6547
30.5447 31.3943
30.7297 31.5744
30.915 30.947
31.1002 30.4731
31.2855 30.2809
31.4708 30.3022
31.6563 29.824
31.8418 29.568
32.0275 29.3723
32.2132 28.8472
32.399 28.3226
32.5848 27.9214
32.7708 27.564
32.9569 27.4788
33.143 27.1537
33.3293 26.9134
33.5158 26.4576
33.7022 26.1557
33.8887 25.8796
34.0753 25.4092
34.262 25.1761
34.4488 24.782
34.6357 24.4071
34.8227 24.2499
35.0098 23.97
35.1969 23.7474
35.3842 23.4925
35.5716 23.3529
35.759 23.0498
35.9468 22.7195
36.1345 22.5119
36.3222 22.1836
36.5101 21.9788
36.6981 21.6579
36.8861 21.4034
37.0743 21.067
37.2626 20.8211
37.451 20.6541
37.6395 20.3747
37.8281 20.0973
38.0168 19.8202
38.2056 19.5506
38.3945 19.3662
38.5837 19.0779
38.7728 18.8722
38.9621 18.6254
39.1514 18.3989
39.3409 18.1296
39.5304 17.8741
39.7201 17.7263
39.9099 17.5258
40.0999 17.2372
40.2899 17.0273
40.48 16.8311
40.6703 16.6245
40.8607 16.4353
41.0512 16.1962
41.242 16.046
41.4327 15.8041
41.6236 15.5476
41.8146 15.3312
42.0057 15.1396
42.1969 14.9671
42.3882 14.7649
42.5797 14.5225
42.7713 14.3806
42.963 14.2207
43.1549 13.9939
43.3468 13.7681
43.5389 13.6384
43.7312 13.4171
43.9237 13.1944
44.1162 13.0568
44.3088 12.8584
44.5016 12.6468
44.6945 12.511
44.8875 12.2955
45.0806 12.1707
45.2739 11.986
45.4673 11.8126
45.6609 11.6194
45.8546 11.4533
46.0484 11.3255
46.2424 11.1638
46.4365 11.0493
46.631 10.8311
46.8254 10.6694
47.0199 10.4905
47.2146 10.3962
47.4095 10.2532
47.6044 10.0063
47.7996 9.90385
47.9948 9.78324
48.1902 9.63129
48.3858 9.52266
48.5815 9.38797
48.7774 9.23489
48.9734 9.08178
49.1696 8.94058
49.3661 8.79512
49.5626 8.67987
49.7592 8.54792
49.956 8.39385
50.153 8.28343
50.3501 8.15283
50.5474 8.01378
50.7448 7.92366
50.9424 7.77081
51.1402 7.67734
51.3381 7.51428
51.5362 7.44293
51.7344 7.33605
51.9328 7.1888
52.1316 7.05435
52.3304 6.96102
52.5293 6.83777
52.7284 6.73107
52.9276 6.61561
53.1271 6.52271
53.3267 6.3849
53.5265 6.28342
53.7264 6.15367
53.9266 6.02394
54.1269 5.94337
54.3274 5.8854
54.528 5.71937
54.7289 5.52311
54.9301 5.38902
55.1314 5.24542
55.3328 5.06948
55.5344 4.88157
55.7361 4.71996