File: XRD/Ni3Fe_FD1008.xy
TT I
1.27165 6.77461
1.45013 6.47928
1.62863 4.68547
1.80712 4.52464
1.98562 4.70413
2.16411 4.68189
2.34263 5.28468
2.52115 7.24246
2.69965 8.72046
2.87818 8.86149
3.05672 11.2781
3.23527 15.1974
3.4138 18.6602
3.59237 23.4658
3.77094 25.2911
3.9495 28.574
4.12809 33.7729
4.30669 295.994
4.4853 69.2508
4.6639 52.0703
4.84253 62.6072
5.02118 79.905
5.19981 243.066
5.37848 179.351
5.55716 95.1136
5.73586 85.42
5.91455 86.0347
6.09328 4239.38
6.27201 78.1498
6.45075 63.3526
6.62952 59.521
6.8083 55.7643
6.98711 53.0642
7.16591 52.553
7.34475 116.136
7.5236 52.2792
7.70247 53.6094
7.88135 54.681
8.06026 58.4719
8.23919 65.6028
8.41812 77.8924
8.59709 959.873
8.77609 94.5828
8.9551 88.406
9.13412 76.7098
9.31318 77.6309
9.49226 79.2178
9.67134 95.2624
9.85047 92.7252
10.0296 252.768
10.2088 455.68
10.388 100.01
10.5672 496.721
10.7465 81.7255
10.9257 73.8971
11.105 67.7318
11.2844 68.3613
11.4637 61.7685
11.6431 60.6318
11.8225 59.3434
12.002 59.712
12.1814 138.804
12.3609 71.3627
12.5405 61.0439
12.72 69.8582
12.8996 67.0041
13.0792 73.7442
13.2589 202.178
13.4386 134.17
13.6183 217.276
13.7981 100.797
13.9779 72.1757
14.1577 69.1239
14.3376 68.2703
14.5175 65.4098
14.6974 67.0839
14.8774 96.3694
15.0574 169.716
15.2374 68.0838
15.4175 63.2737
15.5976 62.5076
15.7778 83.6516
15.958 174.182
16.1382 61.234
16.3185 55.9071
16.4988 53.1308
16.6792 52.1953
16.8596 52.5182
17.04 53.2768
17.2205 62.0421
17.401 71.627
17.5815 56.5811
17.7622 58.4824
17.9428 67.9093
18.1237 139.821
18.3044 85.656
18.4852 80.1258
18.666 58.0684
18.8469 55.5897
19.0278 54.5311
19.2088 56.7201
19.3898 76.0403
19.5709 52.429
19.752 51.015
19.9332 53.4136
20.1144 69.244
20.2957 62.2378
20.477 52.9753
20.6586 47.8658
20.84 46.8802
21.0215 46.6522
21.203 49.1573
21.3846 47.3585
21.5662 46.7797
21.7479 50.0051
21.9297 64.6319
22.1115 55.1969
22.2933 48.4352
22.4753 47.43
22.6572 46.813
22.8393 49.7425
23.0214 57.4506
23.2037 47.2733
23.3859 47.7144
23.5682 56.1635
23.7505 47.9292
23.9329 43.6043
24.1154 42.6472
24.2979 42.0599
24.4805 41.46
24.6631 41.524
24.8458 40.8905
25.0286 41.2924
25.2114 43.5468
25.3943 44.0035
25.5773 39.7143
25.7605 39.1076
25.9436 39.4921
26.1268 40.9452
26.31 38.7987
26.4933 39.4673
26.6767 41.4671
26.8601 39.5897
27.0437 37.8414
27.2272 37.259
27.4109 37.2892
27.5946 37.3135
27.7784 36.6416
27.9623 37.409
28.1462 38.2835
28.3304 36.3545
28.5145 35.0505
28.6987 34.5487
28.8829 34.4911
29.0673 33.7771
29.2517 33.2945
29.4361 33.2463
29.6207 32.2993
29.8053 31.9704
29.99 31.524
30.1748 31.5342
30.3597 31.1783
30.5447 31.3077
30.7297 31.3921
30.915 30.8013
31.1002 30.2581
31.2855 30.0283
31.4708 30.1169
31.6563 29.5502
31.8418 29.2706
32.0275 29.1977
32.2132 28.5748
32.399 28.1793
32.5848 27.7831
32.7708 27.4068
32.9569 27.2168
33.143 27.2088
33.3293 26.6924
33.5158 26.3424
33.7022 25.8678
33.8887 25.6379
34.0753 25.29
34.262 24.9352
34.4488 24.6708
34.6357 24.334
34.8227 24.0391
35.0098 23.8193
35.1969 23.5196
35.3842 23.3648
35.5716 23.1901
35.759 22.8526
35.9468 22.4908
36.1345 22.284
36.3222 22.1132
36.5101 21.8873
36.6981 21.5453
36.8861 21.1586
37.0743 20.8976
37.2626 20.7777
37.451 20.4993
37.6395 20.2789
37.8281 19.9614
38.0168 19.6684
38.2056 19.4829
38.3945 19.2045
38.5837 18.9496
38.7728 18.7455
38.9621 18.5587
39.1514 18.2437
39.3409 17.9806
39.5304 17.7589
39.7201 17.5861
39.9099 17.3951
40.0999 17.1409
40.2899 16.9241
40.48 16.6346
40.6703 16.4483
40.8607 16.3091
41.0512 16.0449
41.242 15.8128
41.4327 15.7401
41.6236 15.4661
41.8146 15.2616
42.0057 15.0289
42.1969 14.8883
42.3882 14.6803
42.5797 14.4413
42.7713 14.2585
42.963 14.0842
43.1549 13.9489
43.3468 13.686
43.5389 13.4556
43.7312 13.3302
43.9237 13.1466
44.1162 13.0022
44.3088 12.7912
44.5016 12.5955
44.6945 12.4414
44.8875 12.2928
45.0806 12.1235
45.2739 11.9125
45.4673 11.7422
45.6609 11.5608
45.8546 11.403
46.0484 11.2702
46.2424 11.1147
46.4365 10.9137
46.631 10.7859
46.8254 10.6211
47.0199 10.4685
47.2146 10.3276
47.4095 10.1391
47.6044 9.99597
47.7996 9.87161
47.9948 9.69396
48.1902 9.58415
48.3858 9.43
48.5815 9.30915
48.7774 9.19431
48.9734 9.03771
49.1696 8.88419
49.3661 8.76057
49.5626 8.61862
49.7592 8.50786
49.956 8.36943
50.153 8.24959
50.3501 8.1001
50.5474 7.97784
50.7448 7.84194
50.9424 7.7645
51.1402 7.6431
51.3381 7.5131
51.5362 7.40223
51.7344 7.2491
51.9328 7.15025
52.1316 7.01272
52.3304 6.92157
52.5293 6.78086
52.7284 6.71301
52.9276 6.60175
53.1271 6.51964
53.3267 6.32512
53.5265 6.27863
53.7264 6.15331
53.9266 6.03227
54.1269 5.93643
54.3274 5.78797
54.528 5.66693
54.7289 5.55867
54.9301 5.32367
55.1314 5.24894
55.3328 5.01104
55.5344 4.79479
55.7361 4.72969