File: XRD/Ni3Fe_FD1037.xy
TT I
1.27165 6.73201
1.45013 6.20467
1.62863 4.80838
1.80712 4.34636
1.98562 4.5346
2.16411 4.38136
2.34263 5.36325
2.52115 7.09589
2.69965 8.77451
2.87818 8.59262
3.05672 11.2442
3.23527 14.6571
3.4138 18.2877
3.59237 21.3285
3.77094 24.779
3.9495 28.0824
4.12809 32.3512
4.30669 57.0535
4.4853 45.8416
4.6639 52.9456
4.84253 63.8782
5.02118 82.6949
5.19981 229.914
5.37848 218.507
5.55716 97.0096
5.73586 87.398
5.91455 89.1016
6.09328 4576.56
6.27201 75.9416
6.45075 63.3033
6.62952 57.7767
6.8083 54.3898
6.98711 52.2118
7.16591 51.5912
7.34475 55.6974
7.5236 60.0566
7.70247 52.9567
7.88135 54.7861
8.06026 58.7906
8.23919 65.6023
8.41812 77.3459
8.59709 1072.76
8.77609 94.6848
8.9551 82.1912
9.13412 78.5937
9.31318 90.2895
9.49226 80.5696
9.67134 86.14
9.85047 94.1009
10.0296 340.988
10.2088 443.976
10.388 97.5533
10.5672 503.916
10.7465 86.1626
10.9257 73.4415
11.105 68.1029
11.2844 64.4742
11.4637 61.4742
11.6431 60.3425
11.8225 59.5748
12.002 67.5421
12.1814 146.575
12.3609 64.3071
12.5405 61.143
12.72 63.8295
12.8996 67.6329
13.0792 76.6032
13.2589 225.314
13.4386 126.76
13.6183 234.508
13.7981 100.591
13.9779 73.2785
14.1577 76.1582
14.3376 66.8675
14.5175 66.0711
14.6974 67.2286
14.8774 108.495
15.0574 160.821
15.2374 66.2969
15.4175 63.6718
15.5976 63.0053
15.7778 93.16
15.958 168.009
16.1382 59.9226
16.3185 55.5211
16.4988 53.3748
16.6792 52.4938
16.8596 52.7557
17.04 53.6497
17.2205 64.2049
17.401 71.7572
17.5815 57.0402
17.7622 59.9991
17.9428 72.5783
18.1237 141.676
18.3044 88.1854
18.4852 79.2819
18.666 58.6763
18.8469 56.1447
19.0278 54.9645
19.2088 57.6365
19.3898 75.996
19.5709 52.7522
19.752 51.623
19.9332 54.8519
20.1144 70.0585
20.2957 63.3698
20.477 52.5508
20.6586 48.1986
20.84 47.6752
21.0215 47.1861
21.203 49.4436
21.3846 47.754
21.5662 47.3845
21.7479 51.5125
21.9297 64.9937
22.1115 55.8342
22.2933 48.9354
22.4753 47.5246
22.6572 47.4404
22.8393 50.7623
23.0214 57.3521
23.2037 47.6874
23.3859 49.0351
23.5682 56.9643
23.7505 47.9254
23.9329 44.203
24.1154 43.1558
24.2979 42.2919
24.4805 41.8002
24.6631 41.8126
24.8458 41.125
25.0286 41.8216
25.2114 44.0276
25.3943 44.3776
25.5773 40.1487
25.7605 39.4744
25.9436 40.033
26.1268 41.2232
26.31 39.2887
26.4933 39.8591
26.6767 41.7532
26.8601 39.8424
27.0437 38.1254
27.2272 37.7299
27.4109 37.608
27.5946 37.7972
27.7784 37.1276
27.9623 37.9429
28.1462 38.5304
28.3304 36.61
28.5145 35.2152
28.6987 35.0356
28.8829 34.7867
29.0673 34.061
29.2517 33.6559
29.4361 33.5427
29.6207 32.4498
29.8053 32.0785
29.99 32.0057
30.1748 31.9107
30.3597 31.6913
30.5447 31.5202
30.7297 31.6726
30.915 31.1696
31.1002 30.6383
31.2855 30.342
31.4708 30.2645
31.6563 29.8731
31.8418 29.5986
32.0275 29.5173
32.2132 28.9274
32.399 28.3889
32.5848 27.9499
32.7708 27.6145
32.9569 27.4698
33.143 27.2282
33.3293 26.9972
33.5158 26.5585
33.7022 26.0657
33.8887 25.8863
34.0753 25.5395
34.262 25.1858
34.4488 24.938
34.6357 24.4533
34.8227 24.2272
35.0098 24.013
35.1969 23.8323
35.3842 23.5227
35.5716 23.3679
35.759 23.1203
35.9468 22.7324
36.1345 22.5072
36.3222 22.3117
36.5101 22.0004
36.6981 21.747
36.8861 21.5018
37.0743 20.9994
37.2626 20.9095
37.451 20.6517
37.6395 20.4449
37.8281 20.1656
38.0168 19.8357
38.2056 19.6732
38.3945 19.2815
38.5837 19.1388
38.7728 18.8157
38.9621 18.5699
39.1514 18.3314
39.3409 18.0502
39.5304 17.8461
39.7201 17.7698
39.9099 17.4685
40.0999 17.2741
40.2899 17.0719
40.48 16.79
40.6703 16.5735
40.8607 16.4382
41.0512 16.1963
41.242 15.9713
41.4327 15.7453
41.6236 15.5404
41.8146 15.3705
42.0057 15.167
42.1969 14.9152
42.3882 14.717
42.5797 14.5604
42.7713 14.2881
42.963 14.1453
43.1549 13.9771
43.3468 13.7466
43.5389 13.5786
43.7312 13.347
43.9237 13.1762
44.1162 13.0016
44.3088 12.9045
44.5016 12.6748
44.6945 12.4615
44.8875 12.3213
45.0806 12.1605
45.2739 11.9643
45.4673 11.8044
45.6609 11.634
45.8546 11.4516
46.0484 11.3344
46.2424 11.1499
46.4365 10.9829
46.631 10.8278
46.8254 10.6736
47.0199 10.5215
47.2146 10.3722
47.4095 10.1948
47.6044 10.0251
47.7996 9.9373
47.9948 9.76368
48.1902 9.64211
48.3858 9.47598
48.5815 9.38821
48.7774 9.21691
48.9734 9.08535
49.1696 8.95406
49.3661 8.79537
49.5626 8.68556
49.7592 8.54595
49.956 8.45507
50.153 8.26151
50.3501 8.13018
50.5474 8.01607
50.7448 7.89259
50.9424 7.77277
51.1402 7.6822
51.3381 7.54914
51.5362 7.4154
51.7344 7.30412
51.9328 7.12714
52.1316 7.0423
52.3304 6.92566
52.5293 6.83893
52.7284 6.69174
52.9276 6.6014
53.1271 6.48733
53.3267 6.39387
53.5265 6.23154
53.7264 6.16559
53.9266 6.04484
54.1269 5.91961
54.3274 5.88002
54.528 5.65091
54.7289 5.56293
54.9301 5.42418
55.1314 5.26571
55.3328 5.0838
55.5344 4.83487
55.7361 4.7726