File: XRD/Ni3Fe_FD0864.xy
TT I
1.27165 6.98827
1.45013 6.12698
1.62863 5.4426
1.80712 4.75155
1.98562 4.70351
2.16411 5.0964
2.34263 4.99309
2.52115 7.2812
2.69965 8.11235
2.87818 8.83789
3.05672 11.5237
3.23527 15.5851
3.4138 18.9969
3.59237 24.2133
3.77094 26.3533
3.9495 29.5203
4.12809 34.8138
4.30669 233.102
4.4853 66.5382
4.6639 54.2107
4.84253 65.9951
5.02118 84.4591
5.19981 292.304
5.37848 177.191
5.55716 99.6187
5.73586 90.4153
5.91455 91.0039
6.09328 4350.05
6.27201 81.3486
6.45075 66.519
6.62952 62.4786
6.8083 57.9281
6.98711 55.4045
7.16591 54.8215
7.34475 93.4394
7.5236 54.0505
7.70247 55.6466
7.88135 56.9959
8.06026 61.4456
8.23919 68.8262
8.41812 83.5722
8.59709 1129.7
8.77609 97.7085
8.9551 90.3559
9.13412 80.833
9.31318 81.3387
9.49226 82.9046
9.67134 97.7937
9.85047 97.9503
10.0296 301.308
10.2088 405.182
10.388 102.423
10.5672 521.641
10.7465 85.1235
10.9257 77.6627
11.105 71.0873
11.2844 69.7303
11.4637 64.3207
11.6431 62.9259
11.8225 61.6241
12.002 62.281
12.1814 150.371
12.3609 70.2241
12.5405 63.7214
12.72 69.1641
12.8996 69.9917
13.0792 78.5305
13.2589 228.259
13.4386 122.531
13.6183 242.944
13.7981 95.9246
13.9779 74.4752
14.1577 71.2381
14.3376 70.6744
14.5175 67.6356
14.6974 69.2068
14.8774 105.032
15.0574 147.146
15.2374 70.2101
15.4175 65.199
15.5976 64.5963
15.7778 90.3935
15.958 155.853
16.1382 61.7867
16.3185 57.9771
16.4988 54.6336
16.6792 53.6846
16.8596 54.374
17.04 54.8948
17.2205 65.1948
17.401 70.3582
17.5815 58.254
17.7622 60.2619
17.9428 71.3737
18.1237 138.719
18.3044 89.4181
18.4852 76.7198
18.666 59.6209
18.8469 57.1282
19.0278 56.0022
19.2088 58.2262
19.3898 76.0744
19.5709 53.3865
19.752 52.5082
19.9332 55.3007
20.1144 69.0381
20.2957 63.6905
20.477 53.009
20.6586 48.8002
20.84 48.1318
21.0215 47.8117
21.203 50.253
21.3846 48.2689
21.5662 47.9988
21.7479 51.5118
21.9297 63.7292
22.1115 55.7319
22.2933 49.2201
22.4753 48.1083
22.6572 48.0567
22.8393 50.9952
23.0214 56.7174
23.2037 48.0673
23.3859 48.7667
23.5682 56.3611
23.7505 47.7868
23.9329 44.5876
24.1154 43.4906
24.2979 42.8926
24.4805 42.4025
24.6631 42.1167
24.8458 41.6839
25.0286 42.2333
25.2114 43.9682
25.3943 44.0712
25.5773 40.5536
25.7605 39.8376
25.9436 40.2521
26.1268 41.1288
26.31 39.5528
26.4933 40.1156
26.6767 41.6085
26.8601 39.8436
27.0437 38.3284
27.2272 37.972
27.4109 37.8225
27.5946 37.9343
27.7784 37.1499
27.9623 37.915
28.1462 38.2377
28.3304 36.7034
28.5145 35.4856
28.6987 35.1369
28.8829 35.0664
29.0673 34.3332
29.2517 33.9419
29.4361 33.8675
29.6207 32.7083
29.8053 32.4503
29.99 32.1242
30.1748 32.0024
30.3597 31.821
30.5447 31.766
30.7297 31.8086
30.915 31.2643
31.1002 30.7817
31.2855 30.4408
31.4708 30.3384
31.6563 30.0241
31.8418 29.7065
32.0275 29.46
32.2132 29.0517
32.399 28.5522
32.5848 28.0808
32.7708 27.8096
32.9569 27.6759
33.143 27.4125
33.3293 26.997
33.5158 26.6644
33.7022 26.2191
33.8887 25.9803
34.0753 25.6888
34.262 25.4188
34.4488 24.974
34.6357 24.6311
34.8227 24.357
35.0098 24.2471
35.1969 23.8168
35.3842 23.6705
35.5716 23.4414
35.759 23.0824
35.9468 22.8195
36.1345 22.6576
36.3222 22.3758
36.5101 22.2039
36.6981 21.8569
36.8861 21.5392
37.0743 21.1837
37.2626 20.9732
37.451 20.7707
37.6395 20.5601
37.8281 20.2831
38.0168 19.9341
38.2056 19.7341
38.3945 19.4175
38.5837 19.1553
38.7728 18.9021
38.9621 18.7543
39.1514 18.5063
39.3409 18.2457
39.5304 18.0055
39.7201 17.8454
39.9099 17.6444
40.0999 17.3411
40.2899 17.1366
40.48 16.9318
40.6703 16.6735
40.8607 16.5698
41.0512 16.3652
41.242 16.0519
41.4327 15.8453
41.6236 15.6551
41.8146 15.4563
42.0057 15.2433
42.1969 15.0596
42.3882 14.877
42.5797 14.6189
42.7713 14.4566
42.963 14.2472
43.1549 14.0923
43.3468 13.7893
43.5389 13.6545
43.7312 13.4915
43.9237 13.3191
44.1162 13.0686
44.3088 12.9266
44.5016 12.7252
44.6945 12.551
44.8875 12.413
45.0806 12.2377
45.2739 12.0585
45.4673 11.8841
45.6609 11.7068
45.8546 11.5526
46.0484 11.3858
46.2424 11.2531
46.4365 11.0553
46.631 10.8848
46.8254 10.7005
47.0199 10.5954
47.2146 10.4675
47.4095 10.2682
47.6044 10.1338
47.7996 9.99369
47.9948 9.7865
48.1902 9.67396
48.3858 9.54
48.5815 9.40685
48.7774 9.27632
48.9734 9.12657
49.1696 9.00912
49.3661 8.86717
49.5626 8.68665
49.7592 8.58145
49.956 8.44646
50.153 8.37001
50.3501 8.22775
50.5474 8.08621
50.7448 7.97
50.9424 7.84926
51.1402 7.72324
51.3381 7.57715
51.5362 7.45404
51.7344 7.33923
51.9328 7.17023
52.1316 7.10577
52.3304 6.99976
52.5293 6.87077
52.7284 6.7262
52.9276 6.64061
53.1271 6.54652
53.3267 6.45232
53.5265 6.28678
53.7264 6.16391
53.9266 6.11398
54.1269 6.0111
54.3274 5.87582
54.528 5.74514
54.7289 5.60452
54.9301 5.43786
55.1314 5.31591
55.3328 5.05532
55.5344 4.91847
55.7361 4.73021