File: XRD/Ni3Fe_FD0783.xy
TT I
1.27165 7.79041
1.45013 5.90816
1.62863 4.91935
1.80712 4.7318
1.98562 5.0175
2.16411 4.98761
2.34263 5.7146
2.52115 7.7074
2.69965 8.38117
2.87818 9.12167
3.05672 11.4277
3.23527 15.3196
3.4138 18.9417
3.59237 23.645
3.77094 26.2534
3.9495 29.775
4.12809 34.305
4.30669 172.457
4.4853 60.3569
4.6639 54.8672
4.84253 66.6667
5.02118 86.3847
5.19981 339.979
5.37848 176.325
5.55716 101.078
5.73586 91.3973
5.91455 92.8468
6.09328 4537.17
6.27201 80.9371
6.45075 66.5216
6.62952 61.9107
6.8083 57.883
6.98711 55.2006
7.16591 54.8999
7.34475 81.8067
7.5236 53.9276
7.70247 55.6297
7.88135 57.3262
8.06026 61.5699
8.23919 68.3425
8.41812 83.7443
8.59709 1209.23
8.77609 97.0044
8.9551 89.0018
9.13412 81.0211
9.31318 81.8829
9.49226 83.8311
9.67134 95.575
9.85047 98.5609
10.0296 336.332
10.2088 343.929
10.388 103.56
10.5672 534.614
10.7465 85.1916
10.9257 77.2849
11.105 70.7879
11.2844 68.7557
11.4637 63.967
11.6431 63.0716
11.8225 61.5645
12.002 63.2332
12.1814 158.474
12.3609 68.1644
12.5405 63.5677
12.72 68.5704
12.8996 70.1733
13.0792 78.2697
13.2589 241.676
13.4386 116.867
13.6183 253.687
13.7981 92.6831
13.9779 74.8437
14.1577 71.4384
14.3376 70.2019
14.5175 67.9734
14.6974 69.7305
14.8774 109.935
15.0574 145.238
15.2374 69.6586
15.4175 65.6433
15.5976 65.1754
15.7778 93.7023
15.958 148.785
16.1382 61.3047
16.3185 57.6861
16.4988 54.82
16.6792 53.7483
16.8596 54.4803
17.04 55.1766
17.2205 66.2983
17.401 68.5738
17.5815 58.4595
17.7622 60.6688
17.9428 72.7647
18.1237 141.545
18.3044 90.4803
18.4852 74.1725
18.666 59.5668
18.8469 57.3989
19.0278 56.2387
19.2088 58.884
19.3898 76.0542
19.5709 53.5079
19.752 52.7379
19.9332 55.558
20.1144 69.3094
20.2957 63.7275
20.477 52.4456
20.6586 49.1516
20.84 48.2383
21.0215 48.1072
21.203 50.4154
21.3846 48.1307
21.5662 48.3261
21.7479 52.1121
21.9297 64.0395
22.1115 55.6063
22.2933 49.1226
22.4753 48.2785
22.6572 48.3664
22.8393 51.4591
23.0214 56.6896
23.2037 48.17
23.3859 49.1365
23.5682 56.9268
23.7505 47.3141
23.9329 44.7375
24.1154 43.5917
24.2979 42.9692
24.4805 42.4409
24.6631 42.2811
24.8458 41.7161
25.0286 42.379
25.2114 44.2455
25.3943 44.1829
25.5773 40.392
25.7605 40.0721
25.9436 40.3255
26.1268 41.372
26.31 39.5805
26.4933 40.2771
26.6767 41.8438
26.8601 39.8424
27.0437 38.3819
27.2272 38.1554
27.4109 38.0076
27.5946 37.9031
27.7784 37.5062
27.9623 38.0499
28.1462 38.4056
28.3304 36.619
28.5145 35.4722
28.6987 35.3666
28.8829 35.0816
29.0673 34.2513
29.2517 33.9474
29.4361 33.7482
29.6207 32.6962
29.8053 32.5479
29.99 32.1175
30.1748 32.0954
30.3597 31.8685
30.5447 31.7597
30.7297 31.9452
30.915 31.327
31.1002 30.7709
31.2855 30.4885
31.4708 30.5219
31.6563 30.0494
31.8418 29.8139
32.0275 29.5541
32.2132 29.0093
32.399 28.6882
32.5848 28.146
32.7708 27.7275
32.9569 27.7753
33.143 27.4423
33.3293 27.007
33.5158 26.782
33.7022 26.2842
33.8887 26.0115
34.0753 25.6923
34.262 25.3425
34.4488 25.0492
34.6357 24.6903
34.8227 24.3334
35.0098 24.2259
35.1969 23.9352
35.3842 23.7685
35.5716 23.501
35.759 23.1646
35.9468 22.8565
36.1345 22.6037
36.3222 22.4656
36.5101 22.1623
36.6981 21.8434
36.8861 21.5664
37.0743 21.246
37.2626 21.0149
37.451 20.7812
37.6395 20.6168
37.8281 20.3098
38.0168 19.9658
38.2056 19.7178
38.3945 19.4718
38.5837 19.2215
38.7728 19.0125
38.9621 18.7921
39.1514 18.513
39.3409 18.303
39.5304 18.0309
39.7201 17.8879
39.9099 17.6498
40.0999 17.3738
40.2899 17.1351
40.48 16.9358
40.6703 16.7292
40.8607 16.5569
41.0512 16.441
41.242 16.0419
41.4327 15.9201
41.6236 15.6869
41.8146 15.4891
42.0057 15.3148
42.1969 15.0594
42.3882 14.8465
42.5797 14.6849
42.7713 14.5117
42.963 14.2735
43.1549 14.0628
43.3468 13.8856
43.5389 13.6777
43.7312 13.4837
43.9237 13.2896
44.1162 13.1153
44.3088 12.9753
44.5016 12.7532
44.6945 12.6016
44.8875 12.4274
45.0806 12.2688
45.2739 12.0971
45.4673 11.905
45.6609 11.6753
45.8546 11.5635
46.0484 11.4014
46.2424 11.2389
46.4365 11.0715
46.631 10.9017
46.8254 10.7388
47.0199 10.5964
47.2146 10.4727
47.4095 10.2975
47.6044 10.1339
47.7996 9.97704
47.9948 9.83148
48.1902 9.67016
48.3858 9.57053
48.5815 9.42788
48.7774 9.3087
48.9734 9.16487
49.1696 9.02581
49.3661 8.8764
49.5626 8.71862
49.7592 8.57771
49.956 8.46117
50.153 8.33186
50.3501 8.23889
50.5474 8.08761
50.7448 7.99144
50.9424 7.84155
51.1402 7.72106
51.3381 7.61468
51.5362 7.47581
51.7344 7.35753
51.9328 7.23674
52.1316 7.08646
52.3304 6.98271
52.5293 6.85503
52.7284 6.7606
52.9276 6.65329
53.1271 6.56167
53.3267 6.41695
53.5265 6.33132
53.7264 6.18672
53.9266 6.10057
54.1269 5.99382
54.3274 5.86338
54.528 5.75641
54.7289 5.57231
54.9301 5.38513
55.1314 5.36888
55.3328 5.10198
55.5344 4.86529
55.7361 4.73341