File: XRD/Ni3Fe_FD0890.xy
TT I
1.27165 7.16498
1.45013 5.68033
1.62863 5.33051
1.80712 5.1644
1.98562 5.20781
2.16411 5.27289
2.34263 6.23479
2.52115 7.17477
2.69965 8.38955
2.87818 9.29883
3.05672 11.4999
3.23527 15.0037
3.4138 19.2417
3.59237 23.8811
3.77094 26.0825
3.9495 29.652
4.12809 34.6325
4.30669 231.107
4.4853 65.984
4.6639 54.5492
4.84253 65.8542
5.02118 84.9228
5.19981 286.662
5.37848 172.737
5.55716 99.4439
5.73586 90.2892
5.91455 91.7622
6.09328 4463.16
6.27201 80.8492
6.45075 66.2544
6.62952 61.8798
6.8083 57.8961
6.98711 55.2684
7.16591 54.5972
7.34475 92.996
7.5236 54.1848
7.70247 55.0957
7.88135 56.8235
8.06026 61.1905
8.23919 68.2483
8.41812 83.2786
8.59709 1148.43
8.77609 96.5322
8.9551 90.4532
9.13412 80.2622
9.31318 80.9903
9.49226 82.5095
9.67134 97.4187
9.85047 97.7709
10.0296 299.253
10.2088 368.343
10.388 102.234
10.5672 534.654
10.7465 84.3258
10.9257 77.317
11.105 70.7334
11.2844 69.5311
11.4637 63.9284
11.6431 62.8247
11.8225 61.2372
12.002 62.3299
12.1814 155.702
12.3609 69.274
12.5405 63.2274
12.72 69.1647
12.8996 69.488
13.0792 77.179
13.2589 228.582
13.4386 116.912
13.6183 244.877
13.7981 92.4966
13.9779 74.3269
14.1577 71.038
14.3376 70.2577
14.5175 67.4691
14.6974 68.9871
14.8774 105.114
15.0574 141.354
15.2374 69.8204
15.4175 65.2604
15.5976 64.3502
15.7778 90.359
15.958 152.055
16.1382 61.5326
16.3185 57.7856
16.4988 54.4785
16.6792 53.6727
16.8596 54.2319
17.04 54.5785
17.2205 64.9447
17.401 68.5497
17.5815 58.0439
17.7622 60.0925
17.9428 70.6697
18.1237 141.06
18.3044 88.9389
18.4852 74.3258
18.666 59.2149
18.8469 56.9092
19.0278 55.8614
19.2088 58.3524
19.3898 76.6525
19.5709 53.14
19.752 52.3178
19.9332 55.0854
20.1144 69.3291
20.2957 63.6955
20.477 52.3673
20.6586 48.8057
20.84 47.9748
21.0215 47.7608
21.203 50.0888
21.3846 47.9586
21.5662 47.7826
21.7479 51.3817
21.9297 64.3133
22.1115 55.353
22.2933 48.9016
22.4753 47.9305
22.6572 47.9683
22.8393 50.9784
23.0214 56.5782
23.2037 47.772
23.3859 48.7717
23.5682 56.7515
23.7505 47.2092
23.9329 44.5272
24.1154 43.4989
24.2979 42.7918
24.4805 42.1972
24.6631 42.0688
24.8458 41.5044
25.0286 42.0633
25.2114 44.0778
25.3943 43.9845
25.5773 40.3012
25.7605 39.8144
25.9436 40.2325
26.1268 41.1011
26.31 39.3216
26.4933 39.9973
26.6767 41.5859
26.8601 39.8736
27.0437 38.2503
27.2272 37.8932
27.4109 37.7509
27.5946 37.6911
27.7784 37.24
27.9623 37.7831
28.1462 38.1508
28.3304 36.4661
28.5145 35.2927
28.6987 35.0015
28.8829 34.9047
29.0673 34.0354
29.2517 33.656
29.4361 33.5948
29.6207 32.517
29.8053 32.4695
29.99 32.0461
30.1748 31.9808
30.3597 31.8415
30.5447 31.5929
30.7297 31.7327
30.915 30.9755
31.1002 30.5795
31.2855 30.3534
31.4708 30.3356
31.6563 29.8998
31.8418 29.6922
32.0275 29.4925
32.2132 28.9171
32.399 28.5116
32.5848 28.0112
32.7708 27.7276
32.9569 27.5102
33.143 27.3134
33.3293 27.0005
33.5158 26.5577
33.7022 26.1559
33.8887 25.9615
34.0753 25.5896
34.262 25.238
34.4488 24.8358
34.6357 24.5878
34.8227 24.3654
35.0098 24.1073
35.1969 23.8453
35.3842 23.6776
35.5716 23.3166
35.759 23.0954
35.9468 22.7617
36.1345 22.5212
36.3222 22.2719
36.5101 22.1245
36.6981 21.7602
36.8861 21.5447
37.0743 21.1639
37.2626 20.9046
37.451 20.7174
37.6395 20.4511
37.8281 20.2354
38.0168 19.8915
38.2056 19.6507
38.3945 19.3458
38.5837 19.1405
38.7728 18.9555
38.9621 18.6682
39.1514 18.4135
39.3409 18.1887
39.5304 17.9189
39.7201 17.7274
39.9099 17.5477
40.0999 17.2899
40.2899 17.0521
40.48 16.8372
40.6703 16.6744
40.8607 16.4496
41.0512 16.3011
41.242 16.0315
41.4327 15.8582
41.6236 15.5692
41.8146 15.4266
42.0057 15.2154
42.1969 14.9889
42.3882 14.7837
42.5797 14.6121
42.7713 14.3969
42.963 14.2531
43.1549 13.9956
43.3468 13.8352
43.5389 13.6571
43.7312 13.4093
43.9237 13.303
44.1162 13.0834
44.3088 12.8913
44.5016 12.7219
44.6945 12.563
44.8875 12.3775
45.0806 12.1798
45.2739 11.9859
45.4673 11.8434
45.6609 11.6821
45.8546 11.5362
46.0484 11.3718
46.2424 11.2124
46.4365 11.0459
46.631 10.8447
46.8254 10.7072
47.0199 10.5334
47.2146 10.4023
47.4095 10.2317
47.6044 10.0929
47.7996 9.91556
47.9948 9.79478
48.1902 9.63394
48.3858 9.4908
48.5815 9.37516
48.7774 9.25763
48.9734 9.1466
49.1696 8.95192
49.3661 8.83423
49.5626 8.65811
49.7592 8.52637
49.956 8.42306
50.153 8.32582
50.3501 8.17568
50.5474 8.05034
50.7448 7.94605
50.9424 7.81897
51.1402 7.69869
51.3381 7.56095
51.5362 7.47182
51.7344 7.31935
51.9328 7.17444
52.1316 7.07007
52.3304 6.95652
52.5293 6.84435
52.7284 6.76197
52.9276 6.6198
53.1271 6.53463
53.3267 6.44895
53.5265 6.30022
53.7264 6.21629
53.9266 6.05203
54.1269 5.9689
54.3274 5.88603
54.528 5.75452
54.7289 5.58181
54.9301 5.41004
55.1314 5.23127
55.3328 5.09446
55.5344 4.92628
55.7361 4.74332