File: XRD/Ni3Fe_FD0197.xy
TT I
1.27165 8.01927
1.45013 7.43407
1.62863 5.80147
1.80712 5.89237
1.98562 5.43612
2.16411 4.77039
2.34263 4.63759
2.52115 4.32283
2.69965 5.63161
2.87818 8.42243
3.05672 10.8677
3.23527 14.9846
3.4138 19.2113
3.59237 22.5123
3.77094 26.0828
3.9495 30.0516
4.12809 34.9498
4.30669 40.3013
4.4853 48.0603
4.6639 58.1611
4.84253 71.4201
5.02118 97.5232
5.19981 843.677
5.37848 306.174
5.55716 113.188
5.73586 101.917
5.91455 112.066
6.09328 3422.09
6.27201 91.039
6.45075 71.0847
6.62952 64.2066
6.8083 59.724
6.98711 57.2247
7.16591 55.888
7.34475 55.7982
7.5236 58.7087
7.70247 57.6505
7.88135 60.3658
8.06026 64.9055
8.23919 73.2396
8.41812 90.767
8.59709 1014.43
8.77609 113.321
8.9551 90.8791
9.13412 86.962
9.31318 89.1465
9.49226 89.5998
9.67134 95.513
9.85047 106.342
10.0296 542.727
10.2088 641.787
10.388 113.193
10.5672 417.668
10.7465 93.6033
10.9257 80.8144
11.105 75.0955
11.2844 70.8718
11.4637 67.8944
11.6431 66.653
11.8225 65.4164
12.002 68.9916
12.1814 134.854
12.3609 71.6096
12.5405 67.4893
12.72 69.9254
12.8996 74.8603
13.0792 85.5933
13.2589 220.481
13.4386 160.167
13.6183 217.318
13.7981 117.885
13.9779 80.2565
14.1577 76.8715
14.3376 73.3295
14.5175 72.7696
14.6974 74.2573
14.8774 119.155
15.0574 180.555
15.2374 72.7558
15.4175 69.9396
15.5976 69.8287
15.7778 104.213
15.958 178.585
16.1382 64.257
16.3185 60.5943
16.4988 58.2296
16.6792 57.159
16.8596 57.6933
17.04 59.0777
17.2205 68.7587
17.401 79.2014
17.5815 62.1713
17.7622 64.6918
17.9428 84.2554
18.1237 133.791
18.3044 89.6105
18.4852 86.7558
18.666 63.4761
18.8469 61.093
19.0278 59.7167
19.2088 63.145
19.3898 74.9965
19.5709 57.4427
19.752 56.2025
19.9332 59.8489
20.1144 72.2759
20.2957 63.9557
20.477 57.7461
20.6586 52.3608
20.84 51.4678
21.0215 51.3388
21.203 52.4681
21.3846 51.8616
21.5662 51.6303
21.7479 55.5989
21.9297 65.9756
22.1115 57.6639
22.2933 52.8631
22.4753 51.1062
22.6572 51.9161
22.8393 54.1615
23.0214 59.8079
23.2037 51.4442
23.3859 52.9079
23.5682 56.8487
23.7505 51.8975
23.9329 47.5989
24.1154 46.2305
24.2979 45.5859
24.4805 45.0179
24.6631 44.9259
24.8458 44.3965
25.0286 45.177
25.2114 46.5655
25.3943 46.6793
25.5773 43.2038
25.7605 42.5568
25.9436 42.684
26.1268 43.606
26.31 42.3786
26.4933 42.5769
26.6767 43.7841
26.8601 42.4641
27.0437 40.8943
27.2272 40.4091
27.4109 40.2449
27.5946 40.2622
27.7784 39.8206
27.9623 39.9284
28.1462 40.6764
28.3304 39.0287
28.5145 37.705
28.6987 37.2975
28.8829 36.9967
29.0673 36.518
29.2517 35.9281
29.4361 35.6958
29.6207 34.8173
29.8053 34.3497
29.99 34.1555
30.1748 33.9822
30.3597 33.9349
30.5447 33.6264
30.7297 33.6908
30.915 33.1096
31.1002 32.6282
31.2855 32.2743
31.4708 32.1261
31.6563 31.8313
31.8418 31.5529
32.0275 31.3502
32.2132 30.7422
32.399 30.3662
32.5848 29.9167
32.7708 29.5476
32.9569 29.3019
33.143 29.0604
33.3293 28.7183
33.5158 28.2522
33.7022 27.9054
33.8887 27.5239
34.0753 27.242
34.262 26.8495
34.4488 26.5199
34.6357 26.1812
34.8227 25.8342
35.0098 25.687
35.1969 25.3495
35.3842 25.0965
35.5716 24.9404
35.759 24.5658
35.9468 24.1819
36.1345 23.9727
36.3222 23.7092
36.5101 23.5278
36.6981 23.1258
36.8861 22.9081
37.0743 22.5416
37.2626 22.2549
37.451 21.9667
37.6395 21.7944
37.8281 21.4589
38.0168 21.1985
38.2056 20.8839
38.3945 20.6074
38.5837 20.3424
38.7728 20.0811
38.9621 19.8817
39.1514 19.4994
39.3409 19.3178
39.5304 19.0747
39.7201 18.8547
39.9099 18.6423
40.0999 18.3402
40.2899 18.1559
40.48 17.8669
40.6703 17.6873
40.8607 17.5206
41.0512 17.2362
41.242 16.981
41.4327 16.8103
41.6236 16.5522
41.8146 16.4096
42.0057 16.1364
42.1969 15.8829
42.3882 15.7008
42.5797 15.4925
42.7713 15.3022
42.963 15.0502
43.1549 14.8798
43.3468 14.6279
43.5389 14.46
43.7312 14.2298
43.9237 14.0679
44.1162 13.858
44.3088 13.6854
44.5016 13.4595
44.6945 13.3242
44.8875 13.108
45.0806 12.93
45.2739 12.7282
45.4673 12.5783
45.6609 12.3437
45.8546 12.2235
46.0484 12.0679
46.2424 11.8797
46.4365 11.7315
46.631 11.5072
46.8254 11.3561
47.0199 11.1958
47.2146 11.0408
47.4095 10.8536
47.6044 10.6385
47.7996 10.5592
47.9948 10.3864
48.1902 10.256
48.3858 10.0924
48.5815 9.96001
48.7774 9.79631
48.9734 9.67627
49.1696 9.48041
49.3661 9.36183
49.5626 9.19724
49.7592 9.07159
49.956 8.9409
50.153 8.80335
50.3501 8.67774
50.5474 8.50346
50.7448 8.39682
50.9424 8.28444
51.1402 8.17659
51.3381 8.02719
51.5362 7.92996
51.7344 7.7598
51.9328 7.61996
52.1316 7.49472
52.3304 7.40768
52.5293 7.25652
52.7284 7.14297
52.9276 7.00264
53.1271 6.92652
53.3267 6.78786
53.5265 6.62852
53.7264 6.54933
53.9266 6.43264
54.1269 6.33605
54.3274 6.20874
54.528 6.02489
54.7289 5.85142
54.9301 5.6801
55.1314 5.51103
55.3328 5.25473
55.5344 5.14912
55.7361 4.91943