File: XRD/Ni3Fe_FD0115.xy
TT I
1.27165 8.32673
1.45013 6.60415
1.62863 5.88255
1.80712 5.84419
1.98562 5.911
2.16411 4.30071
2.34263 4.72026
2.52115 3.73098
2.69965 4.58946
2.87818 7.6254
3.05672 10.8628
3.23527 14.9161
3.4138 18.8205
3.59237 21.571
3.77094 24.6316
3.9495 28.4298
4.12809 32.3476
4.30669 37.7362
4.4853 43.9781
4.6639 53.1
4.84253 66.0349
5.02118 92.0248
5.19981 608.051
5.37848 559.413
5.55716 109.444
5.73586 96.1548
5.91455 107.898
6.09328 2420.53
6.27201 91.8602
6.45075 66.5062
6.62952 59.3091
6.8083 55.1339
6.98711 52.7119
7.16591 51.7207
7.34475 51.7194
7.5236 56.9667
7.70247 53.6548
7.88135 55.5284
8.06026 60.256
8.23919 66.9643
8.41812 83.586
8.59709 816.427
8.77609 122.26
8.9551 84.7893
9.13412 80.7653
9.31318 89.9298
9.49226 83.0746
9.67134 87.8405
9.85047 98.1509
10.0296 568.463
10.2088 1104.1
10.388 104.889
10.5672 294.129
10.7465 92.3441
10.9257 75.2012
11.105 69.4912
11.2844 65.3908
11.4637 62.7657
11.6431 61.2944
11.8225 60.452
12.002 66.5593
12.1814 110.42
12.3609 78.2772
12.5405 62.6835
12.72 64.4609
12.8996 69.2844
13.0792 79.0714
13.2589 193.599
13.4386 233.433
13.6183 179.007
13.7981 167.977
13.9779 75.432
14.1577 74.9725
14.3376 68.0128
14.5175 67.7633
14.6974 69.1769
14.8774 120.311
15.0574 206.687
15.2374 68.5946
15.4175 65.5923
15.5976 64.8456
15.7778 107.579
15.958 182.156
16.1382 61.7858
16.3185 56.684
16.4988 54.6474
16.6792 53.3297
16.8596 53.7368
17.04 54.7362
17.2205 64.0896
17.401 81.315
17.5815 58.4848
17.7622 60.8492
17.9428 84.2425
18.1237 106.963
18.3044 87.5359
18.4852 97.4421
18.666 60.5887
18.8469 57.6467
19.0278 56.2658
19.2088 61.5401
19.3898 66.8509
19.5709 56.479
19.752 52.7858
19.9332 58.0142
20.1144 65.1658
20.2957 60.2112
20.477 59.6292
20.6586 49.5088
20.84 48.7038
21.0215 48.4546
21.203 48.9296
21.3846 50.2733
21.5662 48.6005
21.7479 53.5494
21.9297 60.2123
22.1115 55.8609
22.2933 52.8261
22.4753 48.3237
22.6572 48.6141
22.8393 51.251
23.0214 55.8399
23.2037 49.6221
23.3859 51.5305
23.5682 52.1938
23.7505 53.9804
23.9329 45.3157
24.1154 43.9951
24.2979 43.2079
24.4805 42.5011
24.6631 42.7375
24.8458 42.0914
25.0286 42.533
25.2114 44.0442
25.3943 44.1334
25.5773 41.5045
25.7605 40.2958
25.9436 40.5966
26.1268 40.9709
26.31 40.7189
26.4933 40.4173
26.6767 41.4069
26.8601 41.1238
27.0437 39.229
27.2272 38.6161
27.4109 38.3694
27.5946 38.3289
27.7784 38.337
27.9623 37.948
28.1462 38.97
28.3304 37.6389
28.5145 36.1512
28.6987 35.6277
28.8829 35.1765
29.0673 34.9402
29.2517 34.2193
29.4361 33.9556
29.6207 33.3293
29.8053 32.6761
29.99 32.4845
30.1748 32.2082
30.3597 32.3567
30.5447 32.0367
30.7297 32.0262
30.915 31.909
31.1002 31.2039
31.2855 30.8587
31.4708 30.4579
31.6563 30.5488
31.8418 30.1338
32.0275 29.9367
32.2132 29.3998
32.399 29.0044
32.5848 28.346
32.7708 28.1223
32.9569 27.9332
33.143 27.551
33.3293 27.3763
33.5158 27.0754
33.7022 26.5419
33.8887 26.1879
34.0753 26.0039
34.262 25.5354
34.4488 25.3031
34.6357 24.8792
34.8227 24.6232
35.0098 24.4393
35.1969 24.218
35.3842 23.8104
35.5716 23.7302
35.759 23.5145
35.9468 23.103
36.1345 22.8469
36.3222 22.671
36.5101 22.4239
36.6981 22.1367
36.8861 21.765
37.0743 21.4763
37.2626 21.1819
37.451 21.0325
37.6395 20.759
37.8281 20.4359
38.0168 20.182
38.2056 19.915
38.3945 19.6101
38.5837 19.4358
38.7728 19.1329
38.9621 18.9145
39.1514 18.6701
39.3409 18.3964
39.5304 18.2018
39.7201 18.008
39.9099 17.7836
40.0999 17.6039
40.2899 17.3745
40.48 17.0879
40.6703 16.9241
40.8607 16.7066
41.0512 16.4354
41.242 16.2695
41.4327 16.0878
41.6236 15.7733
41.8146 15.6343
42.0057 15.4192
42.1969 15.2189
42.3882 14.991
42.5797 14.7986
42.7713 14.5727
42.963 14.3422
43.1549 14.1982
43.3468 13.9788
43.5389 13.8242
43.7312 13.6113
43.9237 13.4341
44.1162 13.2554
44.3088 13.0658
44.5016 12.8627
44.6945 12.6465
44.8875 12.4929
45.0806 12.3512
45.2739 12.1736
45.4673 12.0086
45.6609 11.8307
45.8546 11.6555
46.0484 11.4711
46.2424 11.3323
46.4365 11.1619
46.631 10.9473
46.8254 10.8213
47.0199 10.7216
47.2146 10.5163
47.4095 10.3506
47.6044 10.2237
47.7996 10.0462
47.9948 9.89803
48.1902 9.78034
48.3858 9.65087
48.5815 9.49882
48.7774 9.38757
48.9734 9.21214
49.1696 9.06899
49.3661 8.93246
49.5626 8.80094
49.7592 8.70228
49.956 8.58862
50.153 8.45753
50.3501 8.30459
50.5474 8.13612
50.7448 8.04872
50.9424 7.93877
51.1402 7.80587
51.3381 7.68295
51.5362 7.55811
51.7344 7.44188
51.9328 7.27648
52.1316 7.18447
52.3304 7.06857
52.5293 6.96049
52.7284 6.80889
52.9276 6.69904
53.1271 6.61882
53.3267 6.50376
53.5265 6.34359
53.7264 6.2706
53.9266 6.15009
54.1269 6.08044
54.3274 5.8838
54.528 5.74883
54.7289 5.52803
54.9301 5.38004
55.1314 5.23703
55.3328 5.03373
55.5344 4.79996
55.7361 4.70322