File: XRD/Ni3Fe_FD0120.xy
TT I
1.27165 7.70955
1.45013 6.4164
1.62863 5.68848
1.80712 5.17579
1.98562 5.14364
2.16411 4.84304
2.34263 4.37306
2.52115 4.53142
2.69965 5.33261
2.87818 7.48939
3.05672 11.224
3.23527 14.7445
3.4138 18.5234
3.59237 21.3817
3.77094 24.5633
3.9495 28.3023
4.12809 32.6141
4.30669 37.3543
4.4853 44.482
4.6639 53.3167
4.84253 65.3365
5.02118 90.7294
5.19981 595.137
5.37848 539.946
5.55716 108.281
5.73586 95.8388
5.91455 106.835
6.09328 2475.28
6.27201 91.32
6.45075 66.2191
6.62952 59.212
6.8083 54.7521
6.98711 52.9802
7.16591 51.7023
7.34475 51.5388
7.5236 56.1254
7.70247 53.4653
7.88135 55.5869
8.06026 59.9112
8.23919 67.1869
8.41812 83.3508
8.59709 827.824
8.77609 120.948
8.9551 84.4593
9.13412 80.7229
9.31318 89.1052
9.49226 82.82
9.67134 87.7234
9.85047 97.7475
10.0296 563.556
10.2088 1070.58
10.388 104.164
10.5672 299.521
10.7465 91.7808
10.9257 75.1479
11.105 69.6071
11.2844 65.5738
11.4637 62.7739
11.6431 61.617
11.8225 60.3738
12.002 66.3649
12.1814 110.991
12.3609 76.6924
12.5405 62.2625
12.72 64.4242
12.8996 69.2603
13.0792 78.4948
13.2589 195.229
13.4386 226.802
13.6183 181.062
13.7981 165.744
13.9779 75.367
14.1577 74.8058
14.3376 68.3635
14.5175 67.5098
14.6974 69.1502
14.8774 120.005
15.0574 205.393
15.2374 68.434
15.4175 65.646
15.5976 64.8088
15.7778 107.265
15.958 182.413
16.1382 61.441
16.3185 56.895
16.4988 54.4504
16.6792 53.3265
16.8596 53.6319
17.04 54.7964
17.2205 64.1351
17.401 81.0113
17.5815 58.3645
17.7622 60.5077
17.9428 83.905
18.1237 108.092
18.3044 87.2356
18.4852 96.8291
18.666 60.3365
18.8469 57.6509
19.0278 55.9872
19.2088 61.573
19.3898 67.0229
19.5709 56.2503
19.752 52.642
19.9332 57.6734
20.1144 65.3037
20.2957 60.2291
20.477 59.76
20.6586 49.3839
20.84 48.691
21.0215 48.4953
21.203 48.9826
21.3846 50.069
21.5662 48.2931
21.7479 53.5773
21.9297 60.2938
22.1115 55.9324
22.2933 52.4569
22.4753 48.4786
22.6572 48.4673
22.8393 51.2714
23.0214 56.0153
23.2037 49.7094
23.3859 51.3953
23.5682 52.2409
23.7505 53.7083
23.9329 45.2291
24.1154 43.9
24.2979 43.2314
24.4805 42.5419
24.6631 42.6667
24.8458 42.0322
25.0286 42.5099
25.2114 43.9385
25.3943 44.2494
25.5773 41.3705
25.7605 40.3128
25.9436 40.5457
26.1268 41.1195
26.31 40.772
26.4933 40.543
26.6767 41.4185
26.8601 41.0544
27.0437 39.2144
27.2272 38.6747
27.4109 38.2704
27.5946 38.2741
27.7784 38.3007
27.9623 38.0604
28.1462 38.9218
28.3304 37.5914
28.5145 36.1501
28.6987 35.527
28.8829 35.1099
29.0673 34.9153
29.2517 34.199
29.4361 33.8752
29.6207 33.2791
29.8053 32.7527
29.99 32.442
30.1748 32.1883
30.3597 32.3107
30.5447 31.9893
30.7297 31.9851
30.915 31.8061
31.1002 31.1803
31.2855 30.7929
31.4708 30.6899
31.6563 30.5588
31.8418 30.0188
32.0275 29.8314
32.2132 29.4582
32.399 28.8746
32.5848 28.362
32.7708 28.0524
32.9569 27.9386
33.143 27.6082
33.3293 27.2986
33.5158 27.101
33.7022 26.5508
33.8887 26.2066
34.0753 25.9417
34.262 25.4928
34.4488 25.2228
34.6357 24.9179
34.8227 24.6694
35.0098 24.4279
35.1969 24.1158
35.3842 23.8928
35.5716 23.7096
35.759 23.4913
35.9468 22.9992
36.1345 22.8856
36.3222 22.6981
36.5101 22.3907
36.6981 22.0964
36.8861 21.7726
37.0743 21.415
37.2626 21.1984
37.451 20.8916
37.6395 20.7609
37.8281 20.4985
38.0168 20.1106
38.2056 19.8719
38.3945 19.5837
38.5837 19.4103
38.7728 19.1666
38.9621 18.8998
39.1514 18.6744
39.3409 18.3981
39.5304 18.1887
39.7201 18.0065
39.9099 17.8099
40.0999 17.4843
40.2899 17.3468
40.48 17.0754
40.6703 16.9136
40.8607 16.6896
41.0512 16.4344
41.242 16.1658
41.4327 16.0182
41.6236 15.7793
41.8146 15.6265
42.0057 15.4173
42.1969 15.1382
42.3882 14.9914
42.5797 14.7786
42.7713 14.5818
42.963 14.3783
43.1549 14.159
43.3468 13.9537
43.5389 13.8109
43.7312 13.5831
43.9237 13.4551
44.1162 13.2162
44.3088 13.053
44.5016 12.8546
44.6945 12.7253
44.8875 12.4977
45.0806 12.3054
45.2739 12.1848
45.4673 11.9892
45.6609 11.7995
45.8546 11.6205
46.0484 11.4595
46.2424 11.3162
46.4365 11.1606
46.631 10.9886
46.8254 10.8323
47.0199 10.6526
47.2146 10.5563
47.4095 10.354
47.6044 10.1821
47.7996 10.0505
47.9948 9.91506
48.1902 9.75657
48.3858 9.64847
48.5815 9.49389
48.7774 9.38813
48.9734 9.20611
49.1696 9.07494
49.3661 8.96248
49.5626 8.78002
49.7592 8.68418
49.956 8.55277
50.153 8.40282
50.3501 8.29865
50.5474 8.14656
50.7448 8.04682
50.9424 7.87919
51.1402 7.80491
51.3381 7.64989
51.5362 7.53977
51.7344 7.42308
51.9328 7.27141
52.1316 7.16612
52.3304 7.02236
52.5293 6.90924
52.7284 6.83947
52.9276 6.68758
53.1271 6.61025
53.3267 6.49289
53.5265 6.34812
53.7264 6.22482
53.9266 6.14125
54.1269 6.03813
54.3274 5.89162
54.528 5.7491
54.7289 5.54924
54.9301 5.42191
55.1314 5.26626
55.3328 5.01486
55.5344 4.84076
55.7361 4.72683