File: XRD/Ni3Fe_FD0986.xy
TT I
1.27165 7.42272
1.45013 5.99063
1.62863 5.40188
1.80712 5.14795
1.98562 4.88769
2.16411 5.56609
2.34263 6.11457
2.52115 6.90776
2.69965 8.42252
2.87818 8.96463
3.05672 11.5207
3.23527 15.7229
3.4138 19.518
3.59237 23.8941
3.77094 26.1215
3.9495 29.7884
4.12809 34.6454
4.30669 238.378
4.4853 67.1542
4.6639 53.9112
4.84253 65.6028
5.02118 84.1699
5.19981 270.431
5.37848 172.743
5.55716 99.3197
5.73586 89.4085
5.91455 90.5563
6.09328 4594.83
6.27201 80.6353
6.45075 66.099
6.62952 62.2286
6.8083 57.5567
6.98711 54.7418
7.16591 54.5633
7.34475 95.6975
7.5236 54.0658
7.70247 55.146
7.88135 56.6896
8.06026 61.1954
8.23919 68.2862
8.41812 82.7746
8.59709 1112.92
8.77609 96.6427
8.9551 90.3934
9.13412 80.7281
9.31318 80.6835
9.49226 82.8468
9.67134 97.385
9.85047 97.1795
10.0296 289.105
10.2088 371.312
10.388 102.323
10.5672 535.103
10.7465 84.7447
10.9257 76.627
11.105 70.4641
11.2844 69.1542
11.4637 63.6883
11.6431 62.3098
11.8225 61.2616
12.002 61.9628
12.1814 149.537
12.3609 69.7069
12.5405 63.0615
12.72 69.0364
12.8996 69.1819
13.0792 76.7657
13.2589 226.515
13.4386 120.605
13.6183 241.196
13.7981 94.6243
13.9779 74.2325
14.1577 70.9349
14.3376 70.3247
14.5175 67.3968
14.6974 68.5544
14.8774 103.789
15.0574 148.484
15.2374 69.8904
15.4175 64.894
15.5976 64.2081
15.7778 88.8928
15.958 153.672
16.1382 61.6623
16.3185 57.5359
16.4988 54.3431
16.6792 53.381
16.8596 54.2136
17.04 54.3607
17.2205 64.8136
17.401 68.7787
17.5815 57.8789
17.7622 59.8815
17.9428 70.2934
18.1237 138.176
18.3044 88.4347
18.4852 75.5806
18.666 59.3013
18.8469 56.8585
19.0278 55.6753
19.2088 57.9229
19.3898 75.4309
19.5709 53.311
19.752 52.2598
19.9332 54.6475
20.1144 69.0269
20.2957 63.2339
20.477 52.3973
20.6586 48.5232
20.84 47.6756
21.0215 47.6106
21.203 49.9578
21.3846 47.8508
21.5662 47.6956
21.7479 51.0389
21.9297 63.5512
22.1115 55.2193
22.2933 48.7356
22.4753 47.9504
22.6572 47.8904
22.8393 50.7266
23.0214 56.2919
23.2037 47.9559
23.3859 48.428
23.5682 56.4522
23.7505 47.3184
23.9329 44.4247
24.1154 43.1014
24.2979 42.4608
24.4805 42.053
24.6631 42.0312
24.8458 41.3236
25.0286 41.8796
25.2114 43.7341
25.3943 43.8548
25.5773 40.0662
25.7605 39.6491
25.9436 39.9527
26.1268 40.9274
26.31 39.1843
26.4933 39.8395
26.6767 41.2795
26.8601 39.7322
27.0437 38.0258
27.2272 37.7723
27.4109 37.6794
27.5946 37.7248
27.7784 37.0216
27.9623 37.6435
28.1462 38.1443
28.3304 36.4173
28.5145 35.2292
28.6987 34.9215
28.8829 34.7445
29.0673 34.0011
29.2517 33.5954
29.4361 33.3824
29.6207 32.4413
29.8053 32.2554
29.99 31.886
30.1748 31.776
30.3597 31.477
30.5447 31.5676
30.7297 31.5599
30.915 30.9363
31.1002 30.5533
31.2855 30.2269
31.4708 30.2439
31.6563 29.8015
31.8418 29.6178
32.0275 29.2663
32.2132 28.7312
32.399 28.3405
32.5848 27.9167
32.7708 27.669
32.9569 27.4438
33.143 27.2514
33.3293 26.8277
33.5158 26.6005
33.7022 26.0679
33.8887 25.8351
34.0753 25.4846
34.262 25.1824
34.4488 24.7806
34.6357 24.4801
34.8227 24.2726
35.0098 23.9842
35.1969 23.7165
35.3842 23.5658
35.5716 23.3729
35.759 23.0397
35.9468 22.6485
36.1345 22.439
36.3222 22.2291
36.5101 22.0302
36.6981 21.7224
36.8861 21.3872
37.0743 21.0688
37.2626 20.8302
37.451 20.6159
37.6395 20.507
37.8281 20.1436
38.0168 19.7937
38.2056 19.6085
38.3945 19.391
38.5837 19.0289
38.7728 18.8121
38.9621 18.6186
39.1514 18.3759
39.3409 18.152
39.5304 17.8867
39.7201 17.7694
39.9099 17.5143
40.0999 17.2885
40.2899 16.993
40.48 16.7808
40.6703 16.5966
40.8607 16.3617
41.0512 16.2572
41.242 15.9719
41.4327 15.7887
41.6236 15.5185
41.8146 15.4525
42.0057 15.1534
42.1969 14.9859
42.3882 14.7562
42.5797 14.5745
42.7713 14.3321
42.963 14.1859
43.1549 13.972
43.3468 13.7873
43.5389 13.6083
43.7312 13.4271
43.9237 13.2151
44.1162 13.0352
44.3088 12.8909
44.5016 12.6987
44.6945 12.5268
44.8875 12.3488
45.0806 12.1338
45.2739 11.9625
45.4673 11.8344
45.6609 11.6301
45.8546 11.4585
46.0484 11.3471
46.2424 11.1592
46.4365 10.9935
46.631 10.839
46.8254 10.6805
47.0199 10.5286
47.2146 10.3812
47.4095 10.207
47.6044 10.0272
47.7996 9.90996
47.9948 9.77204
48.1902 9.61803
48.3858 9.51543
48.5815 9.37547
48.7774 9.21617
48.9734 9.09021
49.1696 8.93663
49.3661 8.78463
49.5626 8.63605
49.7592 8.53965
49.956 8.41341
50.153 8.25004
50.3501 8.16633
50.5474 8.01732
50.7448 7.90245
50.9424 7.78246
51.1402 7.67876
51.3381 7.53904
51.5362 7.40899
51.7344 7.30442
51.9328 7.16493
52.1316 7.02811
52.3304 6.91115
52.5293 6.81338
52.7284 6.73338
52.9276 6.60064
53.1271 6.51731
53.3267 6.40056
53.5265 6.28442
53.7264 6.19621
53.9266 6.05396
54.1269 5.96765
54.3274 5.84492
54.528 5.71878
54.7289 5.54296
54.9301 5.3998
55.1314 5.23765
55.3328 5.07993
55.5344 4.87889
55.7361 4.81278