File: XRD/Ni3Fe_FD0784.xy
TT I
1.27165 7.1344
1.45013 5.55775
1.62863 4.97495
1.80712 4.93947
1.98562 4.56196
2.16411 4.90117
2.34263 5.59628
2.52115 7.17164
2.69965 8.52998
2.87818 8.98003
3.05672 11.1192
3.23527 14.8626
3.4138 18.4425
3.59237 23.6103
3.77094 25.6672
3.9495 29.5155
4.12809 34.2727
4.30669 168.408
4.4853 60.1881
4.6639 54.7673
4.84253 67.0443
5.02118 85.7732
5.19981 343.618
5.37848 175.704
5.55716 100.83
5.73586 91.6354
5.91455 93.3485
6.09328 4518.75
6.27201 80.8859
6.45075 66.7339
6.62952 61.7791
6.8083 57.7185
6.98711 55.2784
7.16591 54.591
7.34475 80.743
7.5236 53.9128
7.70247 55.3705
7.88135 57.6537
8.06026 61.6486
8.23919 68.7178
8.41812 83.6592
8.59709 1206.57
8.77609 96.8545
8.9551 89.3034
9.13412 80.9166
9.31318 82.1238
9.49226 83.6983
9.67134 95.3639
9.85047 98.6382
10.0296 338.616
10.2088 341.495
10.388 102.967
10.5672 534.086
10.7465 84.9636
10.9257 76.9382
11.105 71.0935
11.2844 68.8793
11.4637 64.3807
11.6431 62.6502
11.8225 61.8674
12.002 62.8703
12.1814 156.507
12.3609 67.9677
12.5405 63.7734
12.72 68.3903
12.8996 70.2025
13.0792 78.5115
13.2589 243.503
13.4386 116.746
13.6183 254.636
13.7981 92.5787
13.9779 74.7627
14.1577 71.4117
14.3376 70.1866
14.5175 68.2105
14.6974 69.6513
14.8774 110.197
15.0574 143.351
15.2374 69.3549
15.4175 65.6299
15.5976 64.9551
15.7778 93.9122
15.958 149.199
16.1382 61.4846
16.3185 57.5731
16.4988 54.8459
16.6792 53.7433
16.8596 54.4229
17.04 55.0228
17.2205 66.4918
17.401 68.8454
17.5815 58.3663
17.7622 60.5937
17.9428 72.8874
18.1237 141.567
18.3044 90.4584
18.4852 74.1782
18.666 59.6978
18.8469 57.4124
19.0278 56.1775
19.2088 58.7342
19.3898 76.0231
19.5709 53.4846
19.752 52.5172
19.9332 55.6878
20.1144 69.8646
20.2957 63.8597
20.477 52.3619
20.6586 49.1703
20.84 48.1424
21.0215 47.9721
21.203 50.489
21.3846 48.4041
21.5662 48.4122
21.7479 52.0899
21.9297 64.1005
22.1115 55.7368
22.2933 49.1489
22.4753 48.2378
22.6572 48.5151
22.8393 51.6597
23.0214 56.6262
23.2037 48.0972
23.3859 49.301
23.5682 56.988
23.7505 47.3645
23.9329 44.5969
24.1154 43.5018
24.2979 42.9557
24.4805 42.5175
24.6631 42.3125
24.8458 41.8185
25.0286 42.5291
25.2114 44.1696
25.3943 44.1527
25.5773 40.4758
25.7605 40.0256
25.9436 40.3957
26.1268 41.3077
26.31 39.6103
26.4933 40.407
26.6767 41.7054
26.8601 40.0078
27.0437 38.4314
27.2272 38.0673
27.4109 38.0252
27.5946 37.8932
27.7784 37.4485
27.9623 38.0407
28.1462 38.3723
28.3304 36.7079
28.5145 35.6
28.6987 35.189
28.8829 35.1571
29.0673 34.2358
29.2517 33.9787
29.4361 33.821
29.6207 32.7281
29.8053 32.5136
29.99 32.2208
30.1748 32.1459
30.3597 31.9353
30.5447 31.8889
30.7297 31.8916
30.915 31.1765
31.1002 30.7606
31.2855 30.5894
31.4708 30.5501
31.6563 30.0207
31.8418 29.8828
32.0275 29.5823
32.2132 29.0719
32.399 28.6647
32.5848 28.2579
32.7708 27.8081
32.9569 27.6116
33.143 27.4963
33.3293 27.0992
33.5158 26.7647
33.7022 26.2614
33.8887 26.1004
34.0753 25.7446
34.262 25.3828
34.4488 25.0177
34.6357 24.6929
34.8227 24.5112
35.0098 24.2176
35.1969 23.9692
35.3842 23.7395
35.5716 23.5983
35.759 23.2163
35.9468 22.8445
36.1345 22.6591
36.3222 22.405
36.5101 22.1865
36.6981 21.8664
36.8861 21.5778
37.0743 21.2496
37.2626 20.9819
37.451 20.7381
37.6395 20.5612
37.8281 20.338
38.0168 20.0073
38.2056 19.6915
38.3945 19.4788
38.5837 19.2324
38.7728 18.9894
38.9621 18.7401
39.1514 18.4485
39.3409 18.335
39.5304 17.9979
39.7201 17.8623
39.9099 17.6283
40.0999 17.3934
40.2899 17.1272
40.48 16.9224
40.6703 16.7331
40.8607 16.56
41.0512 16.3462
41.242 16.0415
41.4327 15.8595
41.6236 15.6335
41.8146 15.4817
42.0057 15.249
42.1969 15.0368
42.3882 14.8576
42.5797 14.6417
42.7713 14.5069
42.963 14.2333
43.1549 14.0913
43.3468 13.8228
43.5389 13.6957
43.7312 13.4996
43.9237 13.3083
44.1162 13.1281
44.3088 12.9662
44.5016 12.7869
44.6945 12.5984
44.8875 12.4086
45.0806 12.2698
45.2739 12.1087
45.4673 11.9419
45.6609 11.7393
45.8546 11.5935
46.0484 11.4621
46.2424 11.2522
46.4365 11.0849
46.631 10.8692
46.8254 10.7536
47.0199 10.6031
47.2146 10.4658
47.4095 10.3015
47.6044 10.136
47.7996 9.98145
47.9948 9.83425
48.1902 9.66071
48.3858 9.5579
48.5815 9.44146
48.7774 9.27582
48.9734 9.13636
49.1696 9.00606
49.3661 8.8706
49.5626 8.70309
49.7592 8.61504
49.956 8.48158
50.153 8.32382
50.3501 8.20999
50.5474 8.07138
50.7448 7.93539
50.9424 7.82714
51.1402 7.7232
51.3381 7.57292
51.5362 7.48837
51.7344 7.31302
51.9328 7.23336
52.1316 7.07925
52.3304 6.98008
52.5293 6.87797
52.7284 6.72822
52.9276 6.65103
53.1271 6.54947
53.3267 6.41479
53.5265 6.31116
53.7264 6.20387
53.9266 6.07242
54.1269 6.01878
54.3274 5.88323
54.528 5.7367
54.7289 5.56281
54.9301 5.40218
55.1314 5.27446
55.3328 5.0925
55.5344 4.89467
55.7361 4.73839