File: XRD/Ni3Fe_FD0584.xy
TT I
1.27165 7.59446
1.45013 6.7527
1.62863 5.22374
1.80712 4.50756
1.98562 4.91925
2.16411 4.55619
2.34263 5.11498
2.52115 5.63717
2.69965 8.09168
2.87818 8.88034
3.05672 10.7071
3.23527 15.1022
3.4138 18.5781
3.59237 22.8165
3.77094 26.1588
3.9495 29.5851
4.12809 34.52
4.30669 119.182
4.4853 56.0868
4.6639 55.976
4.84253 68.0122
5.02118 88.6317
5.19981 473.657
5.37848 199.424
5.55716 102.819
5.73586 93.8839
5.91455 97.1377
6.09328 4404.25
6.27201 81.8338
6.45075 68.7716
6.62952 62.373
6.8083 58.9041
6.98711 55.5483
7.16591 55.6734
7.34475 71.3826
7.5236 54.5224
7.70247 56.488
7.88135 57.8288
8.06026 62.8033
8.23919 69.7594
8.41812 85.1625
8.59709 1259.46
8.77609 99.6948
8.9551 89.7368
9.13412 82.8333
9.31318 84.6482
9.49226 85.1583
9.67134 95.4014
9.85047 101.591
10.0296 380.425
10.2088 372.097
10.388 106.802
10.5672 517.82
10.7465 86.6707
10.9257 78.0835
11.105 72.1287
11.2844 69.1024
11.4637 65.2539
11.6431 63.8526
11.8225 62.5817
12.002 64.9316
12.1814 155.578
12.3609 67.7786
12.5405 64.9474
12.72 68.8245
12.8996 71.737
13.0792 81.252
13.2589 252.465
13.4386 121.856
13.6183 253.955
13.7981 96.4176
13.9779 76.1812
14.1577 72.4628
14.3376 70.9096
14.5175 69.2697
14.6974 71.5132
14.8774 116.07
15.0574 143.414
15.2374 70.1562
15.4175 66.4997
15.5976 66.5854
15.7778 99.0603
15.958 150.325
16.1382 61.8606
16.3185 58.2905
16.4988 55.9308
16.6792 54.8833
16.8596 55.2062
17.04 56.5321
17.2205 67.6953
17.401 70.6216
17.5815 59.5695
17.7622 61.9854
17.9428 75.7326
18.1237 141.11
18.3044 91.8256
18.4852 77.033
18.666 60.5661
18.8469 58.3316
19.0278 57.3505
19.2088 59.8882
19.3898 76.0259
19.5709 54.5503
19.752 53.6263
19.9332 56.9079
20.1144 70.1264
20.2957 64.1881
20.477 53.318
20.6586 49.8212
20.84 49.1923
21.0215 48.9793
21.203 51.1659
21.3846 49.069
21.5662 49.2631
21.7479 53.4355
21.9297 64.9156
22.1115 56.2495
22.2933 49.9933
22.4753 49.0978
22.6572 49.4515
22.8393 52.6221
23.0214 57.3655
23.2037 49.1385
23.3859 50.2065
23.5682 57.1912
23.7505 48.4468
23.9329 45.3735
24.1154 44.3361
24.2979 43.6163
24.4805 43.2359
24.6631 43.0419
24.8458 42.3534
25.0286 43.1972
25.2114 45.0529
25.3943 44.927
25.5773 41.2209
25.7605 40.6792
25.9436 41.1324
26.1268 42.0178
26.31 40.2974
26.4933 41.0158
26.6767 42.396
26.8601 40.545
27.0437 39.1689
27.2272 38.7183
27.4109 38.684
27.5946 38.5531
27.7784 38.0758
27.9623 38.7032
28.1462 39.1408
28.3304 37.4132
28.5145 36.1917
28.6987 35.7895
28.8829 35.6742
29.0673 34.9524
29.2517 34.58
29.4361 34.335
29.6207 33.4515
29.8053 33.0183
29.99 32.7544
30.1748 32.5865
30.3597 32.4954
30.5447 32.3281
30.7297 32.3961
30.915 31.8251
31.1002 31.3425
31.2855 30.9956
31.4708 31.0557
31.6563 30.6083
31.8418 30.4016
32.0275 30.0576
32.2132 29.5545
32.399 29.0562
32.5848 28.7103
32.7708 28.3308
32.9569 28.194
33.143 28.0083
33.3293 27.5316
33.5158 27.2113
33.7022 26.8121
33.8887 26.4897
34.0753 26.1169
34.262 25.7479
34.4488 25.5143
34.6357 25.1034
34.8227 24.8439
35.0098 24.6256
35.1969 24.3185
35.3842 24.1152
35.5716 23.8853
35.759 23.5721
35.9468 23.3034
36.1345 23.0209
36.3222 22.7887
36.5101 22.4775
36.6981 22.2617
36.8861 21.888
37.0743 21.6379
37.2626 21.3496
37.451 21.0487
37.6395 20.9276
37.8281 20.5988
38.0168 20.3748
38.2056 20.0912
38.3945 19.7915
38.5837 19.617
38.7728 19.2665
38.9621 19.0452
39.1514 18.8529
39.3409 18.559
39.5304 18.3612
39.7201 18.1323
39.9099 17.9267
40.0999 17.6438
40.2899 17.4693
40.48 17.25
40.6703 17.045
40.8607 16.8199
41.0512 16.6292
41.242 16.3474
41.4327 16.1228
41.6236 15.9018
41.8146 15.7545
42.0057 15.5387
42.1969 15.2469
42.3882 15.1661
42.5797 14.8657
42.7713 14.7065
42.963 14.4959
43.1549 14.3055
43.3468 14.0488
43.5389 13.8734
43.7312 13.7353
43.9237 13.5239
44.1162 13.3499
44.3088 13.1237
44.5016 12.9634
44.6945 12.8364
44.8875 12.6012
45.0806 12.4316
45.2739 12.3081
45.4673 12.1092
45.6609 11.8901
45.8546 11.768
46.0484 11.6156
46.2424 11.404
46.4365 11.2524
46.631 11.0964
46.8254 10.8684
47.0199 10.7387
47.2146 10.627
47.4095 10.4468
47.6044 10.2743
47.7996 10.1016
47.9948 9.98178
48.1902 9.83671
48.3858 9.70638
48.5815 9.54614
48.7774 9.46651
48.9734 9.27614
49.1696 9.12658
49.3661 9.01421
49.5626 8.87939
49.7592 8.76329
49.956 8.59339
50.153 8.46132
50.3501 8.34864
50.5474 8.21808
50.7448 8.05746
50.9424 7.95294
51.1402 7.81903
51.3381 7.68101
51.5362 7.6174
51.7344 7.45643
51.9328 7.32104
52.1316 7.21233
52.3304 7.10508
52.5293 6.98215
52.7284 6.88784
52.9276 6.80859
53.1271 6.66653
53.3267 6.53749
53.5265 6.42439
53.7264 6.32138
53.9266 6.15161
54.1269 6.08536
54.3274 5.98446
54.528 5.80274
54.7289 5.69419
54.9301 5.50685
55.1314 5.3591
55.3328 5.13106
55.5344 5.02194
55.7361 4.83807