File: XRD/Ni3Fe_FD0121.xy
TT I
1.27165 7.97916
1.45013 7.0776
1.62863 5.50419
1.80712 4.93503
1.98562 5.12181
2.16411 4.33773
2.34263 3.99898
2.52115 3.57299
2.69965 5.04062
2.87818 8.0139
3.05672 11.2816
3.23527 14.8331
3.4138 18.2758
3.59237 21.4284
3.77094 24.8227
3.9495 28.3839
4.12809 32.5903
4.30669 37.2466
4.4853 44.7185
4.6639 53.0813
4.84253 65.1603
5.02118 90.8473
5.19981 587.971
5.37848 539.163
5.55716 108.723
5.73586 95.5267
5.91455 106.341
6.09328 2477.63
6.27201 91.0925
6.45075 66.2317
6.62952 59.2859
6.8083 55.3007
6.98711 53.0048
7.16591 51.6
7.34475 51.5189
7.5236 56.5621
7.70247 53.4007
7.88135 55.4851
8.06026 59.9953
8.23919 67.2856
8.41812 83.2754
8.59709 829.361
8.77609 120.277
8.9551 84.6879
9.13412 80.8208
9.31318 88.2699
9.49226 82.8854
9.67134 87.6724
9.85047 97.6958
10.0296 560.294
10.2088 1083.5
10.388 104.393
10.5672 300.75
10.7465 91.2763
10.9257 74.9421
11.105 69.1775
11.2844 65.266
11.4637 62.6757
11.6431 61.6042
11.8225 60.3351
12.002 66.428
12.1814 111.609
12.3609 76.8609
12.5405 62.4315
12.72 64.1369
12.8996 69.1294
13.0792 78.4113
13.2589 195.447
13.4386 227.831
13.6183 181.706
13.7981 166.051
13.9779 75.1705
14.1577 74.3402
14.3376 68.1383
14.5175 67.6433
14.6974 68.9651
14.8774 120.447
15.0574 205.532
15.2374 68.473
15.4175 65.5219
15.5976 64.9142
15.7778 107.49
15.958 183.362
16.1382 61.461
16.3185 56.7373
16.4988 54.2882
16.6792 53.3573
16.8596 53.4754
17.04 54.8212
17.2205 64.2776
17.401 80.9842
17.5815 58.3496
17.7622 60.7565
17.9428 83.7565
18.1237 108.281
18.3044 87.9255
18.4852 97.0602
18.666 60.3001
18.8469 57.632
19.0278 56.0973
19.2088 61.3239
19.3898 67.1118
19.5709 56.3022
19.752 52.7832
19.9332 57.7608
20.1144 65.3836
20.2957 60.2737
20.477 59.7383
20.6586 49.2984
20.84 48.4519
21.0215 48.7418
21.203 49.0287
21.3846 50.2473
21.5662 48.585
21.7479 53.5656
21.9297 60.3861
22.1115 55.9912
22.2933 52.6445
22.4753 48.464
22.6572 48.6627
22.8393 51.5458
23.0214 56.0588
23.2037 49.5418
23.3859 51.4296
23.5682 52.3787
23.7505 53.7238
23.9329 45.2292
24.1154 43.9602
24.2979 43.403
24.4805 42.5297
24.6631 42.8143
24.8458 42.1395
25.0286 42.4743
25.2114 43.9788
25.3943 44.3146
25.5773 41.3878
25.7605 40.3763
25.9436 40.6524
26.1268 41.173
26.31 40.6997
26.4933 40.4868
26.6767 41.4289
26.8601 41.0095
27.0437 39.1825
27.2272 38.6631
27.4109 38.3015
27.5946 38.2344
27.7784 38.2346
27.9623 38.0434
28.1462 38.9679
28.3304 37.572
28.5145 35.9658
28.6987 35.6373
28.8829 35.0673
29.0673 34.9057
29.2517 34.1124
29.4361 33.9315
29.6207 33.2806
29.8053 32.8008
29.99 32.43
30.1748 32.2931
30.3597 32.3081
30.5447 32.0511
30.7297 32.0525
30.915 31.815
31.1002 31.1754
31.2855 30.8628
31.4708 30.6666
31.6563 30.6238
31.8418 30.1272
32.0275 29.8761
32.2132 29.4688
32.399 28.8417
32.5848 28.531
32.7708 28.1095
32.9569 28.0223
33.143 27.6138
33.3293 27.4231
33.5158 27.1012
33.7022 26.5715
33.8887 26.2795
34.0753 25.9886
34.262 25.5921
34.4488 25.2312
34.6357 24.9133
34.8227 24.5584
35.0098 24.4445
35.1969 24.1493
35.3842 23.9516
35.5716 23.7081
35.759 23.4803
35.9468 23.0446
36.1345 22.8332
36.3222 22.6227
36.5101 22.3667
36.6981 22.0144
36.8861 21.8621
37.0743 21.3816
37.2626 21.2578
37.451 20.9204
37.6395 20.7741
37.8281 20.4557
38.0168 20.2012
38.2056 19.8755
38.3945 19.6229
38.5837 19.3617
38.7728 19.1506
38.9621 18.9074
39.1514 18.6253
39.3409 18.3998
39.5304 18.2038
39.7201 17.9708
39.9099 17.7714
40.0999 17.5819
40.2899 17.332
40.48 17.0566
40.6703 16.8788
40.8607 16.6935
41.0512 16.4807
41.242 16.2395
41.4327 16.0044
41.6236 15.8492
41.8146 15.6082
42.0057 15.4168
42.1969 15.1703
42.3882 15.0263
42.5797 14.7478
42.7713 14.5566
42.963 14.3763
43.1549 14.2352
43.3468 14.0101
43.5389 13.8455
43.7312 13.5667
43.9237 13.4769
44.1162 13.215
44.3088 13.0037
44.5016 12.8582
44.6945 12.7475
44.8875 12.511
45.0806 12.3353
45.2739 12.1753
45.4673 12.0019
45.6609 11.8269
45.8546 11.6792
46.0484 11.4807
46.2424 11.3264
46.4365 11.1464
46.631 10.9731
46.8254 10.7759
47.0199 10.6972
47.2146 10.5214
47.4095 10.3517
47.6044 10.2087
47.7996 10.069
47.9948 9.85296
48.1902 9.7158
48.3858 9.6451
48.5815 9.49343
48.7774 9.33059
48.9734 9.20216
49.1696 9.09365
49.3661 8.96123
49.5626 8.78936
49.7592 8.68584
49.956 8.54995
50.153 8.4568
50.3501 8.28534
50.5474 8.16249
50.7448 8.04858
50.9424 7.93055
51.1402 7.79407
51.3381 7.67617
51.5362 7.55451
51.7344 7.41627
51.9328 7.26983
52.1316 7.15777
52.3304 7.05051
52.5293 6.93482
52.7284 6.83147
52.9276 6.73542
53.1271 6.61436
53.3267 6.49073
53.5265 6.36242
53.7264 6.25803
53.9266 6.19728
54.1269 5.98839
54.3274 5.92309
54.528 5.70216
54.7289 5.57767
54.9301 5.40739
55.1314 5.24616
55.3328 5.0336
55.5344 4.82292
55.7361 4.76873