File: XRD/Ni3Fe_FD0767.xy
TT I
1.27165 7.15428
1.45013 5.99092
1.62863 5.30576
1.80712 5.01914
1.98562 4.75862
2.16411 4.96302
2.34263 5.76293
2.52115 6.88553
2.69965 8.26453
2.87818 8.89162
3.05672 11.127
3.23527 15.3078
3.4138 18.8812
3.59237 24.5442
3.77094 26.6042
3.9495 29.8977
4.12809 34.9043
4.30669 274.596
4.4853 71.0627
4.6639 55.2146
4.84253 66.5722
5.02118 85.1522
5.19981 303.82
5.37848 188.125
5.55716 100.524
5.73586 90.8933
5.91455 91.8448
6.09328 4196.53
6.27201 82.8998
6.45075 66.9626
6.62952 62.7826
6.8083 58.8338
6.98711 55.9678
7.16591 55.38
7.34475 103.351
7.5236 54.8819
7.70247 56.0647
7.88135 58.0039
8.06026 61.885
8.23919 68.8531
8.41812 84.6736
8.59709 1092.89
8.77609 99.0079
8.9551 93.0162
9.13412 81.1681
9.31318 81.6622
9.49226 83.7192
9.67134 100.208
9.85047 98.7242
10.0296 299.91
10.2088 404.235
10.388 104.102
10.5672 510.361
10.7465 86.048
10.9257 78.5777
11.105 71.476
11.2844 70.968
11.4637 64.5765
11.6431 63.2929
11.8225 62.2161
12.002 62.8269
12.1814 146.242
12.3609 71.7021
12.5405 64.3534
12.72 70.5822
12.8996 70.3037
13.0792 77.9197
13.2589 223.902
13.4386 127.812
13.6183 234.556
13.7981 98.4427
13.9779 75.171
14.1577 72.3131
14.3376 71.7294
14.5175 68.1079
14.6974 69.8607
14.8774 105.424
15.0574 151.948
15.2374 71.0632
15.4175 65.9109
15.5976 65.1772
15.7778 90.5589
15.958 158.58
16.1382 62.9617
16.3185 58.8186
16.4988 55.2637
16.6792 54.4539
16.8596 54.9544
17.04 55.3679
17.2205 65.4131
17.401 71.0793
17.5815 58.6805
17.7622 60.5564
17.9428 71.5886
18.1237 138.891
18.3044 88.5692
18.4852 78.2868
18.666 59.9992
18.8469 57.5492
19.0278 56.7182
19.2088 58.919
19.3898 76.8365
19.5709 53.8279
19.752 52.8334
19.9332 55.495
20.1144 69.2068
20.2957 63.1927
20.477 53.7107
20.6586 49.3659
20.84 48.4088
21.0215 48.1648
21.203 50.4484
21.3846 48.5229
21.5662 48.3918
21.7479 51.7018
21.9297 64.4512
22.1115 55.6138
22.2933 49.7667
22.4753 48.8392
22.6572 48.3672
22.8393 51.1876
23.0214 57.3184
23.2037 48.4082
23.3859 49.0238
23.5682 56.8001
23.7505 48.2716
23.9329 44.9563
24.1154 43.8146
24.2979 43.13
24.4805 42.6685
24.6631 42.6003
24.8458 41.9139
25.0286 42.416
25.2114 44.3251
25.3943 44.4105
25.5773 40.8057
25.7605 40.1748
25.9436 40.5234
26.1268 41.4243
26.31 39.7641
26.4933 40.4083
26.6767 42.0733
26.8601 40.2456
27.0437 38.5152
27.2272 38.233
27.4109 38.0693
27.5946 38.1306
27.7784 37.5413
27.9623 38.1189
28.1462 38.596
28.3304 36.9869
28.5145 35.7198
28.6987 35.4299
28.8829 35.2495
29.0673 34.5705
29.2517 34.1362
29.4361 34.0076
29.6207 32.9393
29.8053 32.6549
29.99 32.4588
30.1748 32.2365
30.3597 32.0178
30.5447 31.9656
30.7297 32.0904
30.915 31.3962
31.1002 31.0056
31.2855 30.6493
31.4708 30.6522
31.6563 30.1737
31.8418 29.9801
32.0275 29.6778
32.2132 29.1575
32.399 28.7792
32.5848 28.3135
32.7708 27.989
32.9569 27.9233
33.143 27.6776
33.3293 27.2334
33.5158 26.8093
33.7022 26.5193
33.8887 26.2161
34.0753 25.9317
34.262 25.4619
34.4488 25.2153
34.6357 24.7924
34.8227 24.6402
35.0098 24.3126
35.1969 24.0785
35.3842 23.8048
35.5716 23.6353
35.759 23.3082
35.9468 23.0133
36.1345 22.8042
36.3222 22.5783
36.5101 22.3189
36.6981 22.0393
36.8861 21.7045
37.0743 21.3736
37.2626 21.1818
37.451 20.8838
37.6395 20.7599
37.8281 20.3719
38.0168 20.1272
38.2056 19.8493
38.3945 19.5891
38.5837 19.3456
38.7728 19.186
38.9621 18.8992
39.1514 18.5408
39.3409 18.3684
39.5304 18.1946
39.7201 17.9838
39.9099 17.7028
40.0999 17.5251
40.2899 17.3136
40.48 17.0476
40.6703 16.8408
40.8607 16.6252
41.0512 16.4045
41.242 16.1472
41.4327 15.9917
41.6236 15.7324
41.8146 15.5456
42.0057 15.3229
42.1969 15.1452
42.3882 14.9973
42.5797 14.8205
42.7713 14.5761
42.963 14.3693
43.1549 14.1995
43.3468 13.958
43.5389 13.7672
43.7312 13.5714
43.9237 13.3942
44.1162 13.2137
44.3088 13.0153
44.5016 12.8163
44.6945 12.6761
44.8875 12.5477
45.0806 12.3449
45.2739 12.1657
45.4673 12.0001
45.6609 11.7881
45.8546 11.6227
46.0484 11.4763
46.2424 11.3203
46.4365 11.1576
46.631 10.9787
46.8254 10.8243
47.0199 10.6825
47.2146 10.4922
47.4095 10.3355
47.6044 10.183
47.7996 10.0285
47.9948 9.8965
48.1902 9.76529
48.3858 9.6163
48.5815 9.4927
48.7774 9.38252
48.9734 9.22097
49.1696 9.09605
49.3661 8.93163
49.5626 8.78315
49.7592 8.67076
49.956 8.53066
50.153 8.38407
50.3501 8.28728
50.5474 8.16417
50.7448 8.01684
50.9424 7.88844
51.1402 7.76146
51.3381 7.60724
51.5362 7.53151
51.7344 7.40519
51.9328 7.26735
52.1316 7.14948
52.3304 7.05532
52.5293 6.93665
52.7284 6.83165
52.9276 6.70582
53.1271 6.63958
53.3267 6.46285
53.5265 6.36655
53.7264 6.25667
53.9266 6.14255
54.1269 6.04198
54.3274 5.91002
54.528 5.77911
54.7289 5.57949
54.9301 5.47489
55.1314 5.31662
55.3328 5.10892
55.5344 4.94429
55.7361 4.77906