File: XRD/Ni3Fe_FD0461.xy
TT I
1.27165 7.78118
1.45013 5.87809
1.62863 5.63681
1.80712 5.10337
1.98562 5.02401
2.16411 4.80744
2.34263 5.0762
2.52115 6.42756
2.69965 8.14966
2.87818 8.52598
3.05672 11.3772
3.23527 15.0011
3.4138 18.996
3.59237 23.2523
3.77094 25.9703
3.9495 29.9875
4.12809 34.7645
4.30669 131.663
4.4853 57.7901
4.6639 56.2798
4.84253 68.6983
5.02118 89.8714
5.19981 525.082
5.37848 205.219
5.55716 104.807
5.73586 95.1874
5.91455 99.5232
6.09328 4210.76
6.27201 84.2429
6.45075 68.6217
6.62952 63.1564
6.8083 59.2568
6.98711 56.4229
7.16591 56.2771
7.34475 75.0517
7.5236 55.0451
7.70247 57.0626
7.88135 58.6311
8.06026 63.3461
8.23919 70.6631
8.41812 87.0854
8.59709 1229.23
8.77609 101.718
8.9551 90.8396
9.13412 83.994
9.31318 85.0865
9.49226 86.3488
9.67134 96.8591
9.85047 102.624
10.0296 410.532
10.2088 407.631
10.388 108.364
10.5672 494.684
10.7465 88.1811
10.9257 79.123
11.105 72.8955
11.2844 70.5488
11.4637 65.8208
11.6431 64.3004
11.8225 63.4976
12.002 65.5413
12.1814 155.776
12.3609 69.434
12.5405 65.8291
12.72 69.6517
12.8996 72.4994
13.0792 81.8999
13.2589 251.402
13.4386 124.337
13.6183 254.098
13.7981 97.8268
13.9779 77.1274
14.1577 73.3882
14.3376 71.9123
14.5175 70.2791
14.6974 72.0114
14.8774 118.604
15.0574 147.262
15.2374 71.486
15.4175 67.5643
15.5976 67.2719
15.7778 101.473
15.958 155.164
16.1382 62.975
16.3185 58.9542
16.4988 56.2854
16.6792 55.4794
16.8596 55.9708
17.04 57.0058
17.2205 68.9066
17.401 71.7879
17.5815 60.3624
17.7622 62.7562
17.9428 77.3845
18.1237 139.65
18.3044 92.3042
18.4852 77.8455
18.666 61.4601
18.8469 59.1024
19.0278 57.9464
19.2088 60.7704
19.3898 76.686
19.5709 55.0151
19.752 54.2888
19.9332 57.7881
20.1144 70.3577
20.2957 64.6617
20.477 54.3046
20.6586 50.6377
20.84 49.7436
21.0215 49.6595
21.203 51.5925
21.3846 49.7566
21.5662 50.0809
21.7479 53.9603
21.9297 65.5117
22.1115 56.5863
22.2933 50.5527
22.4753 49.4439
22.6572 50.0191
22.8393 53.2654
23.0214 57.8602
23.2037 49.7692
23.3859 50.967
23.5682 57.3203
23.7505 48.8992
23.9329 46.0148
24.1154 44.9756
24.2979 44.1953
24.4805 43.7048
24.6631 43.4074
24.8458 42.9828
25.0286 43.6498
25.2114 45.3573
25.3943 45.1779
25.5773 41.6051
25.7605 41.0689
25.9436 41.5336
26.1268 42.3993
26.31 40.8154
26.4933 41.4794
26.6767 42.7999
26.8601 41.0707
27.0437 39.5333
27.2272 39.2246
27.4109 38.9862
27.5946 38.9962
27.7784 38.4841
27.9623 38.8737
28.1462 39.3955
28.3304 37.7634
28.5145 36.5663
28.6987 36.1707
28.8829 36.1135
29.0673 35.2682
29.2517 34.914
29.4361 34.6639
29.6207 33.7866
29.8053 33.3763
29.99 33.0262
30.1748 32.9282
30.3597 32.878
30.5447 32.7279
30.7297 32.7817
30.915 32.1018
31.1002 31.7052
31.2855 31.4185
31.4708 31.3128
31.6563 30.782
31.8418 30.6256
32.0275 30.3681
32.2132 29.8967
32.399 29.4298
32.5848 28.9378
32.7708 28.6788
32.9569 28.4497
33.143 28.2105
33.3293 27.8424
33.5158 27.4818
33.7022 27.0293
33.8887 26.7305
34.0753 26.3604
34.262 26.0603
34.4488 25.6831
34.6357 25.3747
34.8227 25.0907
35.0098 24.9884
35.1969 24.595
35.3842 24.3817
35.5716 24.1323
35.759 23.8947
35.9468 23.505
36.1345 23.296
36.3222 23.0345
36.5101 22.8011
36.6981 22.4644
36.8861 22.1383
37.0743 21.8612
37.2626 21.6229
37.451 21.3526
37.6395 21.1399
37.8281 20.8094
38.0168 20.5659
38.2056 20.2967
38.3945 19.9842
38.5837 19.7598
38.7728 19.4884
38.9621 19.2815
39.1514 19.0185
39.3409 18.7137
39.5304 18.5274
39.7201 18.3128
39.9099 18.1654
40.0999 17.9
40.2899 17.6531
40.48 17.3447
40.6703 17.124
40.8607 17.0234
41.0512 16.8625
41.242 16.5566
41.4327 16.3079
41.6236 16.0573
41.8146 15.897
42.0057 15.7059
42.1969 15.4264
42.3882 15.3209
42.5797 15.0617
42.7713 14.8488
42.963 14.6407
43.1549 14.4588
43.3468 14.2359
43.5389 14.0577
43.7312 13.8456
43.9237 13.7141
44.1162 13.4868
44.3088 13.298
44.5016 13.0885
44.6945 12.9359
44.8875 12.7145
45.0806 12.5468
45.2739 12.3988
45.4673 12.2315
45.6609 12.0046
45.8546 11.8436
46.0484 11.7074
46.2424 11.5309
46.4365 11.3894
46.631 11.2007
46.8254 11.0557
47.0199 10.8535
47.2146 10.7561
47.4095 10.5496
47.6044 10.3478
47.7996 10.2313
47.9948 10.0882
48.1902 9.90785
48.3858 9.81304
48.5815 9.67558
48.7774 9.52936
48.9734 9.39999
49.1696 9.2497
49.3661 9.07717
49.5626 8.9371
49.7592 8.82808
49.956 8.69069
50.153 8.58926
50.3501 8.44339
50.5474 8.28577
50.7448 8.18095
50.9424 8.06893
51.1402 7.91839
51.3381 7.76377
51.5362 7.66685
51.7344 7.53319
51.9328 7.40809
52.1316 7.25731
52.3304 7.17835
52.5293 7.05861
52.7284 6.94062
52.9276 6.85646
53.1271 6.69919
53.3267 6.55035
53.5265 6.49104
53.7264 6.35558
53.9266 6.23801
54.1269 6.16437
54.3274 6.04695
54.528 5.91146
54.7289 5.71886
54.9301 5.53136
55.1314 5.41019
55.3328 5.22179
55.5344 5.07085
55.7361 4.91038