File: XRD/Ni3Fe_FD0204.xy
TT I
1.27165 7.82845
1.45013 6.4772
1.62863 6.54776
1.80712 5.46938
1.98562 5.22613
2.16411 4.74219
2.34263 4.4224
2.52115 4.69032
2.69965 6.20785
2.87818 8.1441
3.05672 10.9687
3.23527 15.2413
3.4138 19.152
3.59237 22.9373
3.77094 26.0449
3.9495 30.4262
4.12809 34.9993
4.30669 40.5932
4.4853 49.0182
4.6639 58.3046
4.84253 71.8119
5.02118 97.3163
5.19981 887.908
5.37848 294.539
5.55716 113.671
5.73586 101.85
5.91455 111.687
6.09328 3488.15
6.27201 90.1469
6.45075 70.7747
6.62952 64.3843
6.8083 60.0949
6.98711 57.5445
7.16591 56.068
7.34475 56.2054
7.5236 57.3191
7.70247 58.1299
7.88135 60.7661
8.06026 65.3363
8.23919 73.5437
8.41812 90.9062
8.59709 1031.41
8.77609 113.104
8.9551 90.9849
9.13412 87.2511
9.31318 89.1249
9.49226 90.2229
9.67134 95.5482
9.85047 106.768
10.0296 530.355
10.2088 620.319
10.388 114.374
10.5672 427.783
10.7465 93.6162
10.9257 81.0334
11.105 75.0566
11.2844 70.9252
11.4637 67.8265
11.6431 66.8522
11.8225 65.2023
12.002 69.2318
12.1814 136.802
12.3609 70.9702
12.5405 67.5529
12.72 69.8816
12.8996 75.0254
13.0792 86.4066
13.2589 224.733
13.4386 156.827
13.6183 219.989
13.7981 115.701
13.9779 80.3148
14.1577 76.2261
14.3376 73.3518
14.5175 72.6849
14.6974 74.7354
14.8774 118.88
15.0574 177.662
15.2374 72.933
15.4175 70.0677
15.5976 70.1707
15.7778 103.592
15.958 178.198
16.1382 64.3063
16.3185 60.6333
16.4988 58.1117
16.6792 57.3208
16.8596 57.688
17.04 59.3046
17.2205 68.9133
17.401 79.0381
17.5815 62.5423
17.7622 65.0224
17.9428 83.6997
18.1237 136.382
18.3044 89.922
18.4852 85.476
18.666 63.7806
18.8469 61.1006
19.0278 59.9112
19.2088 62.9718
19.3898 75.837
19.5709 57.6006
19.752 56.0929
19.9332 59.8522
20.1144 72.4678
20.2957 64.3009
20.477 57.4701
20.6586 52.1909
20.84 51.5321
21.0215 51.4439
21.203 52.5948
21.3846 52.1426
21.5662 51.8749
21.7479 55.7373
21.9297 66.6391
22.1115 57.9045
22.2933 52.9027
22.4753 51.1154
22.6572 52.116
22.8393 54.1344
23.0214 60.0849
23.2037 51.6119
23.3859 52.8756
23.5682 57.5177
23.7505 51.727
23.9329 47.5509
24.1154 46.2625
24.2979 45.7856
24.4805 44.9493
24.6631 45.0525
24.8458 44.5489
25.0286 45.0956
25.2114 46.6235
25.3943 46.8981
25.5773 43.0772
25.7605 42.523
25.9436 42.8319
26.1268 43.6603
26.31 42.4283
26.4933 42.5301
26.6767 43.9334
26.8601 42.4866
27.0437 40.8921
27.2272 40.6052
27.4109 40.2965
27.5946 40.533
27.7784 39.8255
27.9623 39.9751
28.1462 40.6928
28.3304 39.129
28.5145 37.7499
28.6987 37.2767
28.8829 37.0742
29.0673 36.6218
29.2517 35.9249
29.4361 35.8386
29.6207 34.853
29.8053 34.4696
29.99 34.1747
30.1748 34.0031
30.3597 33.9404
30.5447 33.633
30.7297 33.7503
30.915 33.1343
31.1002 32.7269
31.2855 32.4946
31.4708 32.255
31.6563 31.9583
31.8418 31.6305
32.0275 31.4037
32.2132 30.8152
32.399 30.3715
32.5848 29.8282
32.7708 29.5026
32.9569 29.4767
33.143 29.0766
33.3293 28.7878
33.5158 28.3665
33.7022 27.897
33.8887 27.6106
34.0753 27.2795
34.262 26.8531
34.4488 26.5417
34.6357 26.2178
34.8227 25.8732
35.0098 25.7255
35.1969 25.3726
35.3842 25.0979
35.5716 24.9316
35.759 24.6331
35.9468 24.2323
36.1345 23.9391
36.3222 23.759
36.5101 23.5091
36.6981 23.2101
36.8861 22.9411
37.0743 22.5582
37.2626 22.2904
37.451 21.9956
37.6395 21.8287
37.8281 21.5123
38.0168 21.2263
38.2056 20.9604
38.3945 20.6795
38.5837 20.3651
38.7728 20.1723
38.9621 19.8519
39.1514 19.6153
39.3409 19.3925
39.5304 19.1394
39.7201 18.9457
39.9099 18.7405
40.0999 18.3616
40.2899 18.2214
40.48 17.9445
40.6703 17.8186
40.8607 17.6073
41.0512 17.2916
41.242 17.0925
41.4327 16.7835
41.6236 16.5912
41.8146 16.4267
42.0057 16.1644
42.1969 15.9133
42.3882 15.7701
42.5797 15.4982
42.7713 15.3175
42.963 15.1043
43.1549 14.9319
43.3468 14.6971
43.5389 14.5143
43.7312 14.2705
43.9237 14.106
44.1162 13.9296
44.3088 13.7193
44.5016 13.5077
44.6945 13.3508
44.8875 13.161
45.0806 12.9563
45.2739 12.7732
45.4673 12.5962
45.6609 12.4096
45.8546 12.2337
46.0484 12.0684
46.2424 11.8856
46.4365 11.7159
46.631 11.555
46.8254 11.338
47.0199 11.1861
47.2146 11.059
47.4095 10.9009
47.6044 10.7388
47.7996 10.5693
47.9948 10.3771
48.1902 10.2511
48.3858 10.0935
48.5815 9.98061
48.7774 9.84807
48.9734 9.67144
49.1696 9.54232
49.3661 9.36802
49.5626 9.2513
49.7592 9.11644
49.956 8.95341
50.153 8.81284
50.3501 8.70027
50.5474 8.53293
50.7448 8.43752
50.9424 8.30637
51.1402 8.16521
51.3381 8.05507
51.5362 7.9162
51.7344 7.75556
51.9328 7.64334
52.1316 7.50495
52.3304 7.39885
52.5293 7.27134
52.7284 7.12907
52.9276 7.03291
53.1271 6.9271
53.3267 6.76824
53.5265 6.69646
53.7264 6.55023
53.9266 6.48738
54.1269 6.31015
54.3274 6.23281
54.528 6.09033
54.7289 5.84239
54.9301 5.73779
55.1314 5.56866
55.3328 5.30508
55.5344 5.18211
55.7361 4.99462