File: XRD/Ni3Fe_FD1016.xy
TT I
1.27165 6.81451
1.45013 5.58134
1.62863 4.81696
1.80712 4.16193
1.98562 4.49373
2.16411 4.22968
2.34263 5.7149
2.52115 7.36937
2.69965 8.98011
2.87818 8.6084
3.05672 10.9414
3.23527 15.0488
3.4138 17.993
3.59237 21.6101
3.77094 24.5489
3.9495 28.0012
4.12809 32.0707
4.30669 59.0582
4.4853 45.8862
4.6639 52.2044
4.84253 63.1778
5.02118 82.1139
5.19981 224.556
5.37848 241.355
5.55716 97.0
5.73586 86.8395
5.91455 87.233
6.09328 4340.03
6.27201 75.3979
6.45075 63.0251
6.62952 57.4843
6.8083 53.8107
6.98711 51.8195
7.16591 51.39
7.34475 56.6523
7.5236 63.153
7.70247 52.5872
7.88135 54.4222
8.06026 58.2044
8.23919 64.9161
8.41812 76.5665
8.59709 1042.56
8.77609 94.6531
8.9551 81.596
9.13412 78.5144
9.31318 95.632
9.49226 80.1255
9.67134 85.7697
9.85047 92.8379
10.0296 310.518
10.2088 458.764
10.388 96.394
10.5672 489.89
10.7465 87.912
10.9257 72.6864
11.105 67.4228
11.2844 64.0458
11.4637 61.0324
11.6431 59.8421
11.8225 59.1042
12.002 69.7764
12.1814 141.566
12.3609 63.8479
12.5405 60.6678
12.72 63.1151
12.8996 66.6639
13.0792 75.9006
13.2589 216.801
13.4386 127.471
13.6183 227.793
13.7981 99.6154
13.9779 72.63
14.1577 78.5602
14.3376 66.465
14.5175 65.6985
14.6974 66.5226
14.8774 104.208
15.0574 158.28
15.2374 65.8017
15.4175 63.2075
15.5976 62.5856
15.7778 89.2848
15.958 169.791
16.1382 59.7217
16.3185 55.0575
16.4988 52.6776
16.6792 51.8791
16.8596 52.0089
17.04 52.9968
17.2205 63.1121
17.401 71.1539
17.5815 56.3488
17.7622 59.3765
17.9428 70.3674
18.1237 140.096
18.3044 86.8118
18.4852 78.3883
18.666 58.1844
18.8469 55.74
19.0278 54.4633
19.2088 56.5294
19.3898 75.8204
19.5709 52.3515
19.752 51.251
19.9332 53.818
20.1144 69.4505
20.2957 62.582
20.477 52.2318
20.6586 47.7085
20.84 47.4289
21.0215 46.739
21.203 48.7504
21.3846 47.3049
21.5662 46.8483
21.7479 50.579
21.9297 64.3089
22.1115 55.2921
22.2933 48.4663
22.4753 46.9126
22.6572 46.9752
22.8393 50.3235
23.0214 56.7552
23.2037 47.1842
23.3859 48.5369
23.5682 56.5785
23.7505 47.6118
23.9329 43.6887
24.1154 42.6198
24.2979 41.8903
24.4805 41.4223
24.6631 41.48
24.8458 40.7407
25.0286 41.4168
25.2114 43.6573
25.3943 43.9306
25.5773 39.6988
25.7605 38.9937
25.9436 39.4005
26.1268 40.7953
26.31 38.907
26.4933 39.4173
26.6767 41.3226
26.8601 39.5336
27.0437 37.8268
27.2272 37.4916
27.4109 37.3178
27.5946 37.4028
27.7784 36.7887
27.9623 37.4101
28.1462 38.0748
28.3304 36.3903
28.5145 34.9412
28.6987 34.7047
28.8829 34.3043
29.0673 33.6841
29.2517 33.3433
29.4361 33.1773
29.6207 32.1736
29.8053 31.8448
29.99 31.5593
30.1748 31.4112
30.3597 31.3509
30.5447 31.1406
30.7297 31.478
30.915 30.9056
31.1002 30.2412
31.2855 29.9821
31.4708 29.9855
31.6563 29.6491
31.8418 29.3604
32.0275 29.1724
32.2132 28.5722
32.399 28.1107
32.5848 27.782
32.7708 27.3226
32.9569 27.2284
33.143 27.0809
33.3293 26.6558
33.5158 26.2399
33.7022 25.7963
33.8887 25.5566
34.0753 25.2579
34.262 24.9734
34.4488 24.555
34.6357 24.2086
34.8227 24.0314
35.0098 23.7893
35.1969 23.4622
35.3842 23.3886
35.5716 23.1785
35.759 22.8878
35.9468 22.5429
36.1345 22.2567
36.3222 21.9797
36.5101 21.8084
36.6981 21.5265
36.8861 21.2157
37.0743 20.8763
37.2626 20.6414
37.451 20.3715
37.6395 20.2518
37.8281 19.9991
38.0168 19.585
38.2056 19.4183
38.3945 19.1084
38.5837 18.8584
38.7728 18.6637
38.9621 18.3864
39.1514 18.1369
39.3409 17.9509
39.5304 17.7558
39.7201 17.599
39.9099 17.2801
40.0999 17.1019
40.2899 16.8936
40.48 16.6586
40.6703 16.4189
40.8607 16.2273
41.0512 16.0891
41.242 15.8549
41.4327 15.5955
41.6236 15.4152
41.8146 15.2002
42.0057 14.9657
42.1969 14.785
42.3882 14.5886
42.5797 14.4034
42.7713 14.2003
42.963 14.0226
43.1549 13.8194
43.3468 13.5739
43.5389 13.4644
43.7312 13.2447
43.9237 13.0299
44.1162 12.8985
44.3088 12.719
44.5016 12.5301
44.6945 12.3581
44.8875 12.2332
45.0806 11.9885
45.2739 11.8856
45.4673 11.7091
45.6609 11.5163
45.8546 11.3533
46.0484 11.1909
46.2424 11.018
46.4365 10.9169
46.631 10.7337
46.8254 10.5671
47.0199 10.4439
47.2146 10.2556
47.4095 10.0602
47.6044 9.9274
47.7996 9.78516
47.9948 9.67239
48.1902 9.54316
48.3858 9.42202
48.5815 9.23359
48.7774 9.12622
48.9734 9.01431
49.1696 8.83118
49.3661 8.70718
49.5626 8.55147
49.7592 8.45465
49.956 8.32869
50.153 8.22362
50.3501 8.09181
50.5474 7.94919
50.7448 7.81743
50.9424 7.71474
51.1402 7.56417
51.3381 7.48002
51.5362 7.33691
51.7344 7.25326
51.9328 7.07455
52.1316 6.98219
52.3304 6.87251
52.5293 6.74085
52.7284 6.67923
52.9276 6.51106
53.1271 6.48858
53.3267 6.31636
53.5265 6.22293
53.7264 6.09417
53.9266 6.04627
54.1269 5.85896
54.3274 5.82416
54.528 5.65192
54.7289 5.54376
54.9301 5.28359
55.1314 5.18473
55.3328 5.00172
55.5344 4.86354
55.7361 4.66798