File: XRD/Ni3Fe_FD0129.xy
TT I
1.27165 7.99589
1.45013 6.84964
1.62863 5.19425
1.80712 5.52732
1.98562 5.33185
2.16411 4.65576
2.34263 4.45503
2.52115 4.002
2.69965 4.29451
2.87818 7.57214
3.05672 11.1023
3.23527 15.3126
3.4138 18.611
3.59237 21.5935
3.77094 24.6056
3.9495 28.2929
4.12809 32.4292
4.30669 37.297
4.4853 44.5772
4.6639 53.2934
4.84253 65.5382
5.02118 90.5841
5.19981 577.669
5.37848 505.025
5.55716 107.756
5.73586 95.4608
5.91455 106.501
6.09328 2550.95
6.27201 90.217
6.45075 66.2159
6.62952 59.4257
6.8083 55.2196
6.98711 53.0786
7.16591 52.1686
7.34475 51.5834
7.5236 56.2848
7.70247 53.5614
7.88135 55.6613
8.06026 60.1552
8.23919 67.4814
8.41812 83.3154
8.59709 848.822
8.77609 118.3
8.9551 85.0599
9.13412 81.0142
9.31318 87.9348
9.49226 82.9668
9.67134 88.0999
9.85047 98.0706
10.0296 555.471
10.2088 1038.3
10.388 104.344
10.5672 312.171
10.7465 91.0355
10.9257 75.4236
11.105 69.6382
11.2844 65.7012
11.4637 63.1265
11.6431 61.5568
11.8225 60.7226
12.002 65.7379
12.1814 114.016
12.3609 75.8145
12.5405 62.4495
12.72 64.6953
12.8996 69.0
13.0792 79.558
13.2589 198.535
13.4386 223.455
13.6183 185.238
13.7981 161.317
13.9779 75.6865
14.1577 74.2382
14.3376 68.4927
14.5175 67.7122
14.6974 69.1847
14.8774 120.352
15.0574 205.832
15.2374 68.8181
15.4175 65.7577
15.5976 65.1262
15.7778 107.776
15.958 184.067
16.1382 61.7314
16.3185 56.8428
16.4988 54.5015
16.6792 53.6971
16.8596 54.0014
17.04 54.8421
17.2205 64.4175
17.401 80.882
17.5815 58.5091
17.7622 61.0289
17.9428 83.629
18.1237 110.828
18.3044 87.6227
18.4852 96.2616
18.666 60.625
18.8469 57.695
19.0278 56.3502
19.2088 61.4894
19.3898 67.8095
19.5709 56.3329
19.752 52.9519
19.9332 57.9173
20.1144 65.8299
20.2957 60.6213
20.477 59.339
20.6586 49.4169
20.84 48.8793
21.0215 48.755
21.203 49.1799
21.3846 50.3355
21.5662 48.654
21.7479 53.7732
21.9297 61.0123
22.1115 55.9524
22.2933 52.4366
22.4753 48.4559
22.6572 48.8347
22.8393 51.7078
23.0214 56.3682
23.2037 49.7223
23.3859 51.6527
23.5682 52.7293
23.7505 53.5693
23.9329 45.4292
24.1154 44.068
24.2979 43.3928
24.4805 42.697
24.6631 42.8482
24.8458 42.2157
25.0286 42.8458
25.2114 44.2243
25.3943 44.3034
25.5773 41.74
25.7605 40.4263
25.9436 40.7075
26.1268 41.4249
26.31 40.882
26.4933 40.8115
26.6767 41.7009
26.8601 41.0951
27.0437 39.2656
27.2272 38.7609
27.4109 38.2771
27.5946 38.468
27.7784 38.3869
27.9623 38.2782
28.1462 39.131
28.3304 37.8267
28.5145 36.0311
28.6987 35.6842
28.8829 35.2199
29.0673 35.003
29.2517 34.3529
29.4361 34.0617
29.6207 33.4169
29.8053 32.92
29.99 32.6609
30.1748 32.3698
30.3597 32.4685
30.5447 32.118
30.7297 32.1677
30.915 31.9123
31.1002 31.2896
31.2855 30.9023
31.4708 30.8448
31.6563 30.7549
31.8418 30.1549
32.0275 30.0119
32.2132 29.5295
32.399 29.0105
32.5848 28.5457
32.7708 28.304
32.9569 28.0425
33.143 27.7991
33.3293 27.4056
33.5158 27.1644
33.7022 26.6794
33.8887 26.2811
34.0753 26.0827
34.262 25.6453
34.4488 25.3395
34.6357 25.0964
34.8227 24.6909
35.0098 24.4919
35.1969 24.2687
35.3842 24.0036
35.5716 23.7424
35.759 23.5224
35.9468 23.1291
36.1345 22.9335
36.3222 22.6869
36.5101 22.4744
36.6981 22.1865
36.8861 21.8327
37.0743 21.5633
37.2626 21.326
37.451 21.0161
37.6395 20.835
37.8281 20.5198
38.0168 20.2258
38.2056 19.9951
38.3945 19.7627
38.5837 19.452
38.7728 19.2506
38.9621 19.0172
39.1514 18.7184
39.3409 18.4847
39.5304 18.2675
39.7201 18.134
39.9099 17.8374
40.0999 17.6535
40.2899 17.3228
40.48 17.1216
40.6703 16.9041
40.8607 16.7333
41.0512 16.5418
41.242 16.3061
41.4327 16.1054
41.6236 15.8432
41.8146 15.7116
42.0057 15.469
42.1969 15.2051
42.3882 15.0267
42.5797 14.8476
42.7713 14.6082
42.963 14.4639
43.1549 14.2097
43.3468 13.9987
43.5389 13.8533
43.7312 13.654
43.9237 13.4824
44.1162 13.2815
44.3088 13.0693
44.5016 12.912
44.6945 12.7449
44.8875 12.5546
45.0806 12.3688
45.2739 12.1675
45.4673 12.0799
45.6609 11.8542
45.8546 11.7015
46.0484 11.5246
46.2424 11.3798
46.4365 11.2151
46.631 11.0157
46.8254 10.8285
47.0199 10.696
47.2146 10.5601
47.4095 10.3913
47.6044 10.2481
47.7996 10.0903
47.9948 9.93226
48.1902 9.78905
48.3858 9.64594
48.5815 9.52558
48.7774 9.38289
48.9734 9.26865
49.1696 9.11736
49.3661 8.93163
49.5626 8.8048
49.7592 8.69505
49.956 8.60898
50.153 8.44303
50.3501 8.32093
50.5474 8.20663
50.7448 8.07047
50.9424 7.96352
51.1402 7.82075
51.3381 7.72991
51.5362 7.58803
51.7344 7.43757
51.9328 7.30596
52.1316 7.17284
52.3304 7.08554
52.5293 6.96895
52.7284 6.84127
52.9276 6.74793
53.1271 6.63199
53.3267 6.50105
53.5265 6.40809
53.7264 6.31682
53.9266 6.16869
54.1269 6.08192
54.3274 5.94059
54.528 5.73374
54.7289 5.54329
54.9301 5.41613
55.1314 5.27448
55.3328 5.00286
55.5344 4.86239
55.7361 4.7352