File: XRD/Ni3Fe_FD0440.xy
TT I
1.27165 7.35923
1.45013 6.59384
1.62863 5.75
1.80712 5.02358
1.98562 4.51833
2.16411 4.83058
2.34263 4.83413
2.52115 5.95087
2.69965 7.84442
2.87818 8.51413
3.05672 11.0409
3.23527 15.1731
3.4138 18.9
3.59237 24.3653
3.77094 26.106
3.9495 30.4788
4.12809 35.419
4.30669 174.268
4.4853 61.6817
4.6639 56.229
4.84253 68.6094
5.02118 89.4263
5.19981 466.2
5.37848 205.893
5.55716 104.119
5.73586 94.5094
5.91455 98.3704
6.09328 4236.89
6.27201 84.3492
6.45075 68.4734
6.62952 63.3971
6.8083 59.1874
6.98711 56.2218
7.16591 55.9448
7.34475 84.1056
7.5236 55.3983
7.70247 56.9694
7.88135 58.7007
8.06026 63.601
8.23919 70.9418
8.41812 86.6991
8.59709 1219.17
8.77609 102.233
8.9551 91.6238
9.13412 83.1684
9.31318 84.0777
9.49226 85.7782
9.67134 98.01
9.85047 101.973
10.0296 393.022
10.2088 430.965
10.388 106.842
10.5672 499.127
10.7465 88.0408
10.9257 79.1481
11.105 72.7833
11.2844 70.731
11.4637 65.6727
11.6431 64.5317
11.8225 63.4068
12.002 64.9344
12.1814 153.327
12.3609 70.5123
12.5405 65.1831
12.72 70.1775
12.8996 72.418
13.0792 80.8661
13.2589 244.354
13.4386 127.525
13.6183 248.525
13.7981 98.6338
13.9779 76.8035
14.1577 73.333
14.3376 72.1669
14.5175 69.7824
14.6974 71.7065
14.8774 115.927
15.0574 152.914
15.2374 71.9479
15.4175 67.5732
15.5976 66.9381
15.7778 99.6138
15.958 158.975
16.1382 63.3895
16.3185 59.3983
16.4988 56.377
16.6792 55.5196
16.8596 56.0791
17.04 56.8389
17.2205 68.083
17.401 72.3598
17.5815 60.3067
17.7622 62.5756
17.9428 76.5471
18.1237 139.635
18.3044 91.3492
18.4852 78.652
18.666 61.4449
18.8469 58.9356
19.0278 57.7941
19.2088 60.7527
19.3898 77.0032
19.5709 55.093
19.752 54.2968
19.9332 57.4827
20.1144 70.7767
20.2957 64.455
20.477 54.5866
20.6586 50.4759
20.84 49.6594
21.0215 49.4753
21.203 51.765
21.3846 49.9416
21.5662 49.5671
21.7479 53.9049
21.9297 65.4142
22.1115 56.5356
22.2933 50.809
22.4753 49.6137
22.6572 49.8479
22.8393 52.9231
23.0214 58.3053
23.2037 49.5282
23.3859 50.7234
23.5682 57.5971
23.7505 49.0035
23.9329 45.8763
24.1154 44.801
24.2979 44.0678
24.4805 43.5912
24.6631 43.5269
24.8458 42.9711
25.0286 43.6104
25.2114 45.495
25.3943 45.2637
25.5773 41.6836
25.7605 41.102
25.9436 41.5214
26.1268 42.3394
26.31 40.7771
26.4933 41.5916
26.6767 42.8313
26.8601 41.2475
27.0437 39.5887
27.2272 39.2287
27.4109 39.1196
27.5946 39.1178
27.7784 38.5464
27.9623 38.9622
28.1462 39.5405
28.3304 37.8115
28.5145 36.5498
28.6987 36.2717
28.8829 35.9958
29.0673 35.3104
29.2517 34.908
29.4361 34.8688
29.6207 33.7278
29.8053 33.4498
29.99 33.1684
30.1748 32.9021
30.3597 32.7789
30.5447 32.7201
30.7297 32.7491
30.915 32.1826
31.1002 31.7071
31.2855 31.4964
31.4708 31.4148
31.6563 30.8237
31.8418 30.6521
32.0275 30.3903
32.2132 29.8131
32.399 29.358
32.5848 28.8784
32.7708 28.6238
32.9569 28.5479
33.143 28.2425
33.3293 27.7738
33.5158 27.5332
33.7022 27.003
33.8887 26.7714
34.0753 26.3385
34.262 26.1099
34.4488 25.7072
34.6357 25.3418
34.8227 25.0873
35.0098 24.9238
35.1969 24.6498
35.3842 24.3721
35.5716 24.2154
35.759 23.7968
35.9468 23.4982
36.1345 23.1909
36.3222 23.122
36.5101 22.8186
36.6981 22.5048
36.8861 22.1314
37.0743 21.8609
37.2626 21.594
37.451 21.3554
37.6395 21.1881
37.8281 20.8292
38.0168 20.5957
38.2056 20.2922
38.3945 20.0502
38.5837 19.7385
38.7728 19.471
38.9621 19.2782
39.1514 18.9983
39.3409 18.7896
39.5304 18.5833
39.7201 18.3601
39.9099 18.1569
40.0999 17.887
40.2899 17.6583
40.48 17.4512
40.6703 17.2106
40.8607 16.9982
41.0512 16.769
41.242 16.4818
41.4327 16.332
41.6236 16.0768
41.8146 15.9415
42.0057 15.6669
42.1969 15.4896
42.3882 15.3339
42.5797 15.0627
42.7713 14.8703
42.963 14.638
43.1549 14.4398
43.3468 14.2073
43.5389 13.9975
43.7312 13.8586
43.9237 13.6787
44.1162 13.4944
44.3088 13.3383
44.5016 13.113
44.6945 12.933
44.8875 12.6914
45.0806 12.5438
45.2739 12.4193
45.4673 12.1905
45.6609 12.0243
45.8546 11.9042
46.0484 11.711
46.2424 11.5286
46.4365 11.4039
46.631 11.1958
46.8254 11.0361
47.0199 10.8448
47.2146 10.7453
47.4095 10.5672
47.6044 10.3761
47.7996 10.2469
47.9948 10.065
48.1902 9.96298
48.3858 9.77748
48.5815 9.70774
48.7774 9.53541
48.9734 9.39995
49.1696 9.2665
49.3661 9.11303
49.5626 8.96189
49.7592 8.84695
49.956 8.69234
50.153 8.60334
50.3501 8.40367
50.5474 8.32687
50.7448 8.16511
50.9424 8.04747
51.1402 7.95526
51.3381 7.77357
51.5362 7.66452
51.7344 7.52179
51.9328 7.43327
52.1316 7.30261
52.3304 7.188
52.5293 7.06741
52.7284 6.96045
52.9276 6.81719
53.1271 6.71653
53.3267 6.59437
53.5265 6.47071
53.7264 6.35512
53.9266 6.2787
54.1269 6.11658
54.3274 6.03514
54.528 5.92215
54.7289 5.71112
54.9301 5.56533
55.1314 5.40137
55.3328 5.19501
55.5344 5.04345
55.7361 4.86778