File: XRD/Ni3Fe_FD0891.xy
TT I
1.27165 6.99902
1.45013 6.04896
1.62863 4.90584
1.80712 5.02722
1.98562 4.7327
2.16411 4.78096
2.34263 5.49367
2.52115 7.15325
2.69965 8.99283
2.87818 8.99886
3.05672 11.005
3.23527 15.3549
3.4138 19.2457
3.59237 24.1929
3.77094 25.894
3.9495 29.5523
4.12809 34.1113
4.30669 216.735
4.4853 64.6873
4.6639 54.3122
4.84253 65.847
5.02118 84.6527
5.19981 289.121
5.37848 170.062
5.55716 99.0892
5.73586 90.1459
5.91455 90.7406
6.09328 4512.01
6.27201 80.0827
6.45075 65.7404
6.62952 61.462
6.8083 57.3707
6.98711 54.4747
7.16591 54.5802
7.34475 90.8241
7.5236 54.0425
7.70247 55.3718
7.88135 56.7198
8.06026 60.8426
8.23919 68.1599
8.41812 83.1113
8.59709 1158.0
8.77609 96.0913
8.9551 89.639
9.13412 80.3832
9.31318 80.9394
9.49226 82.9956
9.67134 96.5877
9.85047 97.1555
10.0296 303.37
10.2088 357.857
10.388 101.952
10.5672 534.517
10.7465 84.31
10.9257 76.9312
11.105 70.217
11.2844 69.1146
11.4637 63.9039
11.6431 62.2903
11.8225 61.0165
12.002 62.2474
12.1814 155.937
12.3609 68.8062
12.5405 63.1742
12.72 68.6453
12.8996 69.4877
13.0792 76.7999
13.2589 230.549
13.4386 115.16
13.6183 247.139
13.7981 92.0648
13.9779 74.0979
14.1577 71.0466
14.3376 70.0487
14.5175 67.4348
14.6974 68.9198
14.8774 105.872
15.0574 138.908
15.2374 69.5287
15.4175 64.8918
15.5976 64.5861
15.7778 90.4527
15.958 151.186
16.1382 61.5186
16.3185 57.4494
16.4988 54.2935
16.6792 53.5907
16.8596 54.3938
17.04 54.4902
17.2205 65.0694
17.401 68.5716
17.5815 57.9138
17.7622 60.1391
17.9428 70.7957
18.1237 140.788
18.3044 89.2966
18.4852 73.9411
18.666 59.245
18.8469 56.9422
19.0278 55.8175
19.2088 58.0909
19.3898 76.2894
19.5709 52.9663
19.752 52.3506
19.9332 55.0064
20.1144 69.3802
20.2957 63.895
20.477 52.2671
20.6586 48.8961
20.84 48.1274
21.0215 47.7169
21.203 50.079
21.3846 47.821
21.5662 47.7092
21.7479 51.3245
21.9297 64.3332
22.1115 55.3123
22.2933 48.9142
22.4753 47.87
22.6572 47.7455
22.8393 50.834
23.0214 56.6407
23.2037 47.7896
23.3859 48.5879
23.5682 56.9749
23.7505 47.258
23.9329 44.4488
24.1154 43.2631
24.2979 42.5295
24.4805 42.2393
24.6631 41.9818
24.8458 41.588
25.0286 41.9951
25.2114 43.8785
25.3943 43.9647
25.5773 40.1786
25.7605 39.6081
25.9436 40.0962
26.1268 40.8611
26.31 39.2509
26.4933 40.1218
26.6767 41.4398
26.8601 39.6642
27.0437 38.2224
27.2272 37.8474
27.4109 37.7151
27.5946 37.7175
27.7784 37.1761
27.9623 37.812
28.1462 38.1211
28.3304 36.4913
28.5145 35.2302
28.6987 35.0222
28.8829 34.9083
29.0673 34.035
29.2517 33.7613
29.4361 33.6802
29.6207 32.5187
29.8053 32.2867
29.99 31.904
30.1748 31.8782
30.3597 31.7202
30.5447 31.6394
30.7297 31.7255
30.915 31.0749
31.1002 30.5666
31.2855 30.3181
31.4708 30.3113
31.6563 29.825
31.8418 29.5296
32.0275 29.3715
32.2132 28.8318
32.399 28.4514
32.5848 27.997
32.7708 27.6747
32.9569 27.519
33.143 27.3726
33.3293 26.9382
33.5158 26.5595
33.7022 26.1637
33.8887 25.7721
34.0753 25.6524
34.262 25.1902
34.4488 24.8413
34.6357 24.5598
34.8227 24.2927
35.0098 24.099
35.1969 23.809
35.3842 23.6212
35.5716 23.4154
35.759 22.9631
35.9468 22.7253
36.1345 22.5247
36.3222 22.172
36.5101 22.0491
36.6981 21.6802
36.8861 21.4667
37.0743 21.1632
37.2626 20.8974
37.451 20.6716
37.6395 20.4441
37.8281 20.138
38.0168 19.8982
38.2056 19.6286
38.3945 19.3443
38.5837 19.1376
38.7728 18.9523
38.9621 18.624
39.1514 18.3853
39.3409 18.1223
39.5304 17.972
39.7201 17.7682
39.9099 17.6137
40.0999 17.3287
40.2899 17.1656
40.48 16.8138
40.6703 16.6658
40.8607 16.4852
41.0512 16.2704
41.242 16.0233
41.4327 15.7751
41.6236 15.5693
41.8146 15.3749
42.0057 15.2158
42.1969 14.9854
42.3882 14.8193
42.5797 14.5809
42.7713 14.4133
42.963 14.2321
43.1549 14.0306
43.3468 13.8149
43.5389 13.6457
43.7312 13.4095
43.9237 13.2691
44.1162 13.0874
44.3088 12.8599
44.5016 12.6726
44.6945 12.5393
44.8875 12.3413
45.0806 12.1965
45.2739 11.9938
45.4673 11.8478
45.6609 11.6346
45.8546 11.5268
46.0484 11.3396
46.2424 11.1717
46.4365 11.025
46.631 10.8818
46.8254 10.6935
47.0199 10.5424
47.2146 10.37
47.4095 10.2377
47.6044 10.0663
47.7996 9.93948
47.9948 9.79314
48.1902 9.6435
48.3858 9.53204
48.5815 9.35899
48.7774 9.23506
48.9734 9.14623
49.1696 8.97385
49.3661 8.79667
49.5626 8.6792
49.7592 8.54009
49.956 8.44126
50.153 8.32125
50.3501 8.16919
50.5474 8.01685
50.7448 7.90244
50.9424 7.8378
51.1402 7.68461
51.3381 7.55906
51.5362 7.42792
51.7344 7.29706
51.9328 7.17574
52.1316 7.08382
52.3304 7.00961
52.5293 6.85711
52.7284 6.75634
52.9276 6.60041
53.1271 6.53742
53.3267 6.38732
53.5265 6.29981
53.7264 6.15026
53.9266 6.06808
54.1269 5.98102
54.3274 5.84364
54.528 5.71729
54.7289 5.54458
54.9301 5.38774
55.1314 5.25859
55.3328 5.06486
55.5344 4.88863
55.7361 4.72197