File: XRD/Ni3Fe_FD0806.xy
TT I
1.27165 7.63796
1.45013 6.52024
1.62863 5.47984
1.80712 5.13022
1.98562 4.57155
2.16411 4.57349
2.34263 5.48036
2.52115 6.83544
2.69965 9.15554
2.87818 8.62078
3.05672 11.2855
3.23527 14.7881
3.4138 18.6947
3.59237 22.9994
3.77094 25.6678
3.9495 29.3254
4.12809 34.2755
4.30669 117.551
4.4853 55.5208
4.6639 55.1625
4.84253 67.9818
5.02118 86.888
5.19981 392.712
5.37848 186.971
5.55716 101.451
5.73586 92.549
5.91455 94.6856
6.09328 4539.56
6.27201 79.7739
6.45075 68.5949
6.62952 62.3973
6.8083 58.6079
6.98711 55.3472
7.16591 55.4507
7.34475 70.557
7.5236 53.9474
7.70247 56.3009
7.88135 57.2579
8.06026 62.0062
8.23919 68.9149
8.41812 83.682
8.59709 1212.38
8.77609 96.6703
8.9551 89.1733
9.13412 82.1804
9.31318 83.7051
9.49226 84.2571
9.67134 94.6658
9.85047 100.457
10.0296 346.338
10.2088 346.329
10.388 104.184
10.5672 536.104
10.7465 85.6703
10.9257 77.3053
11.105 70.5648
11.2844 68.1371
11.4637 64.3686
11.6431 62.7629
11.8225 62.136
12.002 63.83
12.1814 158.271
12.3609 66.5706
12.5405 64.4365
12.72 68.1361
12.8996 70.6346
13.0792 79.525
13.2589 248.499
13.4386 117.978
13.6183 259.082
13.7981 92.8758
13.9779 75.0791
14.1577 71.2897
14.3376 69.735
14.5175 68.1803
14.6974 69.9292
14.8774 111.993
15.0574 139.035
15.2374 69.3284
15.4175 65.9715
15.5976 65.3681
15.7778 95.4382
15.958 145.978
16.1382 60.9961
16.3185 57.4063
16.4988 54.9214
16.6792 53.8764
16.8596 54.4971
17.04 55.4327
17.2205 66.8728
17.401 68.3561
17.5815 58.645
17.7622 60.864
17.9428 73.288
18.1237 141.09
18.3044 91.7077
18.4852 74.1642
18.666 59.7553
18.8469 57.4454
19.0278 56.2574
19.2088 58.7719
19.3898 75.5728
19.5709 53.5851
19.752 53.002
19.9332 55.7386
20.1144 69.5189
20.2957 63.9975
20.477 52.6583
20.6586 49.1484
20.84 48.4127
21.0215 47.9357
21.203 50.5729
21.3846 48.3732
21.5662 48.4652
21.7479 52.4407
21.9297 64.3241
22.1115 55.9114
22.2933 49.2427
22.4753 48.1918
22.6572 48.6474
22.8393 51.6925
23.0214 56.6146
23.2037 48.3928
23.3859 49.3624
23.5682 57.114
23.7505 47.431
23.9329 44.7662
24.1154 43.6424
24.2979 42.9229
24.4805 42.5468
24.6631 42.4782
24.8458 41.8132
25.0286 42.5275
25.2114 44.2011
25.3943 43.9587
25.5773 40.5093
25.7605 39.9871
25.9436 40.4501
26.1268 41.2939
26.31 39.7041
26.4933 40.4417
26.6767 41.7284
26.8601 40.0844
27.0437 38.4598
27.2272 38.3203
27.4109 37.97
27.5946 37.9897
27.7784 37.4647
27.9623 38.068
28.1462 38.3445
28.3304 36.7162
28.5145 35.5155
28.6987 35.281
28.8829 35.1514
29.0673 34.3546
29.2517 34.0136
29.4361 33.7699
29.6207 32.8385
29.8053 32.5675
29.99 32.1938
30.1748 32.1676
30.3597 31.7937
30.5447 31.942
30.7297 31.8473
30.915 31.2495
31.1002 30.8804
31.2855 30.5528
31.4708 30.5739
31.6563 30.0058
31.8418 29.9102
32.0275 29.5662
32.2132 29.0625
32.399 28.6132
32.5848 28.3008
32.7708 27.8
32.9569 27.7078
33.143 27.5247
33.3293 27.131
33.5158 26.8405
33.7022 26.3688
33.8887 26.0443
34.0753 25.6558
34.262 25.4188
34.4488 25.0692
34.6357 24.6467
34.8227 24.4124
35.0098 24.2687
35.1969 23.909
35.3842 23.8631
35.5716 23.5724
35.759 23.3066
35.9468 22.8635
36.1345 22.7122
36.3222 22.4356
36.5101 22.2189
36.6981 21.9519
36.8861 21.648
37.0743 21.3113
37.2626 21.036
37.451 20.6685
37.6395 20.6148
37.8281 20.3103
38.0168 19.9489
38.2056 19.735
38.3945 19.4278
38.5837 19.2199
38.7728 19.0169
38.9621 18.7131
39.1514 18.5614
39.3409 18.3124
39.5304 18.0524
39.7201 17.8999
39.9099 17.6547
40.0999 17.444
40.2899 17.1981
40.48 16.9501
40.6703 16.7279
40.8607 16.5845
41.0512 16.3478
41.242 16.0923
41.4327 15.8817
41.6236 15.6944
41.8146 15.5656
42.0057 15.2897
42.1969 15.1001
42.3882 14.8803
42.5797 14.6748
42.7713 14.4965
42.963 14.241
43.1549 14.0544
43.3468 13.8796
43.5389 13.6837
43.7312 13.5184
43.9237 13.293
44.1162 13.1074
44.3088 12.9229
44.5016 12.762
44.6945 12.5985
44.8875 12.4223
45.0806 12.2549
45.2739 12.0539
45.4673 11.93
45.6609 11.7206
45.8546 11.5682
46.0484 11.4323
46.2424 11.2585
46.4365 11.1346
46.631 10.8971
46.8254 10.7372
47.0199 10.6133
47.2146 10.457
47.4095 10.2698
47.6044 10.1523
47.7996 9.985
47.9948 9.84633
48.1902 9.68776
48.3858 9.51485
48.5815 9.43199
48.7774 9.31085
48.9734 9.13971
49.1696 9.00953
49.3661 8.85961
49.5626 8.69552
49.7592 8.63461
49.956 8.4644
50.153 8.32466
50.3501 8.2397
50.5474 8.0707
50.7448 7.96621
50.9424 7.86691
51.1402 7.71563
51.3381 7.60106
51.5362 7.50403
51.7344 7.34247
51.9328 7.23284
52.1316 7.10329
52.3304 6.98513
52.5293 6.87725
52.7284 6.75876
52.9276 6.65987
53.1271 6.5449
53.3267 6.39984
53.5265 6.33697
53.7264 6.22623
53.9266 6.0993
54.1269 5.99631
54.3274 5.88071
54.528 5.74265
54.7289 5.58215
54.9301 5.42319
55.1314 5.22683
55.3328 5.09965
55.5344 4.88457
55.7361 4.72457