File: XRD/Ni3Fe_FD0245.xy
TT I
1.27165 8.40485
1.45013 6.45773
1.62863 5.27052
1.80712 5.11901
1.98562 4.97364
2.16411 4.99891
2.34263 4.06522
2.52115 5.32158
2.69965 6.73961
2.87818 8.23319
3.05672 11.1459
3.23527 15.1107
3.4138 19.0219
3.59237 22.3951
3.77094 26.028
3.9495 30.4384
4.12809 34.6573
4.30669 40.3621
4.4853 48.3641
4.6639 58.0098
4.84253 71.5723
5.02118 96.2085
5.19981 894.276
5.37848 265.65
5.55716 111.632
5.73586 100.937
5.91455 109.674
6.09328 3733.58
6.27201 88.3122
6.45075 70.9603
6.62952 64.1356
6.8083 60.075
6.98711 57.5811
7.16591 56.6057
7.34475 55.5728
7.5236 55.9058
7.70247 57.9958
7.88135 60.364
8.06026 65.1181
8.23919 72.9803
8.41812 90.4951
8.59709 1084.36
8.77609 109.924
8.9551 90.8162
9.13412 87.2282
9.31318 87.9114
9.49226 89.6431
9.67134 95.7537
9.85047 106.673
10.0296 512.701
10.2088 532.437
10.388 115.128
10.5672 451.895
10.7465 92.2673
10.9257 80.7771
11.105 74.5309
11.2844 70.6457
11.4637 67.7664
11.6431 66.1169
11.8225 65.0505
12.002 68.5965
12.1814 141.914
12.3609 69.776
12.5405 67.2376
12.72 69.4136
12.8996 74.6418
13.0792 86.6557
13.2589 232.144
13.4386 147.546
13.6183 228.775
13.7981 109.039
13.9779 79.8575
14.1577 75.1874
14.3376 72.9006
14.5175 72.4142
14.6974 74.7311
14.8774 120.213
15.0574 167.372
15.2374 72.1668
15.4175 69.8577
15.5976 69.6943
15.7778 103.918
15.958 170.814
16.1382 63.7593
16.3185 60.1481
16.4988 57.9634
16.6792 56.792
16.8596 57.4363
17.04 59.1817
17.2205 69.0084
17.401 76.7643
17.5815 62.1116
17.7622 64.2937
17.9428 82.4163
18.1237 139.547
18.3044 90.2899
18.4852 82.8361
18.666 63.3642
18.8469 60.7524
19.0278 59.7596
19.2088 62.8355
19.3898 76.7143
19.5709 56.7904
19.752 55.8692
19.9332 59.3793
20.1144 72.6699
20.2957 64.5668
20.477 56.3698
20.6586 51.8305
20.84 51.2151
21.0215 51.1027
21.203 52.5365
21.3846 51.5489
21.5662 51.7474
21.7479 55.5146
21.9297 66.7292
22.1115 57.6303
22.2933 52.3866
22.4753 50.7671
22.6572 51.7423
22.8393 54.2156
23.0214 59.9843
23.2037 51.4594
23.3859 52.5055
23.5682 57.5615
23.7505 50.9208
23.9329 47.2552
24.1154 46.0097
24.2979 45.3703
24.4805 44.7823
24.6631 44.7418
24.8458 44.3218
25.0286 44.9462
25.2114 46.4644
25.3943 46.6241
25.5773 42.8667
25.7605 42.479
25.9436 42.5373
26.1268 43.5074
26.31 41.9924
26.4933 42.4174
26.6767 43.851
26.8601 42.2071
27.0437 40.6974
27.2272 40.1979
27.4109 40.0613
27.5946 40.1431
27.7784 39.6002
27.9623 39.938
28.1462 40.468
28.3304 38.8112
28.5145 37.471
28.6987 37.1755
28.8829 36.8056
29.0673 36.2299
29.2517 35.6532
29.4361 35.6428
29.6207 34.6123
29.8053 34.2774
29.99 34.0022
30.1748 33.8163
30.3597 33.7161
30.5447 33.5981
30.7297 33.6062
30.915 33.0127
31.1002 32.5944
31.2855 32.2089
31.4708 32.0558
31.6563 31.7927
31.8418 31.48
32.0275 31.1626
32.2132 30.6977
32.399 30.1658
32.5848 29.7244
32.7708 29.3454
32.9569 29.2415
33.143 29.0226
33.3293 28.6224
33.5158 28.227
33.7022 27.7825
33.8887 27.422
34.0753 27.0985
34.262 26.7772
34.4488 26.3223
34.6357 26.1068
34.8227 25.8203
35.0098 25.6017
35.1969 25.2673
35.3842 25.0087
35.5716 24.8018
35.759 24.5574
35.9468 24.1281
36.1345 23.9069
36.3222 23.6533
36.5101 23.4074
36.6981 23.0439
36.8861 22.7271
37.0743 22.4656
37.2626 22.176
37.451 21.8806
37.6395 21.7175
37.8281 21.3796
38.0168 21.0976
38.2056 20.7967
38.3945 20.5409
38.5837 20.2968
38.7728 20.0629
38.9621 19.838
39.1514 19.4691
39.3409 19.2395
39.5304 19.0531
39.7201 18.802
39.9099 18.6308
40.0999 18.3108
40.2899 18.0741
40.48 17.8536
40.6703 17.6601
40.8607 17.495
41.0512 17.2278
41.242 16.9155
41.4327 16.7359
41.6236 16.4695
41.8146 16.2998
42.0057 16.0833
42.1969 15.8581
42.3882 15.6394
42.5797 15.4227
42.7713 15.2876
42.963 15.0213
43.1549 14.8409
43.3468 14.6287
43.5389 14.4368
43.7312 14.2034
43.9237 14.038
44.1162 13.8447
44.3088 13.6169
44.5016 13.4081
44.6945 13.2554
44.8875 13.0509
45.0806 12.8583
45.2739 12.7085
45.4673 12.5522
45.6609 12.3141
45.8546 12.1682
46.0484 12.0082
46.2424 11.8016
46.4365 11.7052
46.631 11.5013
46.8254 11.2754
47.0199 11.1461
47.2146 10.9676
47.4095 10.8002
47.6044 10.5956
47.7996 10.4933
47.9948 10.3314
48.1902 10.2025
48.3858 10.0644
48.5815 9.90726
48.7774 9.7689
48.9734 9.62518
49.1696 9.48681
49.3661 9.30206
49.5626 9.16902
49.7592 9.03608
49.956 8.92897
50.153 8.75608
50.3501 8.61975
50.5474 8.47937
50.7448 8.33571
50.9424 8.24298
51.1402 8.13082
51.3381 7.97778
51.5362 7.81671
51.7344 7.76486
51.9328 7.56629
52.1316 7.43402
52.3304 7.36352
52.5293 7.22362
52.7284 7.11724
52.9276 7.0329
53.1271 6.89666
53.3267 6.71208
53.5265 6.60768
53.7264 6.49684
53.9266 6.43075
54.1269 6.29842
54.3274 6.17235
54.528 6.02297
54.7289 5.81498
54.9301 5.6673
55.1314 5.55429
55.3328 5.30398
55.5344 5.13408
55.7361 4.98065