File: XRD/Ni3Fe_FD0171.xy
TT I
1.27165 7.99953
1.45013 6.90263
1.62863 5.74422
1.80712 5.5433
1.98562 4.92017
2.16411 4.59866
2.34263 4.27496
2.52115 4.406
2.69965 5.66266
2.87818 8.62757
3.05672 11.3561
3.23527 15.1481
3.4138 18.9176
3.59237 22.0585
3.77094 25.3292
3.9495 28.7351
4.12809 32.8803
4.30669 38.2573
4.4853 45.2158
4.6639 54.5418
4.84253 67.3212
5.02118 91.5099
5.19981 539.792
5.37848 409.048
5.55716 108.046
5.73586 96.5672
5.91455 105.536
6.09328 2872.68
6.27201 88.9621
6.45075 66.6808
6.62952 60.0785
6.8083 56.1864
6.98711 53.7003
7.16591 52.9077
7.34475 52.6776
7.5236 56.1988
7.70247 54.5443
7.88135 56.7989
8.06026 61.1916
8.23919 68.7857
8.41812 84.491
8.59709 911.364
8.77609 115.38
8.9551 86.0577
9.13412 81.8123
9.31318 86.4478
9.49226 84.2477
9.67134 89.1303
9.85047 99.7907
10.0296 542.3
10.2088 934.445
10.388 104.915
10.5672 346.298
10.7465 90.739
10.9257 76.177
11.105 70.9508
11.2844 66.9537
11.4637 63.9849
11.6431 62.7528
11.8225 61.4536
12.002 65.5624
12.1814 120.994
12.3609 74.5095
12.5405 63.4809
12.72 65.8516
12.8996 70.3911
13.0792 79.4807
13.2589 209.424
13.4386 201.505
13.6183 198.277
13.7981 147.134
13.9779 76.3224
14.1577 74.5336
14.3376 69.378
14.5175 68.905
14.6974 70.3953
14.8774 121.695
15.0574 203.807
15.2374 69.7079
15.4175 66.6302
15.5976 65.9589
15.7778 107.444
15.958 186.129
16.1382 62.0499
16.3185 57.6747
16.4988 55.4798
16.6792 54.4292
16.8596 54.7902
17.04 55.7314
17.2205 65.941
17.401 81.001
17.5815 59.6358
17.7622 61.757
17.9428 84.0487
18.1237 117.81
18.3044 88.5047
18.4852 94.4674
18.666 61.2277
18.8469 58.646
19.0278 57.1668
19.2088 62.0953
19.3898 70.0614
19.5709 56.4129
19.752 53.6117
19.9332 58.5694
20.1144 67.9307
20.2957 61.839
20.477 58.8675
20.6586 50.2452
20.84 49.1895
21.0215 49.3616
21.203 50.2384
21.3846 50.7859
21.5662 49.3912
21.7479 54.4389
21.9297 62.8565
22.1115 56.6682
22.2933 52.6048
22.4753 49.1932
22.6572 49.5537
22.8393 52.3727
23.0214 57.6379
23.2037 50.2268
23.3859 52.051
23.5682 54.3226
23.7505 53.0344
23.9329 45.9539
24.1154 44.8168
24.2979 43.9818
24.4805 43.5221
24.6631 43.4374
24.8458 42.7808
25.0286 43.4772
25.2114 45.1512
25.3943 45.1871
25.5773 42.0135
25.7605 41.1178
25.9436 41.4535
26.1268 41.9247
26.31 41.1865
26.4933 41.1794
26.6767 42.4039
26.8601 41.4741
27.0437 39.7716
27.2272 39.2592
27.4109 38.9159
27.5946 39.0889
27.7784 38.7974
27.9623 38.7362
28.1462 39.7717
28.3304 38.409
28.5145 36.5554
28.6987 36.2355
28.8829 35.8043
29.0673 35.4589
29.2517 34.7683
29.4361 34.4896
29.6207 33.8664
29.8053 33.3456
29.99 33.0072
30.1748 32.9054
30.3597 32.8932
30.5447 32.6529
30.7297 32.7043
30.915 32.2329
31.1002 31.7525
31.2855 31.4517
31.4708 31.1697
31.6563 31.2101
31.8418 30.5951
32.0275 30.4553
32.2132 29.9137
32.399 29.4602
32.5848 28.8357
32.7708 28.661
32.9569 28.4998
33.143 28.2263
33.3293 27.8055
33.5158 27.5873
33.7022 27.0617
33.8887 26.65
34.0753 26.3635
34.262 25.9967
34.4488 25.7188
34.6357 25.2905
34.8227 25.0498
35.0098 24.905
35.1969 24.5195
35.3842 24.3374
35.5716 24.1318
35.759 23.835
35.9468 23.4638
36.1345 23.1642
36.3222 23.0042
36.5101 22.7683
36.6981 22.4768
36.8861 22.1409
37.0743 21.7936
37.2626 21.5632
37.451 21.2653
37.6395 21.1845
37.8281 20.7681
38.0168 20.5334
38.2056 20.2512
38.3945 19.9488
38.5837 19.7434
38.7728 19.4963
38.9621 19.3276
39.1514 18.9541
39.3409 18.7422
39.5304 18.5582
39.7201 18.2767
39.9099 18.1505
40.0999 17.8977
40.2899 17.6194
40.48 17.3515
40.6703 17.1843
40.8607 16.9894
41.0512 16.7358
41.242 16.5065
41.4327 16.3393
41.6236 16.0754
41.8146 15.8925
42.0057 15.6692
42.1969 15.4214
42.3882 15.2429
42.5797 15.0767
42.7713 14.8414
42.963 14.6729
43.1549 14.4095
43.3468 14.263
43.5389 14.0858
43.7312 13.8624
43.9237 13.6679
44.1162 13.489
44.3088 13.2743
44.5016 13.0691
44.6945 12.9165
44.8875 12.718
45.0806 12.5402
45.2739 12.3955
45.4673 12.2242
45.6609 12.0396
45.8546 11.8857
46.0484 11.7155
46.2424 11.5434
46.4365 11.3631
46.631 11.1494
46.8254 11.0012
47.0199 10.8829
47.2146 10.6915
47.4095 10.5077
47.6044 10.3806
47.7996 10.2527
47.9948 10.0759
48.1902 9.939
48.3858 9.80823
48.5815 9.66839
48.7774 9.55527
48.9734 9.37572
49.1696 9.26307
49.3661 9.0823
49.5626 8.95765
49.7592 8.83332
49.956 8.73663
50.153 8.55954
50.3501 8.38132
50.5474 8.29062
50.7448 8.16945
50.9424 8.04074
51.1402 7.90899
51.3381 7.77048
51.5362 7.6668
51.7344 7.54325
51.9328 7.40732
52.1316 7.25344
52.3304 7.19775
52.5293 7.06067
52.7284 6.94717
52.9276 6.80736
53.1271 6.74176
53.3267 6.60725
53.5265 6.46734
53.7264 6.42141
53.9266 6.26011
54.1269 6.09149
54.3274 6.03649
54.528 5.84295
54.7289 5.70555
54.9301 5.52619
55.1314 5.37435
55.3328 5.13654
55.5344 4.95185
55.7361 4.74713