File: XRD/Ni3Fe_FD0799.xy
TT I
1.27165 7.25306
1.45013 5.80132
1.62863 5.0403
1.80712 5.20901
1.98562 4.47411
2.16411 4.96104
2.34263 5.81036
2.52115 6.5562
2.69965 8.15474
2.87818 8.07512
3.05672 10.8149
3.23527 15.2019
3.4138 18.5358
3.59237 23.2661
3.77094 26.0437
3.9495 29.7778
4.12809 34.3281
4.30669 130.092
4.4853 56.7184
4.6639 55.0268
4.84253 67.5979
5.02118 86.6908
5.19981 379.514
5.37848 182.573
5.55716 101.328
5.73586 91.6038
5.91455 93.8323
6.09328 4576.61
6.27201 80.2595
6.45075 67.9484
6.62952 62.0371
6.8083 58.4707
6.98711 55.0762
7.16591 54.7246
7.34475 73.2334
7.5236 53.9472
7.70247 55.8717
7.88135 57.1703
8.06026 61.9452
8.23919 68.622
8.41812 83.7045
8.59709 1212.53
8.77609 96.5714
8.9551 88.7166
9.13412 81.8668
9.31318 82.9867
9.49226 84.0507
9.67134 95.4485
9.85047 99.5864
10.0296 344.382
10.2088 338.71
10.388 103.938
10.5672 540.944
10.7465 85.4507
10.9257 77.0232
11.105 70.7049
11.2844 68.1824
11.4637 64.0192
11.6431 62.7791
11.8225 61.8823
12.002 63.5203
12.1814 157.446
12.3609 66.9399
12.5405 64.1803
12.72 67.617
12.8996 70.7396
13.0792 79.314
13.2589 247.867
13.4386 116.275
13.6183 257.534
13.7981 92.4721
13.9779 75.1675
14.1577 71.3143
14.3376 69.7527
14.5175 68.1226
14.6974 69.8083
14.8774 111.285
15.0574 140.547
15.2374 69.2617
15.4175 65.9193
15.5976 65.1565
15.7778 95.0588
15.958 145.251
16.1382 61.102
16.3185 57.3137
16.4988 54.7893
16.6792 53.8185
16.8596 54.384
17.04 55.5018
17.2205 66.8296
17.401 68.6667
17.5815 58.5936
17.7622 60.6362
17.9428 73.1077
18.1237 141.138
18.3044 91.2731
18.4852 73.841
18.666 59.5344
18.8469 57.3012
19.0278 56.234
19.2088 58.7667
19.3898 75.6656
19.5709 53.4178
19.752 52.7148
19.9332 55.839
20.1144 69.7591
20.2957 64.0187
20.477 52.2764
20.6586 49.1845
20.84 48.3364
21.0215 48.0754
21.203 50.5475
21.3846 48.1971
21.5662 48.4229
21.7479 52.2452
21.9297 64.2367
22.1115 55.8447
22.2933 49.0353
22.4753 48.2232
22.6572 48.3268
22.8393 51.5803
23.0214 56.3988
23.2037 48.2367
23.3859 49.2833
23.5682 57.0617
23.7505 47.3969
23.9329 44.5499
24.1154 43.7063
24.2979 42.9793
24.4805 42.4218
24.6631 42.381
24.8458 41.8754
25.0286 42.4907
25.2114 44.224
25.3943 44.1635
25.5773 40.5016
25.7605 39.9957
25.9436 40.4946
26.1268 41.1866
26.31 39.5689
26.4933 40.3336
26.6767 41.8324
26.8601 40.052
27.0437 38.4415
27.2272 38.1239
27.4109 37.9439
27.5946 38.1127
27.7784 37.4107
27.9623 38.0771
28.1462 38.3884
28.3304 36.7306
28.5145 35.6599
28.6987 35.2501
28.8829 35.0664
29.0673 34.232
29.2517 33.9878
29.4361 33.7963
29.6207 32.8165
29.8053 32.6228
29.99 32.1962
30.1748 32.149
30.3597 31.8864
30.5447 31.9122
30.7297 31.9086
30.915 31.1974
31.1002 30.6932
31.2855 30.6143
31.4708 30.5513
31.6563 29.9843
31.8418 29.837
32.0275 29.6837
32.2132 29.0484
32.399 28.602
32.5848 28.1592
32.7708 27.8598
32.9569 27.6856
33.143 27.4708
33.3293 27.184
33.5158 26.7491
33.7022 26.3581
33.8887 26.1091
34.0753 25.7236
34.262 25.3391
34.4488 25.0408
34.6357 24.6612
34.8227 24.437
35.0098 24.2406
35.1969 23.9337
35.3842 23.6771
35.5716 23.5279
35.759 23.2101
35.9468 22.8345
36.1345 22.6985
36.3222 22.3942
36.5101 22.2242
36.6981 21.9549
36.8861 21.5492
37.0743 21.2777
37.2626 21.047
37.451 20.7589
37.6395 20.6214
37.8281 20.2833
38.0168 19.9889
38.2056 19.6928
38.3945 19.4966
38.5837 19.2221
38.7728 19.0257
38.9621 18.7648
39.1514 18.5387
39.3409 18.2987
39.5304 18.0825
39.7201 17.9102
39.9099 17.6562
40.0999 17.3855
40.2899 17.1817
40.48 16.9677
40.6703 16.7203
40.8607 16.5393
41.0512 16.3124
41.242 16.0717
41.4327 15.8716
41.6236 15.6498
41.8146 15.5154
42.0057 15.2178
42.1969 15.0439
42.3882 14.8859
42.5797 14.6335
42.7713 14.4456
42.963 14.2947
43.1549 14.0546
43.3468 13.8685
43.5389 13.7133
43.7312 13.4868
43.9237 13.3342
44.1162 13.1639
44.3088 12.9844
44.5016 12.7191
44.6945 12.5802
44.8875 12.4169
45.0806 12.2365
45.2739 12.0647
45.4673 11.8897
45.6609 11.7225
45.8546 11.6129
46.0484 11.4
46.2424 11.2631
46.4365 11.0384
46.631 10.9318
46.8254 10.7472
47.0199 10.5478
47.2146 10.4394
47.4095 10.2473
47.6044 10.1108
47.7996 9.96555
47.9948 9.83639
48.1902 9.69305
48.3858 9.56222
48.5815 9.43137
48.7774 9.30285
48.9734 9.15309
49.1696 9.00202
49.3661 8.88208
49.5626 8.71837
49.7592 8.64269
49.956 8.47199
50.153 8.3642
50.3501 8.20508
50.5474 8.09689
50.7448 7.96501
50.9424 7.83565
51.1402 7.71556
51.3381 7.54544
51.5362 7.46239
51.7344 7.31976
51.9328 7.19184
52.1316 7.09148
52.3304 6.97556
52.5293 6.88312
52.7284 6.76542
52.9276 6.63389
53.1271 6.54817
53.3267 6.38994
53.5265 6.31289
53.7264 6.20833
53.9266 6.09218
54.1269 5.9719
54.3274 5.87893
54.528 5.73485
54.7289 5.58562
54.9301 5.40874
55.1314 5.25804
55.3328 5.06362
55.5344 4.91615
55.7361 4.75332