File: XRD/Ni3Fe_FD1080.xy
TT I
1.27165 7.37816
1.45013 6.1143
1.62863 4.77847
1.80712 4.29689
1.98562 4.23716
2.16411 4.12074
2.34263 5.02772
2.52115 7.62246
2.69965 8.64807
2.87818 8.81596
3.05672 11.029
3.23527 14.8939
3.4138 18.1476
3.59237 21.1185
3.77094 24.4749
3.9495 28.1142
4.12809 32.2601
4.30669 56.4583
4.4853 46.5565
4.6639 52.5098
4.84253 63.9449
5.02118 83.4009
5.19981 233.354
5.37848 203.504
5.55716 98.08
5.73586 87.8173
5.91455 89.0515
6.09328 4455.93
6.27201 75.9253
6.45075 63.5448
6.62952 58.2566
6.8083 54.7583
6.98711 52.6795
7.16591 51.6727
7.34475 56.0156
7.5236 57.9622
7.70247 53.1983
7.88135 55.2767
8.06026 59.1099
8.23919 65.8224
8.41812 78.1327
8.59709 1119.93
8.77609 95.0415
8.9551 82.591
9.13412 79.1126
9.31318 87.9118
9.49226 81.1192
9.67134 86.9382
9.85047 94.6007
10.0296 355.296
10.2088 438.783
10.388 98.1288
10.5672 515.672
10.7465 86.122
10.9257 73.6202
11.105 68.4447
11.2844 65.0114
11.4637 61.9399
11.6431 60.6186
11.8225 59.9411
12.002 65.9452
12.1814 147.534
12.3609 64.7077
12.5405 61.5169
12.72 64.1689
12.8996 68.1297
13.0792 76.6753
13.2589 231.912
13.4386 125.277
13.6183 238.441
13.7981 99.8707
13.9779 73.5362
14.1577 74.6463
14.3376 67.294
14.5175 66.5824
14.6974 67.4619
14.8774 111.238
15.0574 157.426
15.2374 66.5717
15.4175 64.4027
15.5976 63.5369
15.7778 95.4258
15.958 168.241
16.1382 59.7928
16.3185 55.7601
16.4988 53.6627
16.6792 52.8661
16.8596 52.9611
17.04 53.8504
17.2205 65.1519
17.401 71.8974
17.5815 57.5274
17.7622 59.9751
17.9428 73.7047
18.1237 142.35
18.3044 88.9958
18.4852 78.6406
18.666 59.0722
18.8469 56.5302
19.0278 55.3142
19.2088 58.3572
19.3898 75.957
19.5709 53.1882
19.752 51.694
19.9332 55.3931
20.1144 70.3554
20.2957 63.7575
20.477 52.676
20.6586 48.4682
20.84 47.999
21.0215 47.4925
21.203 49.5822
21.3846 47.9571
21.5662 47.6805
21.7479 51.9775
21.9297 65.3116
22.1115 55.8584
22.2933 49.1603
22.4753 47.7254
22.6572 47.6732
22.8393 51.4013
23.0214 57.3497
23.2037 47.8756
23.3859 49.4698
23.5682 57.1426
23.7505 48.1988
23.9329 44.4547
24.1154 43.3178
24.2979 42.3727
24.4805 42.0707
24.6631 42.1175
24.8458 41.2227
25.0286 42.1474
25.2114 44.2402
25.3943 44.3978
25.5773 40.2112
25.7605 39.7516
25.9436 40.1153
26.1268 41.3147
26.31 39.4063
26.4933 40.0215
26.6767 41.948
26.8601 40.1354
27.0437 38.4309
27.2272 37.9532
27.4109 37.8539
27.5946 38.0125
27.7784 37.2996
27.9623 37.9561
28.1462 38.5942
28.3304 36.8343
28.5145 35.4682
28.6987 35.0676
28.8829 34.8118
29.0673 34.2456
29.2517 33.8658
29.4361 33.6781
29.6207 32.62
29.8053 32.2438
29.99 32.1817
30.1748 31.9351
30.3597 31.8494
30.5447 31.7336
30.7297 31.7943
30.915 31.3797
31.1002 30.7223
31.2855 30.4786
31.4708 30.4267
31.6563 30.0532
31.8418 29.8564
32.0275 29.5887
32.2132 28.9678
32.399 28.6141
32.5848 28.1194
32.7708 27.7517
32.9569 27.6646
33.143 27.4655
33.3293 27.1599
33.5158 26.6017
33.7022 26.1631
33.8887 25.9628
34.0753 25.6939
34.262 25.2525
34.4488 24.9327
34.6357 24.605
34.8227 24.4231
35.0098 24.2112
35.1969 23.8523
35.3842 23.6935
35.5716 23.5802
35.759 23.1031
35.9468 22.7796
36.1345 22.5579
36.3222 22.2435
36.5101 22.1747
36.6981 21.8881
36.8861 21.5018
37.0743 21.2254
37.2626 20.9884
37.451 20.6847
37.6395 20.6222
37.8281 20.2701
38.0168 19.9179
38.2056 19.6614
38.3945 19.4037
38.5837 19.1859
38.7728 18.8855
38.9621 18.7236
39.1514 18.4332
39.3409 18.1458
39.5304 18.0295
39.7201 17.8374
39.9099 17.5905
40.0999 17.3903
40.2899 17.1353
40.48 16.8697
40.6703 16.6927
40.8607 16.5113
41.0512 16.3086
41.242 16.041
41.4327 15.8942
41.6236 15.6114
41.8146 15.4038
42.0057 15.2141
42.1969 14.9963
42.3882 14.7782
42.5797 14.6156
42.7713 14.4504
42.963 14.2405
43.1549 14.018
43.3468 13.8195
43.5389 13.682
43.7312 13.4451
43.9237 13.2537
44.1162 13.1227
44.3088 12.901
44.5016 12.708
44.6945 12.576
44.8875 12.4253
45.0806 12.2058
45.2739 12.0787
45.4673 11.8855
45.6609 11.6825
45.8546 11.5187
46.0484 11.3681
46.2424 11.2044
46.4365 11.089
46.631 10.8894
46.8254 10.7143
47.0199 10.5858
47.2146 10.4137
47.4095 10.2566
47.6044 10.1182
47.7996 10.0126
47.9948 9.78035
48.1902 9.65202
48.3858 9.53298
48.5815 9.39439
48.7774 9.24801
48.9734 9.0842
49.1696 8.99636
49.3661 8.86484
49.5626 8.70815
49.7592 8.5444
49.956 8.44916
50.153 8.29845
50.3501 8.19856
50.5474 8.03898
50.7448 7.96064
50.9424 7.80488
51.1402 7.68243
51.3381 7.56444
51.5362 7.44626
51.7344 7.34459
51.9328 7.21936
52.1316 7.08478
52.3304 6.96989
52.5293 6.84497
52.7284 6.70698
52.9276 6.59218
53.1271 6.53325
53.3267 6.40977
53.5265 6.29368
53.7264 6.19935
53.9266 6.10549
54.1269 5.97079
54.3274 5.85955
54.528 5.74495
54.7289 5.55938
54.9301 5.41996
55.1314 5.26889
55.3328 5.08204
55.5344 4.91746
55.7361 4.74627