File: XRD/Ni3Fe_FD0131.xy
TT I
1.27165 7.59718
1.45013 7.02144
1.62863 5.88628
1.80712 4.93176
1.98562 5.07898
2.16411 4.72803
2.34263 4.73371
2.52115 3.57084
2.69965 4.93578
2.87818 7.53387
3.05672 11.3138
3.23527 14.6229
3.4138 18.4559
3.59237 21.3298
3.77094 24.49
3.9495 28.4447
4.12809 32.9675
4.30669 37.4001
4.4853 44.7152
4.6639 53.376
4.84253 65.7296
5.02118 90.4865
5.19981 575.118
5.37848 499.046
5.55716 107.779
5.73586 95.0674
5.91455 106.107
6.09328 2558.41
6.27201 90.0643
6.45075 66.2382
6.62952 59.4337
6.8083 55.2915
6.98711 52.92
7.16591 52.1377
7.34475 51.8926
7.5236 56.134
7.70247 53.6678
7.88135 55.6616
8.06026 60.242
8.23919 67.7215
8.41812 83.5459
8.59709 851.128
8.77609 118.493
8.9551 84.5114
9.13412 80.7867
9.31318 87.5218
9.49226 83.1245
9.67134 87.6541
9.85047 97.9904
10.0296 553.957
10.2088 1045.56
10.388 104.243
10.5672 313.968
10.7465 91.1706
10.9257 75.1198
11.105 69.7146
11.2844 65.7177
11.4637 62.8073
11.6431 61.6057
11.8225 60.6457
12.002 65.4248
12.1814 114.204
12.3609 75.6215
12.5405 62.5598
12.72 64.7512
12.8996 69.0289
13.0792 78.6571
13.2589 198.758
13.4386 219.344
13.6183 186.139
13.7981 160.792
13.9779 75.3938
14.1577 74.2823
14.3376 68.7073
14.5175 67.9049
14.6974 69.2513
14.8774 120.556
15.0574 206.257
15.2374 68.621
15.4175 65.4658
15.5976 65.2159
15.7778 107.244
15.958 183.928
16.1382 61.6182
16.3185 56.8551
16.4988 54.7069
16.6792 53.6976
16.8596 53.8281
17.04 54.9527
17.2205 64.4126
17.401 80.6782
17.5815 58.5692
17.7622 60.9432
17.9428 83.7308
18.1237 111.256
18.3044 87.8867
18.4852 96.0893
18.666 60.5481
18.8469 57.9468
19.0278 56.2882
19.2088 61.5596
19.3898 67.6877
19.5709 56.3969
19.752 52.9488
19.9332 57.8294
20.1144 65.9
20.2957 60.4095
20.477 59.1886
20.6586 49.4249
20.84 48.7486
21.0215 48.7625
21.203 49.2096
21.3846 50.2902
21.5662 48.5622
21.7479 53.8401
21.9297 60.9677
22.1115 55.9547
22.2933 52.4134
22.4753 48.4977
22.6572 48.7537
22.8393 51.7199
23.0214 56.5213
23.2037 49.5568
23.3859 51.5997
23.5682 52.8155
23.7505 53.6658
23.9329 45.3351
24.1154 44.1577
24.2979 43.4474
24.4805 42.6408
24.6631 42.8809
24.8458 42.2888
25.0286 42.7205
25.2114 44.4309
25.3943 44.533
25.5773 41.5744
25.7605 40.5363
25.9436 40.7591
26.1268 41.305
26.31 40.8414
26.4933 40.6685
26.6767 41.825
26.8601 41.0855
27.0437 39.3558
27.2272 38.7504
27.4109 38.3405
27.5946 38.4466
27.7784 38.3902
27.9623 38.3488
28.1462 39.1317
28.3304 37.7837
28.5145 36.0338
28.6987 35.6208
28.8829 35.4166
29.0673 34.9381
29.2517 34.2605
29.4361 34.0286
29.6207 33.4051
29.8053 32.9788
29.99 32.6468
30.1748 32.3339
30.3597 32.3997
30.5447 32.2041
30.7297 32.0869
30.915 31.8574
31.1002 31.1786
31.2855 30.9979
31.4708 30.6629
31.6563 30.7562
31.8418 30.0861
32.0275 29.9896
32.2132 29.602
32.399 28.9569
32.5848 28.47
32.7708 28.2012
32.9569 28.0679
33.143 27.7801
33.3293 27.5343
33.5158 27.1766
33.7022 26.6526
33.8887 26.3142
34.0753 26.0535
34.262 25.6106
34.4488 25.3158
34.6357 24.9094
34.8227 24.7177
35.0098 24.4765
35.1969 24.1981
35.3842 23.9857
35.5716 23.8935
35.759 23.5159
35.9468 23.1356
36.1345 22.8694
36.3222 22.7677
36.5101 22.479
36.6981 22.1577
36.8861 21.8561
37.0743 21.5284
37.2626 21.2223
37.451 21.0509
37.6395 20.8184
37.8281 20.5408
38.0168 20.188
38.2056 20.0087
38.3945 19.5865
38.5837 19.4886
38.7728 19.2007
38.9621 18.9873
39.1514 18.7347
39.3409 18.4769
39.5304 18.2704
39.7201 18.0636
39.9099 17.8743
40.0999 17.6622
40.2899 17.3874
40.48 17.13
40.6703 16.8946
40.8607 16.753
41.0512 16.5428
41.242 16.263
41.4327 16.066
41.6236 15.8405
41.8146 15.6436
42.0057 15.4824
42.1969 15.2632
42.3882 15.0544
42.5797 14.8618
42.7713 14.653
42.963 14.4385
43.1549 14.2006
43.3468 13.9762
43.5389 13.8497
43.7312 13.6279
43.9237 13.461
44.1162 13.268
44.3088 13.0996
44.5016 12.8717
44.6945 12.7338
44.8875 12.5812
45.0806 12.3753
45.2739 12.1649
45.4673 12.0106
45.6609 11.7985
45.8546 11.6849
46.0484 11.5447
46.2424 11.3455
46.4365 11.226
46.631 11.0477
46.8254 10.8188
47.0199 10.6889
47.2146 10.533
47.4095 10.3735
47.6044 10.2192
47.7996 10.0797
47.9948 9.94411
48.1902 9.76843
48.3858 9.66228
48.5815 9.51178
48.7774 9.42762
48.9734 9.26485
49.1696 9.10504
49.3661 8.98811
49.5626 8.8309
49.7592 8.70828
49.956 8.60286
50.153 8.4082
50.3501 8.27918
50.5474 8.18182
50.7448 8.07021
50.9424 7.94808
51.1402 7.81654
51.3381 7.69648
51.5362 7.61223
51.7344 7.43275
51.9328 7.32764
52.1316 7.19054
52.3304 7.0713
52.5293 6.94598
52.7284 6.85472
52.9276 6.74514
53.1271 6.64941
53.3267 6.48445
53.5265 6.35294
53.7264 6.3058
53.9266 6.17608
54.1269 6.03142
54.3274 5.8793
54.528 5.77708
54.7289 5.61631
54.9301 5.39954
55.1314 5.2772
55.3328 5.05789
55.5344 4.86752
55.7361 4.72893