File: XRD/Ni3Fe_FD0647.xy
TT I
1.27165 7.69044
1.45013 6.90455
1.62863 5.02094
1.80712 4.64516
1.98562 4.7961
2.16411 5.60181
2.34263 5.52287
2.52115 6.62867
2.69965 8.44054
2.87818 8.67757
3.05672 10.7734
3.23527 14.7672
3.4138 19.155
3.59237 24.6697
3.77094 26.7629
3.9495 29.9219
4.12809 35.0738
4.30669 277.084
4.4853 71.3458
4.6639 55.5483
4.84253 67.3377
5.02118 86.1358
5.19981 330.907
5.37848 197.443
5.55716 102.302
5.73586 92.0721
5.91455 93.4507
6.09328 4267.84
6.27201 84.1264
6.45075 67.9001
6.62952 63.5788
6.8083 59.3129
6.98711 56.1835
7.16591 56.3965
7.34475 104.987
7.5236 55.3941
7.70247 56.5956
7.88135 57.9534
8.06026 62.4398
8.23919 69.6126
8.41812 85.3955
8.59709 1092.34
8.77609 100.512
8.9551 93.6306
9.13412 82.2073
9.31318 81.9425
9.49226 84.2923
9.67134 101.329
9.85047 100.262
10.0296 318.12
10.2088 444.573
10.388 105.372
10.5672 493.049
10.7465 86.9593
10.9257 79.1013
11.105 72.0151
11.2844 71.6103
11.4637 65.0054
11.6431 63.9479
11.8225 62.6659
12.002 63.8141
12.1814 145.486
12.3609 72.7244
12.5405 64.5593
12.72 71.3166
12.8996 71.0328
13.0792 78.6496
13.2589 224.845
13.4386 129.375
13.6183 237.248
13.7981 100.628
13.9779 75.9182
14.1577 72.742
14.3376 72.5364
14.5175 68.6125
14.6974 70.3532
14.8774 106.944
15.0574 154.088
15.2374 72.1122
15.4175 66.2929
15.5976 65.8704
15.7778 92.3104
15.958 164.398
16.1382 63.7346
16.3185 59.2493
16.4988 55.8383
16.6792 54.8662
16.8596 55.5307
17.04 56.0128
17.2205 66.0874
17.401 72.6184
17.5815 59.2111
17.7622 61.18
17.9428 72.8397
18.1237 137.799
18.3044 89.1423
18.4852 80.0648
18.666 60.5434
18.8469 58.1435
19.0278 57.0072
19.2088 59.5617
19.3898 77.0013
19.5709 54.2444
19.752 53.5014
19.9332 56.1182
20.1144 69.8511
20.2957 63.5154
20.477 54.2308
20.6586 49.8759
20.84 48.8595
21.0215 48.9601
21.203 50.746
21.3846 49.2009
21.5662 48.8852
21.7479 52.4868
21.9297 64.7545
22.1115 56.2674
22.2933 50.1532
22.4753 49.0527
22.6572 48.9926
22.8393 51.8665
23.0214 58.0325
23.2037 49.1601
23.3859 49.6117
23.5682 56.7655
23.7505 48.5878
23.9329 45.3744
24.1154 44.3641
24.2979 43.545
24.4805 43.1354
24.6631 43.1083
24.8458 42.3207
25.0286 42.9214
25.2114 44.8253
25.3943 44.9674
25.5773 41.0723
25.7605 40.626
25.9436 41.0063
26.1268 41.8543
26.31 40.3168
26.4933 40.7698
26.6767 42.3902
26.8601 40.7758
27.0437 38.9853
27.2272 38.551
27.4109 38.4808
27.5946 38.5532
27.7784 38.0627
27.9623 38.4614
28.1462 38.9121
28.3304 37.3993
28.5145 36.159
28.6987 35.7471
28.8829 35.704
29.0673 34.7983
29.2517 34.4687
29.4361 34.2325
29.6207 33.244
29.8053 33.0012
29.99 32.6671
30.1748 32.4906
30.3597 32.4403
30.5447 32.2646
30.7297 32.2794
30.915 31.701
31.1002 31.2643
31.2855 30.932
31.4708 30.9906
31.6563 30.4883
31.8418 30.173
32.0275 30.0542
32.2132 29.5075
32.399 29.0458
32.5848 28.5279
32.7708 28.2383
32.9569 28.0903
33.143 27.9131
33.3293 27.53
33.5158 27.1196
33.7022 26.6424
33.8887 26.3939
34.0753 26.0815
34.262 25.7279
34.4488 25.467
34.6357 25.0521
34.8227 24.7385
35.0098 24.6167
35.1969 24.2566
35.3842 24.1309
35.5716 23.9098
35.759 23.5465
35.9468 23.1899
36.1345 23.0127
36.3222 22.7779
36.5101 22.4803
36.6981 22.2396
36.8861 21.8892
37.0743 21.5877
37.2626 21.3067
37.451 21.0782
37.6395 20.9492
37.8281 20.6095
38.0168 20.3094
38.2056 20.0453
38.3945 19.7754
38.5837 19.5707
38.7728 19.3521
38.9621 19.0708
39.1514 18.7929
39.3409 18.5858
39.5304 18.3072
39.7201 18.1658
39.9099 17.9119
40.0999 17.6775
40.2899 17.4321
40.48 17.1982
40.6703 16.99
40.8607 16.8122
41.0512 16.5534
41.242 16.3439
41.4327 16.1788
41.6236 15.9099
41.8146 15.6816
42.0057 15.5641
42.1969 15.2463
42.3882 15.1213
42.5797 14.8559
42.7713 14.7061
42.963 14.4579
43.1549 14.289
43.3468 14.1361
43.5389 13.8885
43.7312 13.6892
43.9237 13.5121
44.1162 13.3313
44.3088 13.1527
44.5016 12.943
44.6945 12.812
44.8875 12.616
45.0806 12.4409
45.2739 12.2675
45.4673 12.1181
45.6609 11.9133
45.8546 11.7851
46.0484 11.5763
46.2424 11.4269
46.4365 11.2828
46.631 11.0784
46.8254 10.9169
47.0199 10.7491
47.2146 10.6386
47.4095 10.4479
47.6044 10.2723
47.7996 10.1533
47.9948 10.0076
48.1902 9.86305
48.3858 9.69863
48.5815 9.59992
48.7774 9.44217
48.9734 9.30401
49.1696 9.11592
49.3661 9.00413
49.5626 8.87689
49.7592 8.74704
49.956 8.61568
50.153 8.448
50.3501 8.33465
50.5474 8.20281
50.7448 8.10454
50.9424 7.94957
51.1402 7.86811
51.3381 7.69948
51.5362 7.61181
51.7344 7.45262
51.9328 7.36118
52.1316 7.20843
52.3304 7.10864
52.5293 6.96123
52.7284 6.86566
52.9276 6.77724
53.1271 6.68722
53.3267 6.55298
53.5265 6.39842
53.7264 6.35164
53.9266 6.21291
54.1269 6.08564
54.3274 5.98327
54.528 5.82054
54.7289 5.67422
54.9301 5.5084
55.1314 5.38311
55.3328 5.16931
55.5344 4.96356
55.7361 4.83264