File: XRD/Ni3Fe_FD0884.xy
TT I
1.27165 7.58024
1.45013 6.13729
1.62863 4.81884
1.80712 5.01085
1.98562 4.97652
2.16411 5.11827
2.34263 5.26534
2.52115 7.2364
2.69965 8.07079
2.87818 9.07658
3.05672 10.98
3.23527 15.1818
3.4138 19.1616
3.59237 24.3676
3.77094 26.4955
3.9495 29.4868
4.12809 34.9963
4.30669 271.789
4.4853 70.4258
4.6639 54.6917
4.84253 66.0721
5.02118 83.4302
5.19981 286.113
5.37848 181.551
5.55716 100.358
5.73586 90.1825
5.91455 90.2863
6.09328 4251.13
6.27201 82.1065
6.45075 66.4289
6.62952 62.3899
6.8083 58.2121
6.98711 55.5391
7.16591 54.818
7.34475 102.968
7.5236 54.5711
7.70247 55.3101
7.88135 57.056
8.06026 61.2881
8.23919 68.3665
8.41812 83.5101
8.59709 1073.07
8.77609 97.2629
8.9551 92.2303
9.13412 80.3314
9.31318 81.2558
9.49226 83.3515
9.67134 99.1449
9.85047 97.7604
10.0296 288.049
10.2088 424.384
10.388 102.453
10.5672 504.467
10.7465 85.1356
10.9257 77.5923
11.105 70.7339
11.2844 70.4495
11.4637 63.8865
11.6431 62.5255
11.8225 61.3524
12.002 62.0601
12.1814 148.223
12.3609 71.2076
12.5405 63.4584
12.72 70.2856
12.8996 69.6152
13.0792 76.8031
13.2589 219.145
13.4386 125.385
13.6183 237.432
13.7981 96.8422
13.9779 74.6479
14.1577 71.5115
14.3376 71.0517
14.5175 67.5893
14.6974 69.2642
14.8774 103.276
15.0574 150.234
15.2374 70.6674
15.4175 65.3505
15.5976 64.4883
15.7778 89.0062
15.958 158.92
16.1382 62.2518
16.3185 57.8789
16.4988 54.6028
16.6792 53.6544
16.8596 54.4554
17.04 54.6534
17.2205 64.4586
17.401 70.2157
17.5815 58.286
17.7622 60.2911
17.9428 70.5647
18.1237 137.889
18.3044 88.1823
18.4852 76.8742
18.666 59.3362
18.8469 57.1692
19.0278 56.0723
19.2088 58.1811
19.3898 76.5046
19.5709 53.3963
19.752 52.4096
19.9332 54.9874
20.1144 69.1162
20.2957 63.2163
20.477 53.0763
20.6586 48.8552
20.84 48.0009
21.0215 47.8715
21.203 50.0738
21.3846 48.3032
21.5662 47.8055
21.7479 51.3272
21.9297 64.0364
22.1115 55.415
22.2933 49.2252
22.4753 48.2616
22.6572 47.989
22.8393 50.7198
23.0214 56.8185
23.2037 47.989
23.3859 48.6644
23.5682 56.2889
23.7505 47.7487
23.9329 44.6188
24.1154 43.5901
24.2979 42.8942
24.4805 42.3924
24.6631 42.164
24.8458 41.6777
25.0286 42.1711
25.2114 43.9278
25.3943 44.0786
25.5773 40.3112
25.7605 39.9408
25.9436 40.256
26.1268 41.0945
26.31 39.5685
26.4933 40.1397
26.6767 41.6736
26.8601 39.8317
27.0437 38.4055
27.2272 37.9408
27.4109 37.86
27.5946 37.8337
27.7784 37.2662
27.9623 37.7274
28.1462 38.3029
28.3304 36.6498
28.5145 35.52
28.6987 35.138
28.8829 34.9739
29.0673 34.1422
29.2517 33.7992
29.4361 33.7587
29.6207 32.7198
29.8053 32.4929
29.99 32.0116
30.1748 32.0268
30.3597 31.8878
30.5447 31.7127
30.7297 31.7446
30.915 31.2111
31.1002 30.7303
31.2855 30.4029
31.4708 30.3827
31.6563 29.8781
31.8418 29.7515
32.0275 29.434
32.2132 28.9764
32.399 28.5582
32.5848 28.0955
32.7708 27.7886
32.9569 27.6432
33.143 27.4348
33.3293 27.0602
33.5158 26.6434
33.7022 26.2246
33.8887 26.0128
34.0753 25.6692
34.262 25.2953
34.4488 24.9539
34.6357 24.644
34.8227 24.3862
35.0098 24.1422
35.1969 23.933
35.3842 23.6683
35.5716 23.4428
35.759 23.199
35.9468 22.8485
36.1345 22.6004
36.3222 22.4026
36.5101 22.1859
36.6981 21.8655
36.8861 21.5427
37.0743 21.2356
37.2626 21.0239
37.451 20.702
37.6395 20.5212
37.8281 20.1875
38.0168 19.928
38.2056 19.7395
38.3945 19.4259
38.5837 19.2282
38.7728 18.9938
38.9621 18.7023
39.1514 18.4845
39.3409 18.2045
39.5304 17.9991
39.7201 17.8851
39.9099 17.5992
40.0999 17.348
40.2899 17.1115
40.48 16.8737
40.6703 16.7056
40.8607 16.5135
41.0512 16.3335
41.242 16.0768
41.4327 15.8468
41.6236 15.6349
41.8146 15.4842
42.0057 15.2202
42.1969 15.0281
42.3882 14.8772
42.5797 14.6213
42.7713 14.4988
42.963 14.229
43.1549 14.0736
43.3468 13.8834
43.5389 13.6617
43.7312 13.5113
43.9237 13.2874
44.1162 13.1142
44.3088 12.9312
44.5016 12.7968
44.6945 12.5699
44.8875 12.4166
45.0806 12.225
45.2739 12.0405
45.4673 11.8902
45.6609 11.7183
45.8546 11.5471
46.0484 11.3902
46.2424 11.2305
46.4365 11.0804
46.631 10.9036
46.8254 10.6993
47.0199 10.5546
47.2146 10.4494
47.4095 10.2938
47.6044 10.1109
47.7996 9.93305
47.9948 9.78666
48.1902 9.68554
48.3858 9.5733
48.5815 9.39095
48.7774 9.27462
48.9734 9.12706
49.1696 8.99713
49.3661 8.84868
49.5626 8.68583
49.7592 8.62168
49.956 8.44841
50.153 8.32965
50.3501 8.209
50.5474 8.06179
50.7448 7.99414
50.9424 7.82786
51.1402 7.72707
51.3381 7.56184
51.5362 7.45248
51.7344 7.33089
51.9328 7.24502
52.1316 7.05401
52.3304 6.98519
52.5293 6.92109
52.7284 6.80686
52.9276 6.64664
53.1271 6.5666
53.3267 6.42776
53.5265 6.32886
53.7264 6.19033
53.9266 6.08218
54.1269 5.95573
54.3274 5.89583
54.528 5.71466
54.7289 5.53769
54.9301 5.4094
55.1314 5.26551
55.3328 5.04826
55.5344 4.967
55.7361 4.7811