File: XRD/Ni3Fe_FD0954.xy
TT I
1.27165 6.85758
1.45013 5.7997
1.62863 5.60239
1.80712 4.59922
1.98562 4.92218
2.16411 4.44589
2.34263 5.75719
2.52115 7.48366
2.69965 8.79383
2.87818 9.03327
3.05672 11.4518
3.23527 15.4779
3.4138 18.7889
3.59237 23.6462
3.77094 26.0962
3.9495 29.7325
4.12809 34.1328
4.30669 152.735
4.4853 58.408
4.6639 54.9604
4.84253 66.5518
5.02118 85.4222
5.19981 300.637
5.37848 180.207
5.55716 100.663
5.73586 91.2383
5.91455 92.0739
6.09328 4527.74
6.27201 79.724
6.45075 67.6533
6.62952 62.1798
6.8083 58.0016
6.98711 54.8533
7.16591 55.1464
7.34475 77.0491
7.5236 53.5071
7.70247 55.9561
7.88135 56.865
8.06026 61.4727
8.23919 68.4486
8.41812 82.8186
8.59709 1181.38
8.77609 96.5592
8.9551 88.7723
9.13412 81.4434
9.31318 81.8667
9.49226 83.7004
9.67134 94.9367
9.85047 99.0884
10.0296 317.511
10.2088 362.963
10.388 101.771
10.5672 528.769
10.7465 84.7932
10.9257 77.0057
11.105 70.537
11.2844 68.2901
11.4637 63.8549
11.6431 62.4909
11.8225 61.4768
12.002 62.5961
12.1814 156.741
12.3609 67.4276
12.5405 63.7232
12.72 67.6088
12.8996 69.8387
13.0792 77.7761
13.2589 240.957
13.4386 118.601
13.6183 255.418
13.7981 94.7842
13.9779 74.8269
14.1577 70.9441
14.3376 69.571
14.5175 67.5547
14.6974 69.1721
14.8774 108.992
15.0574 143.791
15.2374 69.1008
15.4175 65.236
15.5976 64.5178
15.7778 93.0823
15.958 149.17
16.1382 60.8478
16.3185 57.3453
16.4988 54.418
16.6792 53.6204
16.8596 54.1769
17.04 54.6765
17.2205 65.8347
17.401 68.7794
17.5815 57.9947
17.7622 60.099
17.9428 71.5293
18.1237 136.431
18.3044 90.5742
18.4852 74.7531
18.666 59.3111
18.8469 56.977
19.0278 55.7161
19.2088 58.1976
19.3898 74.2443
19.5709 53.2545
19.752 52.1004
19.9332 55.0853
20.1144 68.599
20.2957 63.8449
20.477 52.6178
20.6586 48.6427
20.84 47.882
21.0215 47.8544
21.203 50.1278
21.3846 47.9781
21.5662 47.9324
21.7479 51.5989
21.9297 63.3529
22.1115 55.2576
22.2933 48.7207
22.4753 47.9976
22.6572 47.9284
22.8393 51.0436
23.0214 56.0958
23.2037 48.0573
23.3859 48.7553
23.5682 56.3195
23.7505 47.3827
23.9329 44.541
24.1154 43.5322
24.2979 42.741
24.4805 42.1966
24.6631 41.9611
24.8458 41.4286
25.0286 42.0695
25.2114 43.9508
25.3943 43.7909
25.5773 40.1498
25.7605 39.6914
25.9436 40.0192
26.1268 40.859
26.31 39.368
26.4933 39.9766
26.6767 41.4517
26.8601 39.6796
27.0437 38.2367
27.2272 37.8626
27.4109 37.7465
27.5946 37.6928
27.7784 37.2844
27.9623 37.7866
28.1462 38.2164
28.3304 36.48
28.5145 35.2565
28.6987 35.0446
28.8829 34.7866
29.0673 34.1693
29.2517 33.7699
29.4361 33.5618
29.6207 32.5835
29.8053 32.242
29.99 32.0785
30.1748 31.9369
30.3597 31.8436
30.5447 31.648
30.7297 31.6874
30.915 31.0421
31.1002 30.5565
31.2855 30.369
31.4708 30.3422
31.6563 29.9122
31.8418 29.6517
32.0275 29.4235
32.2132 28.843
32.399 28.4836
32.5848 28.0026
32.7708 27.6517
32.9569 27.6175
33.143 27.3258
33.3293 26.9534
33.5158 26.6025
33.7022 26.2251
33.8887 25.8274
34.0753 25.6483
34.262 25.2015
34.4488 24.9456
34.6357 24.5554
34.8227 24.2778
35.0098 24.1261
35.1969 23.8531
35.3842 23.6243
35.5716 23.3861
35.759 23.1251
35.9468 22.709
36.1345 22.4694
36.3222 22.2301
36.5101 22.0316
36.6981 21.7405
36.8861 21.4037
37.0743 21.191
37.2626 20.8867
37.451 20.614
37.6395 20.4784
37.8281 20.0905
38.0168 19.9151
38.2056 19.6065
38.3945 19.2999
38.5837 19.1525
38.7728 18.9135
38.9621 18.6647
39.1514 18.3559
39.3409 18.2395
39.5304 17.9922
39.7201 17.7801
39.9099 17.5472
40.0999 17.2477
40.2899 17.0647
40.48 16.7989
40.6703 16.6337
40.8607 16.455
41.0512 16.2005
41.242 16.0097
41.4327 15.7823
41.6236 15.5745
41.8146 15.3239
42.0057 15.1155
42.1969 14.9682
42.3882 14.7999
42.5797 14.6016
42.7713 14.432
42.963 14.1326
43.1549 13.9923
43.3468 13.7992
43.5389 13.6458
43.7312 13.4393
43.9237 13.2387
44.1162 13.0147
44.3088 12.8695
44.5016 12.6373
44.6945 12.4937
44.8875 12.3135
45.0806 12.1625
45.2739 11.9876
45.4673 11.8436
45.6609 11.6443
45.8546 11.5133
46.0484 11.3611
46.2424 11.1447
46.4365 10.979
46.631 10.8471
46.8254 10.6891
47.0199 10.5166
47.2146 10.4093
47.4095 10.2161
47.6044 10.0951
47.7996 9.95083
47.9948 9.79867
48.1902 9.63195
48.3858 9.52467
48.5815 9.37693
48.7774 9.21815
48.9734 9.08164
49.1696 8.95327
49.3661 8.8243
49.5626 8.67218
49.7592 8.56274
49.956 8.41508
50.153 8.26975
50.3501 8.15235
50.5474 8.02308
50.7448 7.91479
50.9424 7.80852
51.1402 7.7044
51.3381 7.55632
51.5362 7.46824
51.7344 7.27792
51.9328 7.17255
52.1316 7.05791
52.3304 6.94154
52.5293 6.83022
52.7284 6.74319
52.9276 6.61412
53.1271 6.51632
53.3267 6.38536
53.5265 6.28901
53.7264 6.15462
53.9266 6.08326
54.1269 5.96965
54.3274 5.85322
54.528 5.68245
54.7289 5.60589
54.9301 5.35903
55.1314 5.28217
55.3328 5.08306
55.5344 4.88236
55.7361 4.72035