File: XRD/Ni3Fe_FD1010.xy
TT I
1.27165 6.90752
1.45013 5.75571
1.62863 4.83913
1.80712 4.41354
1.98562 4.45361
2.16411 4.34844
2.34263 5.19218
2.52115 6.94437
2.69965 9.36907
2.87818 9.06499
3.05672 10.887
3.23527 15.1338
3.4138 18.8212
3.59237 22.5073
3.77094 24.7385
3.9495 28.4649
4.12809 32.8204
4.30669 163.326
4.4853 56.7278
4.6639 52.1872
4.84253 62.7329
5.02118 81.0358
5.19981 230.046
5.37848 220.757
5.55716 95.3772
5.73586 86.2689
5.91455 86.2333
6.09328 4250.08
6.27201 76.2193
6.45075 63.1426
6.62952 58.1501
6.8083 54.7772
6.98711 52.4566
7.16591 51.6965
7.34475 82.0404
7.5236 57.7605
7.70247 52.7074
7.88135 54.0943
8.06026 58.0572
8.23919 65.1438
8.41812 77.036
8.59709 979.997
8.77609 93.8581
8.9551 84.4653
9.13412 77.7483
9.31318 89.4522
9.49226 79.5062
9.67134 89.9281
9.85047 92.4521
10.0296 267.847
10.2088 456.549
10.388 97.5636
10.5672 497.771
10.7465 85.717
10.9257 73.2277
11.105 67.2704
11.2844 65.6638
11.4637 61.1964
11.6431 60.0366
11.8225 58.7235
12.002 65.5765
12.1814 139.003
12.3609 67.233
12.5405 60.6234
12.72 66.1128
12.8996 66.677
13.0792 74.6586
13.2589 206.641
13.4386 131.149
13.6183 221.026
13.7981 100.702
13.9779 72.1079
14.1577 74.026
14.3376 67.3986
14.5175 65.409
14.6974 66.3063
14.8774 99.199
15.0574 164.062
15.2374 66.8032
15.4175 63.028
15.5976 62.0695
15.7778 85.0877
15.958 171.98
16.1382 60.4898
16.3185 55.4193
16.4988 52.8491
16.6792 51.6784
16.8596 52.2345
17.04 52.9591
17.2205 62.3364
17.401 70.5384
17.5815 56.3204
17.7622 58.8284
17.9428 68.3951
18.1237 141.667
18.3044 85.9449
18.4852 79.1138
18.666 58.0454
18.8469 55.5172
19.0278 54.4928
19.2088 56.5472
19.3898 76.0535
19.5709 52.1762
19.752 51.03
19.9332 53.6247
20.1144 68.8869
20.2957 62.2295
20.477 52.6372
20.6586 47.6662
20.84 46.9571
21.0215 46.5567
21.203 48.5396
21.3846 47.2577
21.5662 46.7304
21.7479 50.1768
21.9297 64.4707
22.1115 55.2904
22.2933 48.5176
22.4753 47.0651
22.6572 46.8184
22.8393 49.8368
23.0214 57.1355
23.2037 47.0054
23.3859 47.7656
23.5682 56.4359
23.7505 47.7086
23.9329 43.7219
24.1154 42.4954
24.2979 41.7838
24.4805 41.2816
24.6631 41.5252
24.8458 40.529
25.0286 41.2359
25.2114 43.3624
25.3943 43.9357
25.5773 39.5504
25.7605 38.9281
25.9436 39.5057
26.1268 40.6637
26.31 38.7125
26.4933 39.2989
26.6767 41.2353
26.8601 39.5368
27.0437 37.7356
27.2272 37.2158
27.4109 37.0589
27.5946 37.3088
27.7784 36.5688
27.9623 37.2769
28.1462 38.2039
28.3304 36.2238
28.5145 34.8352
28.6987 34.5022
28.8829 34.3988
29.0673 33.6285
29.2517 33.1286
29.4361 33.2673
29.6207 32.0943
29.8053 31.8285
29.99 31.4427
30.1748 31.4757
30.3597 31.1655
30.5447 31.1607
30.7297 31.3984
30.915 30.7501
31.1002 30.2858
31.2855 29.8894
31.4708 29.9921
31.6563 29.5506
31.8418 29.2231
32.0275 29.1413
32.2132 28.6133
32.399 27.9833
32.5848 27.6015
32.7708 27.257
32.9569 27.2225
33.143 26.947
33.3293 26.5589
33.5158 26.2848
33.7022 25.8376
33.8887 25.5427
34.0753 25.2146
34.262 24.8624
34.4488 24.5111
34.6357 24.234
34.8227 23.9706
35.0098 23.8157
35.1969 23.4413
35.3842 23.2849
35.5716 23.0589
35.759 22.7487
35.9468 22.4547
36.1345 22.26
36.3222 21.992
36.5101 21.7655
36.6981 21.5519
36.8861 21.2307
37.0743 20.854
37.2626 20.7028
37.451 20.3153
37.6395 20.2372
37.8281 19.892
38.0168 19.6111
38.2056 19.3458
38.3945 19.0954
38.5837 18.8884
38.7728 18.6933
38.9621 18.4179
39.1514 18.1506
39.3409 17.9026
39.5304 17.7246
39.7201 17.4964
39.9099 17.3534
40.0999 17.0927
40.2899 16.8395
40.48 16.635
40.6703 16.4644
40.8607 16.2262
41.0512 16.0134
41.242 15.7892
41.4327 15.5994
41.6236 15.4326
41.8146 15.2152
42.0057 15.0157
42.1969 14.8145
42.3882 14.5796
42.5797 14.3771
42.7713 14.241
42.963 14.0147
43.1549 13.7801
43.3468 13.6369
43.5389 13.4333
43.7312 13.251
43.9237 13.045
44.1162 12.8363
44.3088 12.7502
44.5016 12.5413
44.6945 12.3755
44.8875 12.1675
45.0806 12.026
45.2739 11.8301
45.4673 11.666
45.6609 11.5425
45.8546 11.3754
46.0484 11.1875
46.2424 11.0522
46.4365 10.9054
46.631 10.7125
46.8254 10.5327
47.0199 10.3937
47.2146 10.2585
47.4095 10.116
47.6044 9.98276
47.7996 9.80831
47.9948 9.6868
48.1902 9.53542
48.3858 9.3982
48.5815 9.27923
48.7774 9.15081
48.9734 9.00388
49.1696 8.87489
49.3661 8.70343
49.5626 8.56159
49.7592 8.43272
49.956 8.32703
50.153 8.2066
50.3501 8.07817
50.5474 7.9803
50.7448 7.8004
50.9424 7.69714
51.1402 7.57811
51.3381 7.43717
51.5362 7.32192
51.7344 7.20935
51.9328 7.11734
52.1316 6.98108
52.3304 6.88614
52.5293 6.77403
52.7284 6.65152
52.9276 6.52081
53.1271 6.43327
53.3267 6.31588
53.5265 6.23189
53.7264 6.08752
53.9266 6.01605
54.1269 5.87218
54.3274 5.80062
54.528 5.63686
54.7289 5.48683
54.9301 5.3135
55.1314 5.17508
55.3328 5.04812
55.5344 4.81331
55.7361 4.7334