File: XRD/Ni3Fe_FD0835.xy
TT I
1.27165 7.1015
1.45013 5.9848
1.62863 5.3879
1.80712 4.58001
1.98562 4.81421
2.16411 4.81609
2.34263 5.37482
2.52115 7.14288
2.69965 8.4869
2.87818 8.81445
3.05672 11.1222
3.23527 15.2509
3.4138 18.6038
3.59237 23.3128
3.77094 25.6136
3.9495 29.675
4.12809 34.6587
4.30669 137.479
4.4853 57.4023
4.6639 55.6288
4.84253 67.3582
5.02118 87.2935
5.19981 336.518
5.37848 187.034
5.55716 101.851
5.73586 91.859
5.91455 93.5458
6.09328 4343.6
6.27201 80.7844
6.45075 68.3415
6.62952 62.405
6.8083 58.5994
6.98711 55.5513
7.16591 55.5567
7.34475 74.2476
7.5236 54.0804
7.70247 56.1145
7.88135 57.3256
8.06026 62.2545
8.23919 68.9376
8.41812 83.6722
8.59709 1187.24
8.77609 97.745
8.9551 89.3053
9.13412 82.1953
9.31318 82.7686
9.49226 84.142
9.67134 95.4906
9.85047 100.072
10.0296 337.267
10.2088 399.483
10.388 102.81
10.5672 524.283
10.7465 85.5123
10.9257 77.4864
11.105 70.9807
11.2844 68.5396
11.4637 64.2205
11.6431 62.8916
11.8225 62.1087
12.002 63.144
12.1814 156.313
12.3609 67.6467
12.5405 64.0276
12.72 68.007
12.8996 70.4423
13.0792 78.4874
13.2589 245.244
13.4386 122.552
13.6183 252.199
13.7981 96.3464
13.9779 75.218
14.1577 71.4067
14.3376 69.9956
14.5175 68.2663
14.6974 69.5989
14.8774 110.957
15.0574 145.27
15.2374 69.2151
15.4175 65.846
15.5976 65.0937
15.7778 95.1703
15.958 150.85
16.1382 61.2279
16.3185 57.3332
16.4988 54.8944
16.6792 53.9803
16.8596 54.5133
17.04 55.382
17.2205 66.6263
17.401 69.7184
17.5815 58.6925
17.7622 60.8069
17.9428 72.9796
18.1237 137.691
18.3044 91.0694
18.4852 75.948
18.666 59.6936
18.8469 57.4063
19.0278 55.9931
19.2088 58.7907
19.3898 74.4775
19.5709 53.6201
19.752 52.7077
19.9332 55.7855
20.1144 69.2043
20.2957 63.7256
20.477 53.091
20.6586 49.1751
20.84 48.3064
21.0215 47.9183
21.203 50.4573
21.3846 48.4349
21.5662 48.4455
21.7479 52.1266
21.9297 63.6583
22.1115 55.4713
22.2933 49.3493
22.4753 48.1721
22.6572 48.3697
22.8393 51.5981
23.0214 56.506
23.2037 48.2816
23.3859 49.207
23.5682 56.5783
23.7505 47.7842
23.9329 44.875
24.1154 43.6635
24.2979 42.9077
24.4805 42.4387
24.6631 42.4136
24.8458 41.7167
25.0286 42.6758
25.2114 44.071
25.3943 44.0485
25.5773 40.5632
25.7605 39.9997
25.9436 40.3545
26.1268 41.2485
26.31 39.6874
26.4933 40.3805
26.6767 41.6588
26.8601 39.9103
27.0437 38.4705
27.2272 38.1804
27.4109 37.9661
27.5946 38.0103
27.7784 37.4749
27.9623 38.0566
28.1462 38.4752
28.3304 36.7748
28.5145 35.6997
28.6987 35.3502
28.8829 34.9361
29.0673 34.3184
29.2517 34.0378
29.4361 33.8646
29.6207 32.8114
29.8053 32.5088
29.99 32.2116
30.1748 32.141
30.3597 31.9447
30.5447 31.8822
30.7297 31.9521
30.915 31.3252
31.1002 30.7712
31.2855 30.5601
31.4708 30.5215
31.6563 30.0653
31.8418 29.824
32.0275 29.6235
32.2132 29.1045
32.399 28.6453
32.5848 28.0954
32.7708 27.8311
32.9569 27.8056
33.143 27.5509
33.3293 27.0642
33.5158 26.7177
33.7022 26.2847
33.8887 25.9675
34.0753 25.7112
34.262 25.3739
34.4488 25.0257
34.6357 24.7578
34.8227 24.4741
35.0098 24.1591
35.1969 24.0176
35.3842 23.7636
35.5716 23.5424
35.759 23.2329
35.9468 22.9058
36.1345 22.6205
36.3222 22.4636
36.5101 22.1862
36.6981 21.8425
36.8861 21.5755
37.0743 21.2071
37.2626 21.0276
37.451 20.7388
37.6395 20.6001
37.8281 20.277
38.0168 19.9885
38.2056 19.7108
38.3945 19.5138
38.5837 19.2679
38.7728 18.9864
38.9621 18.7579
39.1514 18.5471
39.3409 18.2486
39.5304 18.0827
39.7201 17.8498
39.9099 17.6852
40.0999 17.3551
40.2899 17.184
40.48 16.9277
40.6703 16.7536
40.8607 16.5401
41.0512 16.3036
41.242 16.0683
41.4327 15.9029
41.6236 15.6518
41.8146 15.497
42.0057 15.2564
42.1969 15.0674
42.3882 14.8794
42.5797 14.6615
42.7713 14.4784
42.963 14.2839
43.1549 14.0812
43.3468 13.8616
43.5389 13.7025
43.7312 13.4633
43.9237 13.2897
44.1162 13.1398
44.3088 12.9698
44.5016 12.7653
44.6945 12.6074
44.8875 12.4395
45.0806 12.2453
45.2739 12.0397
45.4673 11.972
45.6609 11.7143
45.8546 11.578
46.0484 11.4136
46.2424 11.2168
46.4365 11.0906
46.631 10.9492
46.8254 10.7547
47.0199 10.6271
47.2146 10.4724
47.4095 10.3061
47.6044 10.1261
47.7996 9.97642
47.9948 9.85864
48.1902 9.69423
48.3858 9.5946
48.5815 9.43831
48.7774 9.29797
48.9734 9.14717
49.1696 8.97453
49.3661 8.89434
49.5626 8.68088
49.7592 8.59387
49.956 8.49665
50.153 8.32733
50.3501 8.20134
50.5474 8.09304
50.7448 7.98394
50.9424 7.8444
51.1402 7.71758
51.3381 7.57681
51.5362 7.48226
51.7344 7.3473
51.9328 7.19953
52.1316 7.09167
52.3304 6.96883
52.5293 6.86813
52.7284 6.74948
52.9276 6.6239
53.1271 6.53569
53.3267 6.45152
53.5265 6.34292
53.7264 6.1594
53.9266 6.09868
54.1269 5.99249
54.3274 5.88848
54.528 5.69618
54.7289 5.55043
54.9301 5.42499
55.1314 5.30057
55.3328 5.08954
55.5344 4.91506
55.7361 4.74657