File: XRD/Ni3Fe_FD0429.xy
TT I
1.27165 7.32272
1.45013 6.31957
1.62863 5.38064
1.80712 4.74746
1.98562 5.00825
2.16411 5.04933
2.34263 5.48623
2.52115 5.98371
2.69965 7.48478
2.87818 8.72682
3.05672 10.9964
3.23527 14.6024
3.4138 18.9656
3.59237 24.8032
3.77094 26.627
3.9495 30.1461
4.12809 35.2156
4.30669 238.888
4.4853 68.9356
4.6639 56.4629
4.84253 68.231
5.02118 89.1548
5.19981 424.997
5.37848 208.506
5.55716 103.988
5.73586 94.3207
5.91455 97.4263
6.09328 4161.24
6.27201 85.8703
6.45075 68.7081
6.62952 64.4232
6.8083 59.9628
6.98711 57.2218
7.16591 56.8091
7.34475 96.9666
7.5236 55.639
7.70247 57.085
7.88135 59.0706
8.06026 63.269
8.23919 70.9906
8.41812 87.8266
8.59709 1159.33
8.77609 102.339
8.9551 93.6694
9.13412 83.3519
9.31318 83.9296
9.49226 86.3392
9.67134 101.446
9.85047 101.518
10.0296 362.826
10.2088 437.8
10.388 106.994
10.5672 500.409
10.7465 88.4101
10.9257 80.274
11.105 73.2618
11.2844 72.1311
11.4637 66.1738
11.6431 64.9126
11.8225 63.986
12.002 64.9001
12.1814 151.298
12.3609 72.5827
12.5405 65.8742
12.72 71.9487
12.8996 72.2839
13.0792 80.5152
13.2589 233.798
13.4386 129.533
13.6183 239.999
13.7981 99.8766
13.9779 77.2941
14.1577 73.9601
14.3376 73.1988
14.5175 70.198
14.6974 71.8739
14.8774 111.807
15.0574 155.973
15.2374 72.9454
15.4175 67.6961
15.5976 67.2758
15.7778 96.4752
15.958 160.833
16.1382 64.3322
16.3185 59.9835
16.4988 56.5445
16.6792 55.7291
16.8596 56.3711
17.04 56.9543
17.2205 67.6734
17.401 72.4485
17.5815 60.5251
17.7622 62.4175
17.9428 75.5038
18.1237 140.823
18.3044 90.5909
18.4852 79.6723
18.666 61.5738
18.8469 59.2578
19.0278 57.9138
19.2088 60.9692
19.3898 77.894
19.5709 55.4361
19.752 54.3737
19.9332 57.5
20.1144 70.8928
20.2957 64.507
20.477 54.8662
20.6586 50.7729
20.84 49.8231
21.0215 49.5702
21.203 51.8217
21.3846 49.9887
21.5662 49.7674
21.7479 53.5551
21.9297 65.7949
22.1115 56.8396
22.2933 50.9613
22.4753 49.9632
22.6572 49.7299
22.8393 52.6093
23.0214 58.4497
23.2037 49.8196
23.3859 50.5836
23.5682 57.5877
23.7505 49.5033
23.9329 46.2212
24.1154 45.0418
24.2979 44.2348
24.4805 43.9048
24.6631 43.8179
24.8458 43.106
25.0286 43.5261
25.2114 45.4892
25.3943 45.5448
25.5773 41.6668
25.7605 41.1636
25.9436 41.6074
26.1268 42.4218
26.31 40.8367
26.4933 41.4029
26.6767 42.9071
26.8601 41.2246
27.0437 39.5466
27.2272 39.3533
27.4109 39.2071
27.5946 39.1344
27.7784 38.6777
27.9623 39.0972
28.1462 39.5647
28.3304 37.8055
28.5145 36.6591
28.6987 36.2871
28.8829 36.0349
29.0673 35.3096
29.2517 34.9467
29.4361 34.9127
29.6207 33.8853
29.8053 33.6039
29.99 33.2591
30.1748 33.0282
30.3597 32.9002
30.5447 32.7304
30.7297 32.7159
30.915 32.385
31.1002 31.7759
31.2855 31.4316
31.4708 31.3613
31.6563 30.9983
31.8418 30.7207
32.0275 30.4784
32.2132 30.0245
32.399 29.4136
32.5848 28.9901
32.7708 28.7044
32.9569 28.5925
33.143 28.3673
33.3293 27.9282
33.5158 27.5751
33.7022 27.0918
33.8887 26.7207
34.0753 26.5349
34.262 26.0878
34.4488 25.76
34.6357 25.4009
34.8227 25.158
35.0098 24.9634
35.1969 24.6951
35.3842 24.4627
35.5716 24.236
35.759 23.8943
35.9468 23.5632
36.1345 23.2817
36.3222 23.1258
36.5101 22.798
36.6981 22.5675
36.8861 22.1821
37.0743 21.9389
37.2626 21.7178
37.451 21.4024
37.6395 21.2668
37.8281 20.8714
38.0168 20.6312
38.2056 20.3258
38.3945 20.0253
38.5837 19.8348
38.7728 19.5322
38.9621 19.3669
39.1514 19.0265
39.3409 18.8271
39.5304 18.6065
39.7201 18.4785
39.9099 18.1859
40.0999 17.8966
40.2899 17.6996
40.48 17.4679
40.6703 17.2096
40.8607 17.0227
41.0512 16.8392
41.242 16.617
41.4327 16.3443
41.6236 16.1811
41.8146 15.9667
42.0057 15.7441
42.1969 15.4963
42.3882 15.3249
42.5797 15.1125
42.7713 14.9407
42.963 14.7741
43.1549 14.4769
43.3468 14.2102
43.5389 14.0611
43.7312 13.9002
43.9237 13.7366
44.1162 13.5108
44.3088 13.3286
44.5016 13.1575
44.6945 12.9764
44.8875 12.7718
45.0806 12.5769
45.2739 12.4719
45.4673 12.2742
45.6609 12.0634
45.8546 11.9097
46.0484 11.7424
46.2424 11.6009
46.4365 11.4109
46.631 11.2312
46.8254 11.0523
47.0199 10.9207
47.2146 10.7693
47.4095 10.6221
47.6044 10.4294
47.7996 10.2764
47.9948 10.1202
48.1902 9.94222
48.3858 9.84974
48.5815 9.7244
48.7774 9.53308
48.9734 9.44704
49.1696 9.29542
49.3661 9.14961
49.5626 8.98198
49.7592 8.86964
49.956 8.74766
50.153 8.57478
50.3501 8.47882
50.5474 8.31475
50.7448 8.23352
50.9424 8.08539
51.1402 7.9693
51.3381 7.79622
51.5362 7.73431
51.7344 7.5571
51.9328 7.44871
52.1316 7.26787
52.3304 7.19665
52.5293 7.05398
52.7284 6.97469
52.9276 6.84226
53.1271 6.733
53.3267 6.65366
53.5265 6.48812
53.7264 6.42304
53.9266 6.3047
54.1269 6.17578
54.3274 6.06661
54.528 5.87067
54.7289 5.7175
54.9301 5.60619
55.1314 5.48279
55.3328 5.21332
55.5344 5.06156
55.7361 4.92443