File: XRD/Ni3Fe_FD0111.xy
TT I
1.27165 8.35498
1.45013 6.71939
1.62863 5.76413
1.80712 5.00431
1.98562 4.97519
2.16411 4.71413
2.34263 3.9708
2.52115 4.29421
2.69965 5.11768
2.87818 7.90416
3.05672 10.8124
3.23527 14.9279
3.4138 18.5603
3.59237 21.8128
3.77094 24.563
3.9495 28.3262
4.12809 32.0708
4.30669 37.5191
4.4853 44.5923
4.6639 53.3498
4.84253 65.8491
5.02118 92.0751
5.19981 616.006
5.37848 587.012
5.55716 110.026
5.73586 96.1995
5.91455 109.18
6.09328 2376.95
6.27201 93.6028
6.45075 66.393
6.62952 59.4154
6.8083 54.9936
6.98711 53.0017
7.16591 51.8827
7.34475 51.7512
7.5236 57.4048
7.70247 53.221
7.88135 55.6715
8.06026 59.7838
8.23919 67.406
8.41812 83.9514
8.59709 806.047
8.77609 124.463
8.9551 85.2377
9.13412 80.7316
9.31318 90.7316
9.49226 83.0258
9.67134 87.8362
9.85047 98.3904
10.0296 572.48
10.2088 1129.93
10.388 104.946
10.5672 287.412
10.7465 93.1358
10.9257 75.3138
11.105 69.5751
11.2844 65.4977
11.4637 62.7834
11.6431 61.3475
11.8225 60.431
12.002 67.0679
12.1814 109.24
12.3609 79.0623
12.5405 62.4633
12.72 64.2324
12.8996 69.0707
13.0792 78.7894
13.2589 191.77
13.4386 238.401
13.6183 176.927
13.7981 172.422
13.9779 75.4656
14.1577 75.3871
14.3376 68.4434
14.5175 67.7146
14.6974 69.0819
14.8774 120.926
15.0574 207.673
15.2374 68.8239
15.4175 65.7901
15.5976 65.0541
15.7778 107.725
15.958 180.734
16.1382 62.1005
16.3185 56.7992
16.4988 54.6847
16.6792 53.5086
16.8596 53.6258
17.04 54.8176
17.2205 63.8938
17.401 81.1064
17.5815 58.5148
17.7622 60.7038
17.9428 84.4794
18.1237 105.893
18.3044 87.8578
18.4852 98.2054
18.666 60.5006
18.8469 57.5773
19.0278 56.2164
19.2088 61.6404
19.3898 66.5008
19.5709 56.7136
19.752 52.7169
19.9332 58.0246
20.1144 64.8744
20.2957 60.3475
20.477 60.1397
20.6586 49.4595
20.84 48.8068
21.0215 48.5326
21.203 48.9539
21.3846 50.4248
21.5662 48.655
21.7479 53.571
21.9297 60.0289
22.1115 56.0615
22.2933 52.6016
22.4753 48.3278
22.6572 48.6703
22.8393 51.3399
23.0214 55.6529
23.2037 49.6374
23.3859 51.6353
23.5682 52.0758
23.7505 54.289
23.9329 45.3706
24.1154 43.9436
24.2979 43.3107
24.4805 42.6986
24.6631 42.7809
24.8458 42.1595
25.0286 42.619
25.2114 43.9247
25.3943 44.2706
25.5773 41.68
25.7605 40.3939
25.9436 40.6301
26.1268 40.9977
26.31 40.8002
26.4933 40.5439
26.6767 41.364
26.8601 41.0101
27.0437 39.3149
27.2272 38.6453
27.4109 38.3153
27.5946 38.2406
27.7784 38.2445
27.9623 38.145
28.1462 38.8428
28.3304 37.7251
28.5145 36.1843
28.6987 35.5772
28.8829 35.1936
29.0673 35.0136
29.2517 34.2023
29.4361 33.8498
29.6207 33.4042
29.8053 32.6592
29.99 32.4334
30.1748 32.295
30.3597 32.3916
30.5447 32.1152
30.7297 31.8957
30.915 31.8476
31.1002 31.1506
31.2855 30.8111
31.4708 30.6556
31.6563 30.543
31.8418 30.1743
32.0275 29.9488
32.2132 29.5822
32.399 28.8964
32.5848 28.5028
32.7708 28.2086
32.9569 27.981
33.143 27.6857
33.3293 27.3727
33.5158 27.128
33.7022 26.6275
33.8887 26.2895
34.0753 26.0457
34.262 25.5395
34.4488 25.3592
34.6357 24.8673
34.8227 24.7096
35.0098 24.4245
35.1969 24.1767
35.3842 23.8848
35.5716 23.807
35.759 23.4298
35.9468 23.0607
36.1345 22.8264
36.3222 22.6508
36.5101 22.4345
36.6981 22.1244
36.8861 21.7247
37.0743 21.4364
37.2626 21.1852
37.451 20.9506
37.6395 20.84
37.8281 20.5059
38.0168 20.1872
38.2056 19.8654
38.3945 19.5912
38.5837 19.4082
38.7728 19.2242
38.9621 18.8904
39.1514 18.6629
39.3409 18.4368
39.5304 18.286
39.7201 17.9919
39.9099 17.8276
40.0999 17.5932
40.2899 17.3198
40.48 17.0834
40.6703 16.8386
40.8607 16.706
41.0512 16.4825
41.242 16.2528
41.4327 16.0156
41.6236 15.8217
41.8146 15.6347
42.0057 15.3539
42.1969 15.1822
42.3882 14.9947
42.5797 14.795
42.7713 14.6067
42.963 14.4122
43.1549 14.2123
43.3468 13.9431
43.5389 13.8254
43.7312 13.6111
43.9237 13.4186
44.1162 13.2397
44.3088 13.0438
44.5016 12.8731
44.6945 12.6988
44.8875 12.5503
45.0806 12.3504
45.2739 12.1491
45.4673 11.9976
45.6609 11.8389
45.8546 11.6443
46.0484 11.5098
46.2424 11.3409
46.4365 11.1824
46.631 10.9992
46.8254 10.8432
47.0199 10.6996
47.2146 10.4924
47.4095 10.3566
47.6044 10.1924
47.7996 10.0539
47.9948 9.91636
48.1902 9.77326
48.3858 9.6487
48.5815 9.53745
48.7774 9.3751
48.9734 9.19489
49.1696 9.12876
49.3661 8.94879
49.5626 8.7945
49.7592 8.69783
49.956 8.57167
50.153 8.44348
50.3501 8.26065
50.5474 8.13373
50.7448 8.07071
50.9424 7.94208
51.1402 7.79273
51.3381 7.6817
51.5362 7.56207
51.7344 7.44851
51.9328 7.29483
52.1316 7.16876
52.3304 7.09197
52.5293 6.91247
52.7284 6.82482
52.9276 6.70356
53.1271 6.62903
53.3267 6.52901
53.5265 6.34239
53.7264 6.29508
53.9266 6.16431
54.1269 6.0409
54.3274 5.8621
54.528 5.74001
54.7289 5.59934
54.9301 5.41246
55.1314 5.23186
55.3328 5.05219
55.5344 4.86285
55.7361 4.73791