File: XRD/Ni3Fe_FD0714.xy
TT I
1.27165 7.1171
1.45013 6.10628
1.62863 5.41686
1.80712 4.93073
1.98562 4.2051
2.16411 4.65915
2.34263 4.42874
2.52115 6.65756
2.69965 8.07077
2.87818 8.51128
3.05672 10.7876
3.23527 14.8738
3.4138 18.7612
3.59237 23.0747
3.77094 25.5609
3.9495 29.18
4.12809 34.2574
4.30669 98.5362
4.4853 53.0849
4.6639 55.3099
4.84253 68.3579
5.02118 87.4813
5.19981 432.916
5.37848 198.269
5.55716 102.659
5.73586 93.1644
5.91455 95.9155
6.09328 4603.35
6.27201 80.7162
6.45075 69.7635
6.62952 62.9459
6.8083 59.2941
6.98711 55.2234
7.16591 55.5845
7.34475 66.4282
7.5236 54.18
7.70247 56.7694
7.88135 57.9348
8.06026 62.8677
8.23919 69.5628
8.41812 83.8045
8.59709 1259.91
8.77609 98.0455
8.9551 89.0993
9.13412 82.852
9.31318 85.1483
9.49226 85.2855
9.67134 95.4822
9.85047 101.879
10.0296 366.051
10.2088 357.041
10.388 106.127
10.5672 518.801
10.7465 86.2128
10.9257 77.9478
11.105 71.0985
11.2844 68.0515
11.4637 64.5447
11.6431 63.425
11.8225 62.7003
12.002 64.6826
12.1814 157.156
12.3609 66.72
12.5405 64.9322
12.72 67.7473
12.8996 71.314
13.0792 81.0017
13.2589 250.381
13.4386 120.521
13.6183 260.913
13.7981 93.8631
13.9779 75.8189
14.1577 71.9561
14.3376 70.181
14.5175 68.6917
14.6974 70.529
14.8774 114.765
15.0574 138.854
15.2374 69.3733
15.4175 66.2518
15.5976 66.1074
15.7778 97.5772
15.958 148.522
16.1382 61.3535
16.3185 57.7889
16.4988 55.3381
16.6792 54.3419
16.8596 54.8309
17.04 56.2544
17.2205 67.4385
17.401 69.6102
17.5815 59.1338
17.7622 61.3415
17.9428 74.7208
18.1237 141.819
18.3044 91.6884
18.4852 74.678
18.666 60.143
18.8469 58.1622
19.0278 56.802
19.2088 59.3577
19.3898 75.9232
19.5709 53.7662
19.752 53.3921
19.9332 56.5085
20.1144 69.5027
20.2957 64.1635
20.477 52.7691
20.6586 49.55
20.84 48.7247
21.0215 48.4073
21.203 50.6534
21.3846 48.6768
21.5662 48.9764
21.7479 52.9245
21.9297 64.7776
22.1115 55.8336
22.2933 49.6471
22.4753 48.5687
22.6572 48.984
22.8393 52.1701
23.0214 57.0066
23.2037 48.6463
23.3859 49.8063
23.5682 57.15
23.7505 47.8562
23.9329 45.1165
24.1154 43.989
24.2979 43.3723
24.4805 42.8994
24.6631 42.6264
24.8458 42.1683
25.0286 42.8415
25.2114 44.8259
25.3943 44.3121
25.5773 40.8098
25.7605 40.3442
25.9436 40.787
26.1268 41.5146
26.31 40.0925
26.4933 40.7205
26.6767 42.1566
26.8601 40.2537
27.0437 38.8885
27.2272 38.5182
27.4109 38.399
27.5946 38.2856
27.7784 37.9383
27.9623 38.4397
28.1462 38.6345
28.3304 36.9277
28.5145 35.8413
28.6987 35.5573
28.8829 35.3887
29.0673 34.5194
29.2517 34.2746
29.4361 34.0349
29.6207 32.9992
29.8053 32.8246
29.99 32.5183
30.1748 32.2486
30.3597 32.1605
30.5447 32.1952
30.7297 32.2925
30.915 31.4861
31.1002 31.0817
31.2855 30.869
31.4708 30.8005
31.6563 30.2282
31.8418 30.0827
32.0275 29.8649
32.2132 29.3622
32.399 28.8893
32.5848 28.5025
32.7708 28.0754
32.9569 27.9234
33.143 27.6862
33.3293 27.3759
33.5158 27.0075
33.7022 26.5149
33.8887 26.1858
34.0753 25.9477
34.262 25.6023
34.4488 25.2843
34.6357 24.8942
34.8227 24.6174
35.0098 24.4337
35.1969 24.2332
35.3842 23.9383
35.5716 23.7545
35.759 23.4296
35.9468 23.0569
36.1345 22.8077
36.3222 22.7039
36.5101 22.3204
36.6981 22.0453
36.8861 21.7334
37.0743 21.4815
37.2626 21.1889
37.451 20.9242
37.6395 20.7518
37.8281 20.4821
38.0168 20.1117
38.2056 19.8835
38.3945 19.6305
38.5837 19.4256
38.7728 19.1698
38.9621 18.9263
39.1514 18.6505
39.3409 18.4009
39.5304 18.228
39.7201 18.0202
39.9099 17.7931
40.0999 17.4777
40.2899 17.2935
40.48 17.1008
40.6703 16.8982
40.8607 16.6729
41.0512 16.4376
41.242 16.1908
41.4327 16.0149
41.6236 15.7688
41.8146 15.6205
42.0057 15.3645
42.1969 15.1666
42.3882 14.9767
42.5797 14.7738
42.7713 14.5727
42.963 14.3522
43.1549 14.2094
43.3468 13.9567
43.5389 13.7873
43.7312 13.6073
43.9237 13.4074
44.1162 13.2568
44.3088 13.0591
44.5016 12.8255
44.6945 12.663
44.8875 12.5
45.0806 12.3263
45.2739 12.1262
45.4673 12.0219
45.6609 11.8175
45.8546 11.6569
46.0484 11.4751
46.2424 11.3263
46.4365 11.1592
46.631 10.956
46.8254 10.8114
47.0199 10.6841
47.2146 10.5152
47.4095 10.3412
47.6044 10.21
47.7996 10.0863
47.9948 9.90386
48.1902 9.74136
48.3858 9.64981
48.5815 9.47719
48.7774 9.34985
48.9734 9.23332
49.1696 9.04508
49.3661 8.92125
49.5626 8.80279
49.7592 8.64919
49.956 8.5217
50.153 8.40031
50.3501 8.29398
50.5474 8.15716
50.7448 8.01927
50.9424 7.92724
51.1402 7.81081
51.3381 7.63475
51.5362 7.53944
51.7344 7.40901
51.9328 7.25355
52.1316 7.14006
52.3304 7.04798
52.5293 6.89624
52.7284 6.79614
52.9276 6.72587
53.1271 6.61001
53.3267 6.45894
53.5265 6.3461
53.7264 6.25596
53.9266 6.16469
54.1269 6.03971
54.3274 5.91363
54.528 5.75453
54.7289 5.6313
54.9301 5.42737
55.1314 5.37649
55.3328 5.07326
55.5344 4.90779
55.7361 4.84024