File: XRD/Ni3Fe_FD0602.xy
TT I
1.27165 7.78117
1.45013 6.36057
1.62863 5.41727
1.80712 4.45077
1.98562 4.88348
2.16411 5.07798
2.34263 5.58095
2.52115 6.77729
2.69965 8.27537
2.87818 8.76776
3.05672 10.9216
3.23527 15.0666
3.4138 18.6614
3.59237 23.1664
3.77094 25.9327
3.9495 29.4806
4.12809 34.7631
4.30669 129.3
4.4853 56.7488
4.6639 56.0095
4.84253 68.4525
5.02118 88.7608
5.19981 418.926
5.37848 203.713
5.55716 103.673
5.73586 93.6516
5.91455 97.05
6.09328 4253.43
6.27201 82.9194
6.45075 68.6828
6.62952 63.0885
6.8083 59.1879
6.98711 55.8825
7.16591 56.1847
7.34475 73.0953
7.5236 54.9293
7.70247 56.4885
7.88135 58.1582
8.06026 63.0191
8.23919 69.9126
8.41812 85.8853
8.59709 1235.38
8.77609 101.035
8.9551 89.9061
9.13412 83.447
9.31318 84.4084
9.49226 85.6815
9.67134 96.226
9.85047 101.875
10.0296 375.578
10.2088 422.99
10.388 105.996
10.5672 502.589
10.7465 87.8098
10.9257 78.5437
11.105 72.3028
11.2844 69.7432
11.4637 65.1279
11.6431 63.9311
11.8225 63.3344
12.002 64.606
12.1814 155.015
12.3609 68.9795
12.5405 65.1987
12.72 68.7877
12.8996 71.8723
13.0792 80.5359
13.2589 252.13
13.4386 128.883
13.6183 253.413
13.7981 101.32
13.9779 76.5185
14.1577 72.7798
14.3376 71.2883
14.5175 69.5894
14.6974 71.1533
14.8774 116.169
15.0574 151.464
15.2374 70.7359
15.4175 66.98
15.5976 66.4649
15.7778 98.9468
15.958 154.223
16.1382 62.2364
16.3185 58.6694
16.4988 55.9117
16.6792 54.9997
16.8596 55.5341
17.04 56.4354
17.2205 67.8316
17.401 72.5721
17.5815 59.7139
17.7622 61.7326
17.9428 75.5119
18.1237 138.115
18.3044 92.1795
18.4852 79.0968
18.666 60.9523
18.8469 58.6377
19.0278 57.2468
19.2088 60.3583
19.3898 75.2805
19.5709 54.6768
19.752 53.8987
19.9332 57.0117
20.1144 69.7038
20.2957 63.8865
20.477 54.164
20.6586 50.1921
20.84 49.2668
21.0215 49.008
21.203 51.1213
21.3846 49.1051
21.5662 49.4482
21.7479 53.3149
21.9297 64.646
22.1115 56.1239
22.2933 50.3641
22.4753 49.1217
22.6572 49.2184
22.8393 52.712
23.0214 57.5807
23.2037 49.2775
23.3859 50.4559
23.5682 56.8389
23.7505 48.9387
23.9329 45.4475
24.1154 44.5762
24.2979 43.7117
24.4805 43.3006
24.6631 43.1154
24.8458 42.5654
25.0286 43.3753
25.2114 44.962
25.3943 44.6865
25.5773 41.2422
25.7605 40.8112
25.9436 41.1919
26.1268 42.0038
26.31 40.4619
26.4933 41.2251
26.6767 42.4473
26.8601 40.7674
27.0437 39.1427
27.2272 38.823
27.4109 38.73
27.5946 38.5678
27.7784 38.2297
27.9623 38.8189
28.1462 39.0989
28.3304 37.5163
28.5145 36.1547
28.6987 35.923
28.8829 35.777
29.0673 34.9127
29.2517 34.6462
29.4361 34.3182
29.6207 33.4145
29.8053 33.1335
29.99 32.8282
30.1748 32.8163
30.3597 32.4906
30.5447 32.4168
30.7297 32.4115
30.915 31.8034
31.1002 31.3695
31.2855 31.1298
31.4708 31.0701
31.6563 30.5983
31.8418 30.4137
32.0275 30.0677
32.2132 29.607
32.399 29.1848
32.5848 28.7112
32.7708 28.408
32.9569 28.2325
33.143 28.0229
33.3293 27.5673
33.5158 27.2956
33.7022 26.836
33.8887 26.4881
34.0753 26.2171
34.262 25.8288
34.4488 25.4999
34.6357 25.1619
34.8227 24.8825
35.0098 24.6762
35.1969 24.3568
35.3842 24.1531
35.5716 23.957
35.759 23.7223
35.9468 23.2604
36.1345 22.9707
36.3222 22.7891
36.5101 22.6067
36.6981 22.2576
36.8861 21.9059
37.0743 21.6291
37.2626 21.4344
37.451 21.0794
37.6395 20.9755
37.8281 20.6439
38.0168 20.3276
38.2056 20.1049
38.3945 19.8249
38.5837 19.5873
38.7728 19.303
38.9621 19.0319
39.1514 18.8231
39.3409 18.5615
39.5304 18.3928
39.7201 18.1684
39.9099 17.9775
40.0999 17.7053
40.2899 17.4993
40.48 17.2537
40.6703 17.006
40.8607 16.8459
41.0512 16.6222
41.242 16.3302
41.4327 16.1793
41.6236 15.8981
41.8146 15.7372
42.0057 15.5589
42.1969 15.3032
42.3882 15.1469
42.5797 14.9439
42.7713 14.7304
42.963 14.5391
43.1549 14.3008
43.3468 14.1212
43.5389 13.9115
43.7312 13.7386
43.9237 13.5404
44.1162 13.3193
44.3088 13.1853
44.5016 12.9845
44.6945 12.7803
44.8875 12.6603
45.0806 12.4286
45.2739 12.2693
45.4673 12.1379
45.6609 11.9241
45.8546 11.7963
46.0484 11.6227
46.2424 11.4455
46.4365 11.2749
46.631 11.0904
46.8254 10.9272
47.0199 10.7466
47.2146 10.5993
47.4095 10.4445
47.6044 10.2588
47.7996 10.1599
47.9948 9.98703
48.1902 9.85545
48.3858 9.74857
48.5815 9.61103
48.7774 9.4664
48.9734 9.31373
49.1696 9.13431
49.3661 9.02145
49.5626 8.87263
49.7592 8.77962
49.956 8.60009
50.153 8.49728
50.3501 8.33494
50.5474 8.26262
50.7448 8.10669
50.9424 7.97226
51.1402 7.85442
51.3381 7.71997
51.5362 7.58855
51.7344 7.45568
51.9328 7.36646
52.1316 7.21316
52.3304 7.13981
52.5293 6.96087
52.7284 6.90775
52.9276 6.78413
53.1271 6.66868
53.3267 6.52855
53.5265 6.43613
53.7264 6.31867
53.9266 6.24416
54.1269 6.06513
54.3274 5.94662
54.528 5.80675
54.7289 5.71608
54.9301 5.48841
55.1314 5.38377
55.3328 5.23305
55.5344 5.0118
55.7361 4.85741