File: XRD/Ni3Fe_FD0489.xy
TT I
1.27165 7.40387
1.45013 5.2776
1.62863 4.80335
1.80712 5.1694
1.98562 4.06103
2.16411 4.43084
2.34263 5.75735
2.52115 6.5829
2.69965 7.68655
2.87818 9.10544
3.05672 11.2448
3.23527 15.0353
3.4138 19.1565
3.59237 24.3796
3.77094 26.0992
3.9495 30.5246
4.12809 34.8633
4.30669 158.271
4.4853 59.9662
4.6639 56.1614
4.84253 68.8949
5.02118 89.3862
5.19981 451.518
5.37848 205.253
5.55716 104.626
5.73586 94.535
5.91455 97.4958
6.09328 4212.38
6.27201 84.2728
6.45075 68.5773
6.62952 63.6014
6.8083 59.1911
6.98711 56.5432
7.16591 56.3064
7.34475 80.5035
7.5236 55.5353
7.70247 57.4225
7.88135 58.7624
8.06026 63.1924
8.23919 70.8765
8.41812 86.6714
8.59709 1222.12
8.77609 102.378
8.9551 91.5419
9.13412 83.5895
9.31318 84.2982
9.49226 85.831
9.67134 97.569
9.85047 101.844
10.0296 388.82
10.2088 453.438
10.388 107.596
10.5672 492.832
10.7465 88.1648
10.9257 79.526
11.105 72.7897
11.2844 70.7751
11.4637 65.7187
11.6431 64.4338
11.8225 63.4494
12.002 65.113
12.1814 154.917
12.3609 70.4058
12.5405 65.7796
12.72 70.0157
12.8996 72.16
13.0792 80.8584
13.2589 248.486
13.4386 131.638
13.6183 251.583
13.7981 103.235
13.9779 77.29
14.1577 73.3401
14.3376 72.0102
14.5175 70.3183
14.6974 71.6412
14.8774 116.62
15.0574 157.216
15.2374 71.6267
15.4175 67.6862
15.5976 66.9089
15.7778 99.6974
15.958 158.268
16.1382 63.1443
16.3185 59.205
16.4988 56.426
16.6792 55.4257
16.8596 56.0442
17.04 56.9364
17.2205 68.7205
17.401 72.8699
17.5815 60.295
17.7622 62.384
17.9428 76.3541
18.1237 136.118
18.3044 92.3643
18.4852 80.4175
18.666 61.3843
18.8469 58.913
19.0278 57.8128
19.2088 60.5977
19.3898 75.6268
19.5709 55.1711
19.752 54.2066
19.9332 57.4742
20.1144 70.0343
20.2957 64.1121
20.477 54.7271
20.6586 50.4624
20.84 49.6429
21.0215 49.4309
21.203 51.6199
21.3846 49.7978
21.5662 49.5002
21.7479 53.8812
21.9297 64.8658
22.1115 56.4547
22.2933 50.8372
22.4753 49.6094
22.6572 49.8829
22.8393 53.0811
23.0214 57.8582
23.2037 49.7458
23.3859 50.8646
23.5682 56.9014
23.7505 49.6735
23.9329 45.9906
24.1154 44.8195
24.2979 44.2685
24.4805 43.6079
24.6631 43.5052
24.8458 42.9203
25.0286 43.6076
25.2114 45.2888
25.3943 45.184
25.5773 41.5543
25.7605 41.0892
25.9436 41.6255
26.1268 42.1659
26.31 40.8717
26.4933 41.3671
26.6767 42.5852
26.8601 41.1783
27.0437 39.6491
27.2272 39.2287
27.4109 39.0113
27.5946 39.0064
27.7784 38.6137
27.9623 39.0121
28.1462 39.3545
28.3304 37.8551
28.5145 36.4978
28.6987 36.1987
28.8829 36.0284
29.0673 35.3082
29.2517 34.9098
29.4361 34.6508
29.6207 33.659
29.8053 33.5014
29.99 32.9851
30.1748 33.0253
30.3597 32.8913
30.5447 32.6647
30.7297 32.7083
30.915 32.1552
31.1002 31.652
31.2855 31.3741
31.4708 31.2438
31.6563 30.9206
31.8418 30.4955
32.0275 30.3391
32.2132 29.8901
32.399 29.3829
32.5848 28.9182
32.7708 28.5912
32.9569 28.4377
33.143 28.1806
33.3293 27.8646
33.5158 27.5036
33.7022 26.9951
33.8887 26.7369
34.0753 26.3606
34.262 26.1213
34.4488 25.7272
34.6357 25.4063
34.8227 25.0113
35.0098 24.8814
35.1969 24.5727
35.3842 24.3431
35.5716 24.1369
35.759 23.8501
35.9468 23.4536
36.1345 23.2988
36.3222 23.0161
36.5101 22.7525
36.6981 22.4815
36.8861 22.1621
37.0743 21.8607
37.2626 21.5986
37.451 21.3722
37.6395 21.1076
37.8281 20.8375
38.0168 20.5792
38.2056 20.2792
38.3945 19.9955
38.5837 19.7681
38.7728 19.4749
38.9621 19.2512
39.1514 19.0447
39.3409 18.7807
39.5304 18.5696
39.7201 18.3571
39.9099 18.1425
40.0999 17.8639
40.2899 17.6475
40.48 17.4065
40.6703 17.1722
40.8607 17.0202
41.0512 16.8143
41.242 16.479
41.4327 16.3151
41.6236 16.0405
41.8146 15.9164
42.0057 15.6784
42.1969 15.4619
42.3882 15.2844
42.5797 15.0869
42.7713 14.8754
42.963 14.6564
43.1549 14.4509
43.3468 14.2253
43.5389 14.0615
43.7312 13.8472
43.9237 13.664
44.1162 13.4763
44.3088 13.2796
44.5016 13.0706
44.6945 12.9283
44.8875 12.7585
45.0806 12.5454
45.2739 12.3672
45.4673 12.2719
45.6609 12.0339
45.8546 11.8589
46.0484 11.7085
46.2424 11.4775
46.4365 11.4094
46.631 11.2219
46.8254 11.0264
47.0199 10.8553
47.2146 10.7251
47.4095 10.5494
47.6044 10.3664
47.7996 10.2431
47.9948 10.1301
48.1902 9.91771
48.3858 9.79193
48.5815 9.69301
48.7774 9.52541
48.9734 9.36837
49.1696 9.22462
49.3661 9.06319
49.5626 8.93573
49.7592 8.83799
49.956 8.71265
50.153 8.56111
50.3501 8.41061
50.5474 8.31419
50.7448 8.17244
50.9424 8.04624
51.1402 7.94235
51.3381 7.76029
51.5362 7.61055
51.7344 7.53012
51.9328 7.42642
52.1316 7.26994
52.3304 7.15901
52.5293 7.03199
52.7284 6.93167
52.9276 6.81296
53.1271 6.70737
53.3267 6.58571
53.5265 6.49393
53.7264 6.39562
53.9266 6.30163
54.1269 6.13814
54.3274 6.02507
54.528 5.86394
54.7289 5.69865
54.9301 5.53156
55.1314 5.42073
55.3328 5.19913
55.5344 5.02458
55.7361 4.89066