File: XRD/Ni3Fe_FD0513.xy
TT I
1.27165 8.13476
1.45013 6.29395
1.62863 5.22722
1.80712 4.79743
1.98562 4.46268
2.16411 5.21375
2.34263 5.53445
2.52115 6.70877
2.69965 7.23119
2.87818 8.92652
3.05672 11.353
3.23527 15.133
3.4138 18.8463
3.59237 24.0995
3.77094 26.3363
3.9495 30.2496
4.12809 35.5004
4.30669 232.795
4.4853 67.9804
4.6639 56.4352
4.84253 68.2533
5.02118 88.3688
5.19981 389.503
5.37848 204.86
5.55716 103.813
5.73586 93.8071
5.91455 96.1821
6.09328 4083.63
6.27201 84.5727
6.45075 68.5304
6.62952 63.9945
6.8083 59.5941
6.98711 56.4923
7.16591 56.5121
7.34475 95.9233
7.5236 55.5509
7.70247 56.8429
7.88135 58.6442
8.06026 62.7559
8.23919 70.5841
8.41812 86.2852
8.59709 1140.82
8.77609 102.023
8.9551 93.0578
9.13412 82.6054
9.31318 83.4776
9.49226 85.2613
9.67134 100.365
9.85047 100.946
10.0296 351.14
10.2088 449.178
10.388 106.189
10.5672 494.026
10.7465 88.0487
10.9257 79.6428
11.105 72.5934
11.2844 71.5368
11.4637 65.6461
11.6431 64.4356
11.8225 63.5991
12.002 64.3642
12.1814 153.767
12.3609 72.3964
12.5405 65.5758
12.72 71.3234
12.8996 71.8477
13.0792 79.7979
13.2589 234.427
13.4386 131.77
13.6183 241.074
13.7981 103.326
13.9779 76.8985
14.1577 73.279
14.3376 72.6467
14.5175 69.7266
14.6974 71.3853
14.8774 110.901
15.0574 155.439
15.2374 72.2618
15.4175 67.3834
15.5976 66.5493
15.7778 95.6417
15.958 161.315
16.1382 63.8025
16.3185 59.6778
16.4988 56.4216
16.6792 55.2503
16.8596 56.0225
17.04 56.6768
17.2205 67.1479
17.401 72.5072
17.5815 60.1153
17.7622 62.1846
17.9428 74.7836
18.1237 137.417
18.3044 90.7208
18.4852 80.7931
18.666 61.3656
18.8469 58.7759
19.0278 57.8153
19.2088 60.4043
19.3898 76.8632
19.5709 55.0167
19.752 53.9408
19.9332 56.8308
20.1144 70.3694
20.2957 64.0063
20.477 54.8209
20.6586 50.3007
20.84 49.4944
21.0215 49.2009
21.203 51.5108
21.3846 49.6333
21.5662 49.3743
21.7479 53.2124
21.9297 64.967
22.1115 56.3786
22.2933 50.6234
22.4753 49.5701
22.6572 49.5891
22.8393 52.3758
23.0214 58.316
23.2037 49.458
23.3859 50.4283
23.5682 57.0108
23.7505 49.4327
23.9329 45.8366
24.1154 44.6838
24.2979 44.0828
24.4805 43.5624
24.6631 43.58
24.8458 42.7794
25.0286 43.4166
25.2114 45.2319
25.3943 45.2015
25.5773 41.4643
25.7605 41.0301
25.9436 41.345
26.1268 42.1179
26.31 40.718
26.4933 41.3133
26.6767 42.6638
26.8601 40.9505
27.0437 39.4418
27.2272 39.0739
27.4109 39.0051
27.5946 38.83
27.7784 38.3298
27.9623 38.9373
28.1462 39.3053
28.3304 37.6158
28.5145 36.4147
28.6987 36.1848
28.8829 35.9116
29.0673 35.0981
29.2517 34.7865
29.4361 34.6837
29.6207 33.6688
29.8053 33.3095
29.99 32.9672
30.1748 32.8492
30.3597 32.6634
30.5447 32.5949
30.7297 32.6725
30.915 32.0195
31.1002 31.5251
31.2855 31.1507
31.4708 31.1948
31.6563 30.8036
31.8418 30.5809
32.0275 30.3156
32.2132 29.7719
32.399 29.2954
32.5848 28.876
32.7708 28.449
32.9569 28.3457
33.143 28.1386
33.3293 27.8275
33.5158 27.3127
33.7022 26.9875
33.8887 26.6065
34.0753 26.3539
34.262 25.9445
34.4488 25.6011
34.6357 25.2495
34.8227 25.0655
35.0098 24.8558
35.1969 24.492
35.3842 24.2853
35.5716 24.1099
35.759 23.7801
35.9468 23.4745
36.1345 23.1433
36.3222 23.0052
36.5101 22.7825
36.6981 22.4161
36.8861 22.0556
37.0743 21.8617
37.2626 21.5291
37.451 21.2971
37.6395 21.0852
37.8281 20.7761
38.0168 20.4362
38.2056 20.2131
38.3945 19.9027
38.5837 19.738
38.7728 19.4653
38.9621 19.2538
39.1514 19.0239
39.3409 18.732
39.5304 18.5468
39.7201 18.3126
39.9099 18.0319
40.0999 17.8512
40.2899 17.5802
40.48 17.3603
40.6703 17.1163
40.8607 16.9438
41.0512 16.765
41.242 16.4641
41.4327 16.2596
41.6236 16.0758
41.8146 15.8503
42.0057 15.6666
42.1969 15.4024
42.3882 15.1984
42.5797 15.0644
42.7713 14.7918
42.963 14.5801
43.1549 14.4205
43.3468 14.184
43.5389 14.0208
43.7312 13.833
43.9237 13.5952
44.1162 13.4185
44.3088 13.2644
44.5016 13.0789
44.6945 12.8859
44.8875 12.7103
45.0806 12.5422
45.2739 12.3733
45.4673 12.1913
45.6609 12.0101
45.8546 11.8586
46.0484 11.6654
46.2424 11.5084
46.4365 11.3198
46.631 11.1852
46.8254 11.0327
47.0199 10.8409
47.2146 10.7023
47.4095 10.4929
47.6044 10.4043
47.7996 10.2407
47.9948 10.0644
48.1902 9.941
48.3858 9.79912
48.5815 9.66584
48.7774 9.53596
48.9734 9.3401
49.1696 9.23374
49.3661 9.06911
49.5626 8.95085
49.7592 8.79047
49.956 8.68332
50.153 8.55588
50.3501 8.41309
50.5474 8.2948
50.7448 8.20137
50.9424 8.04696
51.1402 7.89638
51.3381 7.77826
51.5362 7.65702
51.7344 7.5495
51.9328 7.41622
52.1316 7.27914
52.3304 7.18247
52.5293 7.0688
52.7284 6.94712
52.9276 6.8492
53.1271 6.70953
53.3267 6.61764
53.5265 6.48513
53.7264 6.34678
53.9266 6.25849
54.1269 6.13536
54.3274 6.01368
54.528 5.88469
54.7289 5.72631
54.9301 5.57642
55.1314 5.46744
55.3328 5.25667
55.5344 5.01216
55.7361 4.85257