File: XRD/Ni3Fe_FD1046.xy
TT I
1.27165 6.92992
1.45013 5.32968
1.62863 5.21384
1.80712 4.46143
1.98562 4.20432
2.16411 3.92816
2.34263 5.40116
2.52115 7.16457
2.69965 8.51937
2.87818 8.85259
3.05672 10.476
3.23527 15.1633
3.4138 18.5085
3.59237 21.5745
3.77094 24.503
3.9495 27.8525
4.12809 32.7075
4.30669 57.4078
4.4853 46.388
4.6639 53.0355
4.84253 64.3574
5.02118 83.4126
5.19981 233.755
5.37848 214.369
5.55716 97.533
5.73586 87.8262
5.91455 89.0091
6.09328 4554.92
6.27201 75.9005
6.45075 63.5167
6.62952 58.3759
6.8083 54.4127
6.98711 52.6792
7.16591 51.6456
7.34475 55.8146
7.5236 59.2394
7.70247 53.2468
7.88135 55.0269
8.06026 59.3153
8.23919 65.6252
8.41812 78.1348
8.59709 1087.96
8.77609 95.0335
8.9551 82.5182
9.13412 79.2954
9.31318 89.5847
9.49226 81.2694
9.67134 86.5916
9.85047 94.0387
10.0296 348.042
10.2088 437.174
10.388 97.929
10.5672 506.353
10.7465 86.8404
10.9257 73.5354
11.105 68.2424
11.2844 64.7873
11.4637 61.5311
11.6431 60.4909
11.8225 59.7866
12.002 66.8885
12.1814 146.82
12.3609 64.3771
12.5405 61.5797
12.72 63.8496
12.8996 67.8701
13.0792 76.8394
13.2589 228.127
13.4386 126.896
13.6183 236.716
13.7981 100.319
13.9779 73.2566
14.1577 75.727
14.3376 67.2754
14.5175 66.3653
14.6974 67.4719
14.8774 109.792
15.0574 160.496
15.2374 66.6802
15.4175 64.0362
15.5976 63.3691
15.7778 94.0625
15.958 167.374
16.1382 59.9376
16.3185 55.3904
16.4988 53.4377
16.6792 52.5078
16.8596 52.8635
17.04 53.8241
17.2205 64.9049
17.401 71.7544
17.5815 57.2127
17.7622 60.1556
17.9428 73.0172
18.1237 141.879
18.3044 88.943
18.4852 78.939
18.666 58.8678
18.8469 56.4379
19.0278 55.0367
19.2088 57.9838
19.3898 76.2428
19.5709 53.0389
19.752 51.8055
19.9332 55.0266
20.1144 70.1076
20.2957 63.5399
20.477 52.8839
20.6586 48.3003
20.84 48.0015
21.0215 47.2092
21.203 49.5305
21.3846 47.7622
21.5662 47.7031
21.7479 51.7616
21.9297 65.2278
22.1115 55.8589
22.2933 48.9955
22.4753 47.4284
22.6572 47.6661
22.8393 51.0189
23.0214 57.5588
23.2037 47.8443
23.3859 49.3743
23.5682 57.0117
23.7505 48.1111
23.9329 44.3643
24.1154 43.0793
24.2979 42.4322
24.4805 41.9271
24.6631 42.0035
24.8458 41.3074
25.0286 42.0129
25.2114 44.2344
25.3943 44.1593
25.5773 40.1319
25.7605 39.6999
25.9436 39.9317
26.1268 41.214
26.31 39.4993
26.4933 40.0154
26.6767 41.7486
26.8601 39.9674
27.0437 38.2199
27.2272 37.9
27.4109 37.7498
27.5946 37.8
27.7784 37.4349
27.9623 37.9118
28.1462 38.6591
28.3304 36.8018
28.5145 35.3061
28.6987 35.0044
28.8829 34.9397
29.0673 34.0393
29.2517 33.6832
29.4361 33.6103
29.6207 32.5998
29.8053 32.2116
29.99 31.9552
30.1748 31.8497
30.3597 31.7803
30.5447 31.6134
30.7297 31.7967
30.915 31.1195
31.1002 30.6331
31.2855 30.3608
31.4708 30.4861
31.6563 29.9504
31.8418 29.7452
32.0275 29.4852
32.2132 28.8537
32.399 28.5327
32.5848 28.0316
32.7708 27.7307
32.9569 27.5127
33.143 27.3533
33.3293 27.0296
33.5158 26.6551
33.7022 26.105
33.8887 25.9703
34.0753 25.5752
34.262 25.2718
34.4488 24.8581
34.6357 24.583
34.8227 24.3126
35.0098 24.0816
35.1969 23.7716
35.3842 23.6224
35.5716 23.4293
35.759 23.1427
35.9468 22.7223
36.1345 22.5603
36.3222 22.334
36.5101 21.9722
36.6981 21.839
36.8861 21.4778
37.0743 21.1519
37.2626 20.924
37.451 20.6415
37.6395 20.5764
37.8281 20.1647
38.0168 19.8727
38.2056 19.6476
38.3945 19.3356
38.5837 19.0984
38.7728 18.8769
38.9621 18.6349
39.1514 18.4459
39.3409 18.1414
39.5304 17.9278
39.7201 17.806
39.9099 17.5869
40.0999 17.3532
40.2899 17.0837
40.48 16.8569
40.6703 16.6501
40.8607 16.545
41.0512 16.2369
41.242 15.9614
41.4327 15.7572
41.6236 15.6205
41.8146 15.4313
42.0057 15.1839
42.1969 14.9921
42.3882 14.803
42.5797 14.5585
42.7713 14.4008
42.963 14.2177
43.1549 13.9988
43.3468 13.7428
43.5389 13.6251
43.7312 13.3935
43.9237 13.2479
44.1162 13.0705
44.3088 12.8873
44.5016 12.6926
44.6945 12.4836
44.8875 12.3238
45.0806 12.2031
45.2739 11.9783
45.4673 11.8358
45.6609 11.6991
45.8546 11.4909
46.0484 11.336
46.2424 11.1357
46.4365 11.0336
46.631 10.8458
46.8254 10.639
47.0199 10.5574
47.2146 10.377
47.4095 10.2301
47.6044 10.0358
47.7996 9.91954
47.9948 9.80373
48.1902 9.64436
48.3858 9.49093
48.5815 9.36318
48.7774 9.261
48.9734 9.09558
49.1696 8.95097
49.3661 8.80737
49.5626 8.66549
49.7592 8.52233
49.956 8.40738
50.153 8.29577
50.3501 8.1481
50.5474 8.02228
50.7448 7.92413
50.9424 7.8137
51.1402 7.66895
51.3381 7.52284
51.5362 7.44439
51.7344 7.32412
51.9328 7.20393
52.1316 7.07677
52.3304 6.9231
52.5293 6.80372
52.7284 6.72723
52.9276 6.62489
53.1271 6.54454
53.3267 6.38582
53.5265 6.2529
53.7264 6.21124
53.9266 6.08646
54.1269 5.985
54.3274 5.81651
54.528 5.69102
54.7289 5.54425
54.9301 5.4255
55.1314 5.26248
55.3328 5.05429
55.5344 4.87934
55.7361 4.77278