File: XRD/Ni3Fe_FD1045.xy
TT I
1.27165 6.88669
1.45013 6.02318
1.62863 4.6805
1.80712 4.20807
1.98562 4.33293
2.16411 4.28451
2.34263 4.48589
2.52115 7.22624
2.69965 8.34957
2.87818 9.14885
3.05672 10.9293
3.23527 14.4884
3.4138 18.2795
3.59237 21.1949
3.77094 24.5918
3.9495 28.1609
4.12809 32.4971
4.30669 57.233
4.4853 46.0125
4.6639 52.1527
4.84253 63.9047
5.02118 82.8934
5.19981 232.266
5.37848 214.157
5.55716 97.3361
5.73586 87.7867
5.91455 88.7168
6.09328 4597.5
6.27201 75.8619
6.45075 63.246
6.62952 57.8143
6.8083 54.3852
6.98711 52.5209
7.16591 51.5681
7.34475 56.1749
7.5236 59.2421
7.70247 53.1329
7.88135 55.0652
8.06026 58.8872
8.23919 65.7638
8.41812 77.6421
8.59709 1082.73
8.77609 94.748
8.9551 82.0632
9.13412 79.0282
9.31318 89.6828
9.49226 80.7209
9.67134 85.9007
9.85047 93.5859
10.0296 346.388
10.2088 439.927
10.388 97.615
10.5672 504.228
10.7465 86.6893
10.9257 73.4784
11.105 68.1629
11.2844 64.6346
11.4637 61.727
11.6431 60.5686
11.8225 59.5793
12.002 66.9639
12.1814 146.512
12.3609 64.5752
12.5405 61.424
12.72 63.839
12.8996 67.4596
13.0792 76.4505
13.2589 226.849
13.4386 126.988
13.6183 235.761
13.7981 100.32
13.9779 73.0574
14.1577 75.6609
14.3376 67.145
14.5175 66.1599
14.6974 67.1575
14.8774 109.118
15.0574 161.181
15.2374 66.4155
15.4175 63.9583
15.5976 63.0494
15.7778 93.9311
15.958 168.174
16.1382 60.0133
16.3185 55.5778
16.4988 53.4561
16.6792 52.4718
16.8596 52.7324
17.04 53.6128
17.2205 64.6677
17.401 71.9655
17.5815 57.1634
17.7622 59.9797
17.9428 73.2148
18.1237 141.976
18.3044 88.8884
18.4852 79.2487
18.666 58.6972
18.8469 56.3957
19.0278 55.0655
19.2088 58.0115
19.3898 76.1576
19.5709 53.0228
19.752 51.7133
19.9332 54.7592
20.1144 70.2314
20.2957 63.4404
20.477 52.873
20.6586 48.0726
20.84 47.9458
21.0215 47.3461
21.203 49.487
21.3846 47.8443
21.5662 47.45
21.7479 51.601
21.9297 65.0754
22.1115 55.8233
22.2933 49.1096
22.4753 47.5155
22.6572 47.6355
22.8393 51.0505
23.0214 57.2501
23.2037 47.7534
23.3859 49.2596
23.5682 57.145
23.7505 48.1158
23.9329 44.1718
24.1154 43.1385
24.2979 42.4153
24.4805 41.9447
24.6631 41.7863
24.8458 41.351
25.0286 41.9153
25.2114 44.322
25.3943 44.2861
25.5773 40.0563
25.7605 39.6334
25.9436 40.1163
26.1268 41.0965
26.31 39.2687
26.4933 40.0034
26.6767 41.8727
26.8601 39.8471
27.0437 38.2341
27.2272 37.8914
27.4109 37.607
27.5946 37.8676
27.7784 37.2562
27.9623 37.9996
28.1462 38.5977
28.3304 36.7912
28.5145 35.2888
28.6987 35.1629
28.8829 34.8042
29.0673 34.1628
29.2517 33.5846
29.4361 33.6032
29.6207 32.5836
29.8053 32.051
29.99 31.9129
30.1748 31.7831
30.3597 31.6197
30.5447 31.6631
30.7297 31.7791
30.915 31.1908
31.1002 30.6552
31.2855 30.4195
31.4708 30.2805
31.6563 29.9671
31.8418 29.7261
32.0275 29.5286
32.2132 28.9991
32.399 28.4515
32.5848 27.9136
32.7708 27.6913
32.9569 27.5093
33.143 27.3702
33.3293 27.0138
33.5158 26.569
33.7022 26.1501
33.8887 25.8902
34.0753 25.5397
34.262 25.2173
34.4488 24.8635
34.6357 24.6111
34.8227 24.3076
35.0098 24.0319
35.1969 23.7257
35.3842 23.5897
35.5716 23.4533
35.759 23.1369
35.9468 22.7347
36.1345 22.5073
36.3222 22.2936
36.5101 22.1191
36.6981 21.799
36.8861 21.4547
37.0743 21.2556
37.2626 20.9997
37.451 20.6585
37.6395 20.4723
37.8281 20.1614
38.0168 19.8981
38.2056 19.6309
38.3945 19.3391
38.5837 19.0969
38.7728 18.884
38.9621 18.6443
39.1514 18.3413
39.3409 18.1379
39.5304 17.935
39.7201 17.7371
39.9099 17.5878
40.0999 17.3017
40.2899 17.1004
40.48 16.8107
40.6703 16.728
40.8607 16.4369
41.0512 16.3193
41.242 16.0115
41.4327 15.7977
41.6236 15.5778
41.8146 15.4129
42.0057 15.1115
42.1969 15.0024
42.3882 14.821
42.5797 14.5795
42.7713 14.4001
42.963 14.1838
43.1549 14.0378
43.3468 13.7838
43.5389 13.6181
43.7312 13.4106
43.9237 13.2381
44.1162 13.0636
44.3088 12.8425
44.5016 12.6607
44.6945 12.5362
44.8875 12.3573
45.0806 12.1459
45.2739 11.9629
45.4673 11.8615
45.6609 11.6402
45.8546 11.5079
46.0484 11.3247
46.2424 11.2142
46.4365 11.0133
46.631 10.8424
46.8254 10.728
47.0199 10.4963
47.2146 10.3962
47.4095 10.2024
47.6044 10.0533
47.7996 9.95551
47.9948 9.76184
48.1902 9.63064
48.3858 9.5319
48.5815 9.35704
48.7774 9.22909
48.9734 9.06747
49.1696 8.96484
49.3661 8.81713
49.5626 8.65157
49.7592 8.54947
49.956 8.43161
50.153 8.28893
50.3501 8.17913
50.5474 8.04557
50.7448 7.93588
50.9424 7.77587
51.1402 7.69356
51.3381 7.55748
51.5362 7.42614
51.7344 7.29396
51.9328 7.15455
52.1316 7.05212
52.3304 6.91149
52.5293 6.8164
52.7284 6.7452
52.9276 6.63909
53.1271 6.54212
53.3267 6.42493
53.5265 6.25875
53.7264 6.17306
53.9266 6.05386
54.1269 5.93658
54.3274 5.85087
54.528 5.70063
54.7289 5.58125
54.9301 5.40714
55.1314 5.26073
55.3328 5.06883
55.5344 4.89999
55.7361 4.76708