File: XRD/Ni3Fe_FD0155.xy
TT I
1.27165 8.2003
1.45013 6.96565
1.62863 6.03304
1.80712 4.87152
1.98562 5.43026
2.16411 4.61976
2.34263 4.89572
2.52115 4.3024
2.69965 5.59923
2.87818 8.16684
3.05672 11.1622
3.23527 15.3026
3.4138 18.7315
3.59237 22.1261
3.77094 25.2738
3.9495 28.7871
4.12809 32.9535
4.30669 38.193
4.4853 44.7491
4.6639 53.636
4.84253 66.3144
5.02118 90.5978
5.19981 546.01
5.37848 445.207
5.55716 107.823
5.73586 95.8335
5.91455 105.334
6.09328 2738.99
6.27201 88.9972
6.45075 66.4961
6.62952 59.6364
6.8083 55.197
6.98711 53.1882
7.16591 52.465
7.34475 51.8411
7.5236 56.1162
7.70247 53.9344
7.88135 56.4299
8.06026 60.726
8.23919 67.5423
8.41812 83.3929
8.59709 892.652
8.77609 115.824
8.9551 85.4749
9.13412 81.4915
9.31318 85.9892
9.49226 83.7073
9.67134 88.4594
9.85047 98.6793
10.0296 544.464
10.2088 974.271
10.388 104.291
10.5672 331.827
10.7465 90.2837
10.9257 75.7422
11.105 70.3601
11.2844 66.1345
11.4637 63.5101
11.6431 61.9891
11.8225 61.0884
12.002 65.2408
12.1814 118.271
12.3609 74.9085
12.5405 62.8605
12.72 65.1664
12.8996 69.7336
13.0792 79.0956
13.2589 205.254
13.4386 209.629
13.6183 192.975
13.7981 154.018
13.9779 75.9818
14.1577 74.1155
14.3376 68.9746
14.5175 68.1843
14.6974 69.8183
14.8774 121.059
15.0574 203.143
15.2374 69.1358
15.4175 66.2697
15.5976 65.6996
15.7778 107.219
15.958 184.86
16.1382 61.6442
16.3185 57.0825
16.4988 54.9132
16.6792 53.8524
16.8596 54.0366
17.04 55.2648
17.2205 65.3417
17.401 80.9037
17.5815 58.9435
17.7622 61.3621
17.9428 83.4562
18.1237 115.445
18.3044 88.0094
18.4852 94.7804
18.666 60.772
18.8469 58.0607
19.0278 56.6818
19.2088 61.6877
19.3898 69.1587
19.5709 56.2579
19.752 53.1391
19.9332 57.9685
20.1144 67.0749
20.2957 61.0694
20.477 58.7295
20.6586 49.7383
20.84 48.8999
21.0215 48.7991
21.203 49.6155
21.3846 50.3374
21.5662 48.9129
21.7479 54.0447
21.9297 62.1553
22.1115 56.4062
22.2933 52.4559
22.4753 48.912
22.6572 48.9992
22.8393 52.0489
23.0214 57.1795
23.2037 49.7164
23.3859 51.7157
23.5682 53.6429
23.7505 53.2013
23.9329 45.644
24.1154 44.3106
24.2979 43.7011
24.4805 42.9674
24.6631 43.2174
24.8458 42.3983
25.0286 42.9584
25.2114 44.6973
25.3943 44.8627
25.5773 41.7046
25.7605 40.7513
25.9436 41.1213
26.1268 41.6274
26.31 40.9819
26.4933 41.0369
26.6767 42.004
26.8601 41.3179
27.0437 39.5272
27.2272 38.9126
27.4109 38.7127
27.5946 38.6668
27.7784 38.4297
27.9623 38.5159
28.1462 39.3511
28.3304 38.0022
28.5145 36.3032
28.6987 35.8858
28.8829 35.4321
29.0673 35.1488
29.2517 34.5035
29.4361 34.2108
29.6207 33.4933
29.8053 33.0746
29.99 32.816
30.1748 32.6272
30.3597 32.6566
30.5447 32.4496
30.7297 32.347
30.915 32.0987
31.1002 31.4143
31.2855 31.1927
31.4708 30.9874
31.6563 30.8956
31.8418 30.3584
32.0275 30.2654
32.2132 29.8116
32.399 29.1738
32.5848 28.7545
32.7708 28.3171
32.9569 28.176
33.143 27.9223
33.3293 27.6258
33.5158 27.4288
33.7022 26.8659
33.8887 26.5362
34.0753 26.2545
34.262 25.8312
34.4488 25.5081
34.6357 25.1329
34.8227 24.9072
35.0098 24.6249
35.1969 24.4549
35.3842 24.1788
35.5716 23.9786
35.759 23.6642
35.9468 23.2676
36.1345 23.0157
36.3222 22.8477
36.5101 22.5373
36.6981 22.3243
36.8861 21.9395
37.0743 21.5798
37.2626 21.4375
37.451 21.1743
37.6395 20.9759
37.8281 20.6668
38.0168 20.4374
38.2056 20.1296
38.3945 19.8154
38.5837 19.5921
38.7728 19.3726
38.9621 19.1113
39.1514 18.7856
39.3409 18.609
39.5304 18.41
39.7201 18.1855
39.9099 17.9642
40.0999 17.7051
40.2899 17.4973
40.48 17.2787
40.6703 16.9887
40.8607 16.9003
41.0512 16.6372
41.242 16.3819
41.4327 16.1654
41.6236 15.9563
41.8146 15.7781
42.0057 15.5493
42.1969 15.3026
42.3882 15.1497
42.5797 14.9267
42.7713 14.7458
42.963 14.5175
43.1549 14.3432
43.3468 14.11
43.5389 13.9033
43.7312 13.7141
43.9237 13.5556
44.1162 13.368
44.3088 13.1513
44.5016 12.9781
44.6945 12.7967
44.8875 12.6481
45.0806 12.4744
45.2739 12.2997
45.4673 12.0857
45.6609 11.9481
45.8546 11.7625
46.0484 11.5983
46.2424 11.4456
46.4365 11.2865
46.631 11.1379
46.8254 10.9018
47.0199 10.7547
47.2146 10.6166
47.4095 10.4403
47.6044 10.2734
47.7996 10.1576
47.9948 9.9988
48.1902 9.85819
48.3858 9.77781
48.5815 9.616
48.7774 9.46913
48.9734 9.29011
49.1696 9.1566
49.3661 9.04225
49.5626 8.8744
49.7592 8.79543
49.956 8.6107
50.153 8.4962
50.3501 8.34297
50.5474 8.2586
50.7448 8.10588
50.9424 7.96665
51.1402 7.85138
51.3381 7.75147
51.5362 7.60754
51.7344 7.46932
51.9328 7.36434
52.1316 7.23851
52.3304 7.17953
52.5293 6.97102
52.7284 6.92688
52.9276 6.78178
53.1271 6.6967
53.3267 6.57017
53.5265 6.44465
53.7264 6.34962
53.9266 6.18209
54.1269 6.08804
54.3274 5.93325
54.528 5.80857
54.7289 5.59955
54.9301 5.47606
55.1314 5.32958
55.3328 5.09958
55.5344 4.87534
55.7361 4.80983