File: XRD/Ni3Fe_FD0497.xy
TT I
1.27165 7.06764
1.45013 6.21739
1.62863 5.23159
1.80712 4.78436
1.98562 5.01684
2.16411 5.37453
2.34263 4.92667
2.52115 6.30874
2.69965 7.68686
2.87818 8.49542
3.05672 10.8582
3.23527 15.1459
3.4138 19.0799
3.59237 24.3466
3.77094 26.4685
3.9495 30.048
4.12809 35.2056
4.30669 191.742
4.4853 63.699
4.6639 56.2658
4.84253 67.8968
5.02118 88.6517
5.19981 408.107
5.37848 204.161
5.55716 104.357
5.73586 93.8171
5.91455 96.809
6.09328 4263.15
6.27201 85.0832
6.45075 68.2777
6.62952 63.525
6.8083 59.2649
6.98711 56.7968
7.16591 55.9802
7.34475 86.5636
7.5236 55.1204
7.70247 57.0303
7.88135 58.4811
8.06026 62.7313
8.23919 70.4584
8.41812 86.4506
8.59709 1202.9
8.77609 102.796
8.9551 92.4139
9.13412 83.2422
9.31318 83.6272
9.49226 85.8557
9.67134 98.7597
9.85047 101.803
10.0296 371.113
10.2088 455.393
10.388 106.329
10.5672 507.375
10.7465 88.2352
10.9257 79.6875
11.105 72.988
11.2844 70.9239
11.4637 65.8278
11.6431 64.3721
11.8225 63.2107
12.002 64.3414
12.1814 154.281
12.3609 71.4641
12.5405 65.4169
12.72 70.5148
12.8996 72.0723
13.0792 79.9828
13.2589 242.616
13.4386 132.481
13.6183 248.686
13.7981 103.247
13.9779 77.1043
14.1577 73.3784
14.3376 72.374
14.5175 69.8192
14.6974 71.3411
14.8774 113.404
15.0574 156.92
15.2374 71.9429
15.4175 67.3996
15.5976 66.7962
15.7778 97.5368
15.958 159.386
16.1382 63.5319
16.3185 59.3236
16.4988 56.4905
16.6792 55.4239
16.8596 56.0349
17.04 56.665
17.2205 68.0581
17.401 72.7481
17.5815 60.1913
17.7622 62.3011
17.9428 75.538
18.1237 136.533
18.3044 91.6501
18.4852 80.5921
18.666 61.5136
18.8469 58.9124
19.0278 57.6708
19.2088 60.4868
19.3898 76.2165
19.5709 55.1471
19.752 53.992
19.9332 57.261
20.1144 69.8291
20.2957 64.3066
20.477 54.8202
20.6586 50.291
20.84 49.5921
21.0215 49.5657
21.203 51.3634
21.3846 49.7781
21.5662 49.6571
21.7479 53.5608
21.9297 64.7111
22.1115 56.5105
22.2933 50.7223
22.4753 49.5837
22.6572 49.4324
22.8393 52.593
23.0214 58.0209
23.2037 49.4997
23.3859 50.6732
23.5682 57.0212
23.7505 49.3558
23.9329 45.8406
24.1154 44.7772
24.2979 44.0067
24.4805 43.5288
24.6631 43.3019
24.8458 42.8863
25.0286 43.4259
25.2114 45.2458
25.3943 45.1397
25.5773 41.5098
25.7605 41.0356
25.9436 41.4876
26.1268 42.1456
26.31 40.6797
26.4933 41.5079
26.6767 42.5976
26.8601 41.0325
27.0437 39.4397
27.2272 39.1426
27.4109 38.8717
27.5946 38.9373
27.7784 38.4748
27.9623 39.024
28.1462 39.3893
28.3304 37.7848
28.5145 36.4404
28.6987 36.1749
28.8829 35.9403
29.0673 35.1764
29.2517 34.8116
29.4361 34.5596
29.6207 33.6613
29.8053 33.2789
29.99 33.1112
30.1748 32.8472
30.3597 32.6793
30.5447 32.619
30.7297 32.7323
30.915 32.0861
31.1002 31.6296
31.2855 31.2702
31.4708 31.24
31.6563 30.8527
31.8418 30.4946
32.0275 30.3192
32.2132 29.7875
32.399 29.3539
32.5848 28.8351
32.7708 28.5498
32.9569 28.4473
33.143 28.1393
33.3293 27.7621
33.5158 27.3893
33.7022 26.9276
33.8887 26.7997
34.0753 26.4079
34.262 26.0235
34.4488 25.6847
34.6357 25.3559
34.8227 25.1054
35.0098 24.7578
35.1969 24.4645
35.3842 24.3201
35.5716 24.077
35.759 23.7455
35.9468 23.5259
36.1345 23.2943
36.3222 22.9444
36.5101 22.7574
36.6981 22.4677
36.8861 22.1052
37.0743 21.7772
37.2626 21.5508
37.451 21.2657
37.6395 21.0436
37.8281 20.7906
38.0168 20.4983
38.2056 20.2246
38.3945 19.9946
38.5837 19.7658
38.7728 19.5115
38.9621 19.1929
39.1514 18.9982
39.3409 18.7388
39.5304 18.4804
39.7201 18.3291
39.9099 18.15
40.0999 17.8929
40.2899 17.659
40.48 17.3115
40.6703 17.2043
40.8607 17.0352
41.0512 16.7391
41.242 16.4475
41.4327 16.3004
41.6236 16.037
41.8146 15.8342
42.0057 15.6047
42.1969 15.4589
42.3882 15.2553
42.5797 15.0356
42.7713 14.8217
42.963 14.5953
43.1549 14.3713
43.3468 14.2081
43.5389 14.0352
43.7312 13.871
43.9237 13.6372
44.1162 13.4656
44.3088 13.278
44.5016 13.0406
44.6945 12.8977
44.8875 12.6728
45.0806 12.5397
45.2739 12.3891
45.4673 12.1811
45.6609 12.0594
45.8546 11.8281
46.0484 11.6816
46.2424 11.5019
46.4365 11.3826
46.631 11.1509
46.8254 10.9868
47.0199 10.8598
47.2146 10.7105
47.4095 10.5386
47.6044 10.3969
47.7996 10.1976
47.9948 10.0746
48.1902 9.94248
48.3858 9.81132
48.5815 9.63868
48.7774 9.53088
48.9734 9.39739
49.1696 9.2191
49.3661 9.07365
49.5626 8.90949
49.7592 8.80616
49.956 8.71238
50.153 8.55098
50.3501 8.39993
50.5474 8.29458
50.7448 8.17684
50.9424 8.0548
51.1402 7.93531
51.3381 7.77401
51.5362 7.65479
51.7344 7.52821
51.9328 7.37975
52.1316 7.29734
52.3304 7.14868
52.5293 7.01056
52.7284 6.95604
52.9276 6.81364
53.1271 6.72364
53.3267 6.56941
53.5265 6.46831
53.7264 6.34372
53.9266 6.27463
54.1269 6.17959
54.3274 6.09641
54.528 5.86566
54.7289 5.70283
54.9301 5.58366
55.1314 5.41164
55.3328 5.23031
55.5344 5.00888
55.7361 4.88266