File: XRD/Ni3Fe_FD0496.xy
TT I
1.27165 7.16488
1.45013 6.17622
1.62863 5.7319
1.80712 5.23439
1.98562 4.43901
2.16411 4.73291
2.34263 5.4751
2.52115 6.71534
2.69965 8.11325
2.87818 8.71421
3.05672 11.3745
3.23527 15.2
3.4138 18.82
3.59237 24.064
3.77094 26.4147
3.9495 29.685
4.12809 35.4007
4.30669 187.918
4.4853 63.2273
4.6639 56.2684
4.84253 68.1611
5.02118 88.7764
5.19981 411.379
5.37848 204.27
5.55716 104.274
5.73586 93.7416
5.91455 96.6971
6.09328 4202.18
6.27201 84.9893
6.45075 68.4427
6.62952 63.8632
6.8083 59.4005
6.98711 56.499
7.16591 55.8057
7.34475 86.5123
7.5236 55.2659
7.70247 56.7752
7.88135 58.8353
8.06026 63.1763
8.23919 70.1638
8.41812 86.3466
8.59709 1202.49
8.77609 102.105
8.9551 92.0583
9.13412 83.2224
9.31318 83.8989
9.49226 85.7905
9.67134 98.8526
9.85047 101.515
10.0296 372.705
10.2088 458.977
10.388 106.671
10.5672 500.161
10.7465 88.1153
10.9257 79.6754
11.105 72.7253
11.2844 70.9255
11.4637 65.8733
11.6431 64.5275
11.8225 63.4146
12.002 64.4943
12.1814 155.444
12.3609 71.0495
12.5405 65.5447
12.72 70.2843
12.8996 71.9961
13.0792 80.0302
13.2589 242.944
13.4386 131.841
13.6183 249.797
13.7981 103.783
13.9779 76.7341
14.1577 73.428
14.3376 72.5197
14.5175 69.9905
14.6974 71.3845
14.8774 114.158
15.0574 156.917
15.2374 72.0726
15.4175 67.2949
15.5976 66.7709
15.7778 98.1345
15.958 159.059
16.1382 63.5772
16.3185 59.4975
16.4988 56.2292
16.6792 55.4816
16.8596 55.8508
17.04 56.7421
17.2205 68.1398
17.401 72.9689
17.5815 60.1166
17.7622 62.1919
17.9428 75.5548
18.1237 136.442
18.3044 91.6229
18.4852 80.5304
18.666 61.5982
18.8469 59.0171
19.0278 57.9881
19.2088 60.5772
19.3898 76.3284
19.5709 55.1001
19.752 54.0043
19.9332 57.3435
20.1144 69.9562
20.2957 64.2956
20.477 55.0853
20.6586 50.5701
20.84 49.359
21.0215 49.3617
21.203 51.4033
21.3846 49.709
21.5662 49.5659
21.7479 53.6168
21.9297 64.7561
22.1115 56.6341
22.2933 50.6636
22.4753 49.5416
22.6572 49.6917
22.8393 52.7855
23.0214 57.9971
23.2037 49.5629
23.3859 50.5257
23.5682 57.0059
23.7505 49.278
23.9329 45.9403
24.1154 44.8337
24.2979 44.1437
24.4805 43.54
24.6631 43.4323
24.8458 42.837
25.0286 43.4379
25.2114 45.3261
25.3943 45.0979
25.5773 41.532
25.7605 40.9769
25.9436 41.4675
26.1268 42.2972
26.31 40.7989
26.4933 41.313
26.6767 42.6133
26.8601 41.0117
27.0437 39.3891
27.2272 39.0179
27.4109 38.9209
27.5946 39.0317
27.7784 38.3302
27.9623 38.9201
28.1462 39.3392
28.3304 37.6819
28.5145 36.5376
28.6987 36.1345
28.8829 35.9076
29.0673 35.1582
29.2517 34.8993
29.4361 34.6094
29.6207 33.7022
29.8053 33.3857
29.99 33.0041
30.1748 32.9533
30.3597 32.7048
30.5447 32.6662
30.7297 32.5891
30.915 32.1231
31.1002 31.5472
31.2855 31.3046
31.4708 31.2305
31.6563 30.7699
31.8418 30.5109
32.0275 30.3677
32.2132 29.7219
32.399 29.2635
32.5848 28.9083
32.7708 28.5029
32.9569 28.3594
33.143 28.1658
33.3293 27.8559
33.5158 27.4603
33.7022 26.9338
33.8887 26.6831
34.0753 26.3829
34.262 26.0299
34.4488 25.6114
34.6357 25.3341
34.8227 25.0994
35.0098 24.8424
35.1969 24.5206
35.3842 24.4252
35.5716 24.1699
35.759 23.752
35.9468 23.4141
36.1345 23.15
36.3222 22.9848
36.5101 22.7677
36.6981 22.3896
36.8861 22.1588
37.0743 21.8478
37.2626 21.4994
37.451 21.2779
37.6395 21.1659
37.8281 20.808
38.0168 20.5171
38.2056 20.2698
38.3945 20.0223
38.5837 19.7535
38.7728 19.5241
38.9621 19.1998
39.1514 19.0744
39.3409 18.6879
39.5304 18.4906
39.7201 18.3579
39.9099 18.1624
40.0999 17.8294
40.2899 17.6412
40.48 17.4
40.6703 17.1667
40.8607 17.0412
41.0512 16.7763
41.242 16.5189
41.4327 16.322
41.6236 15.9749
41.8146 15.8489
42.0057 15.7151
42.1969 15.4571
42.3882 15.2308
42.5797 15.0392
42.7713 14.843
42.963 14.609
43.1549 14.4782
43.3468 14.2192
43.5389 14.0522
43.7312 13.8459
43.9237 13.6895
44.1162 13.4594
44.3088 13.2169
44.5016 13.0666
44.6945 12.894
44.8875 12.7629
45.0806 12.5539
45.2739 12.4024
45.4673 12.2048
45.6609 12.0208
45.8546 11.8717
46.0484 11.6978
46.2424 11.5382
46.4365 11.3957
46.631 11.1719
46.8254 11.0507
47.0199 10.8454
47.2146 10.6692
47.4095 10.5528
47.6044 10.3772
47.7996 10.2249
47.9948 10.0656
48.1902 9.92645
48.3858 9.80507
48.5815 9.65622
48.7774 9.50178
48.9734 9.34535
49.1696 9.23317
49.3661 9.05557
49.5626 8.94885
49.7592 8.79358
49.956 8.73935
50.153 8.54073
50.3501 8.42191
50.5474 8.31282
50.7448 8.1664
50.9424 8.04144
51.1402 7.90098
51.3381 7.77353
51.5362 7.65642
51.7344 7.53698
51.9328 7.4176
52.1316 7.28915
52.3304 7.17673
52.5293 6.99975
52.7284 6.93497
52.9276 6.82844
53.1271 6.72932
53.3267 6.57229
53.5265 6.48428
53.7264 6.37972
53.9266 6.24959
54.1269 6.15669
54.3274 6.06216
54.528 5.88272
54.7289 5.73909
54.9301 5.56647
55.1314 5.43851
55.3328 5.24726
55.5344 5.00811
55.7361 4.91593