File: XRD/Ni3Fe_FD1006.xy
TT I
1.27165 7.23902
1.45013 5.27758
1.62863 4.82568
1.80712 4.48451
1.98562 4.29055
2.16411 4.80719
2.34263 5.80137
2.52115 7.51557
2.69965 9.02383
2.87818 9.30468
3.05672 11.834
3.23527 15.1976
3.4138 18.256
3.59237 23.4942
3.77094 25.8395
3.9495 29.2545
4.12809 33.9858
4.30669 287.101
4.4853 70.2126
4.6639 53.2688
4.84253 63.8299
5.02118 81.4601
5.19981 252.893
5.37848 174.481
5.55716 96.4459
5.73586 87.6652
5.91455 86.996
6.09328 4367.02
6.27201 79.2051
6.45075 64.6641
6.62952 60.3239
6.8083 56.5592
6.98711 53.9693
7.16591 53.485
7.34475 109.527
7.5236 53.0476
7.70247 54.2143
7.88135 55.6908
8.06026 59.4729
8.23919 66.49
8.41812 79.8687
8.59709 990.48
8.77609 95.1387
8.9551 89.6213
9.13412 78.1576
9.31318 78.8435
9.49226 80.5434
9.67134 96.7596
9.85047 94.4741
10.0296 260.234
10.2088 422.571
10.388 100.76
10.5672 509.734
10.7465 82.9207
10.9257 75.1166
11.105 68.9596
11.2844 68.7664
11.4637 62.2175
11.6431 61.1879
11.8225 60.0086
12.002 60.6819
12.1814 143.259
12.3609 71.3349
12.5405 61.6373
12.72 69.4999
12.8996 67.6203
13.0792 74.7498
13.2589 208.493
13.4386 127.644
13.6183 223.274
13.7981 98.4383
13.9779 72.8113
14.1577 70.0245
14.3376 69.4144
14.5175 66.0332
14.6974 67.8132
14.8774 98.3783
15.0574 160.99
15.2374 68.9035
15.4175 63.9741
15.5976 63.2346
15.7778 85.2439
15.958 168.097
16.1382 61.3145
16.3185 56.6995
16.4988 53.5196
16.6792 52.5159
16.8596 53.0917
17.04 53.7673
17.2205 62.9102
17.401 70.2525
17.5815 57.0165
17.7622 59.0234
17.9428 68.5773
18.1237 138.972
18.3044 86.3797
18.4852 78.4089
18.666 58.4812
18.8469 56.1267
19.0278 55.0194
19.2088 57.1376
19.3898 76.0284
19.5709 52.6256
19.752 51.5599
19.9332 53.9404
20.1144 69.0362
20.2957 62.3828
20.477 52.921
20.6586 48.1731
20.84 47.2215
21.0215 47.0946
21.203 49.0683
21.3846 47.6082
21.5662 47.0897
21.7479 50.3367
21.9297 64.0336
22.1115 55.1922
22.2933 48.7442
22.4753 47.7566
22.6572 47.2304
22.8393 49.8571
23.0214 56.9353
23.2037 47.4282
23.3859 48.0373
23.5682 56.2209
23.7505 47.6208
23.9329 43.906
24.1154 42.8256
24.2979 42.2083
24.4805 41.741
24.6631 41.552
24.8458 41.0282
25.0286 41.4602
25.2114 43.57
25.3943 43.9428
25.5773 39.7881
25.7605 39.3197
25.9436 39.6416
26.1268 40.8041
26.31 38.9551
26.4933 39.4614
26.6767 41.3399
26.8601 39.5599
27.0437 37.831
27.2272 37.4823
27.4109 37.2759
27.5946 37.405
27.7784 36.9738
27.9623 37.3626
28.1462 38.0977
28.3304 36.3594
28.5145 35.0832
28.6987 34.8684
28.8829 34.4753
29.0673 33.762
29.2517 33.5341
29.4361 33.3257
29.6207 32.2139
29.8053 32.0947
29.99 31.7381
30.1748 31.6706
30.3597 31.3985
30.5447 31.3356
30.7297 31.5447
30.915 30.8362
31.1002 30.3588
31.2855 30.0032
31.4708 30.1155
31.6563 29.6374
31.8418 29.3085
32.0275 29.2979
32.2132 28.7372
32.399 28.2854
32.5848 27.7532
32.7708 27.4737
32.9569 27.3429
33.143 27.0998
33.3293 26.8413
33.5158 26.3577
33.7022 26.0237
33.8887 25.6722
34.0753 25.4351
34.262 25.1212
34.4488 24.6734
34.6357 24.4012
34.8227 24.0925
35.0098 23.8907
35.1969 23.622
35.3842 23.4426
35.5716 23.2412
35.759 22.9572
35.9468 22.557
36.1345 22.3965
36.3222 22.1414
36.5101 21.9661
36.6981 21.6394
36.8861 21.2789
37.0743 20.9482
37.2626 20.8024
37.451 20.4972
37.6395 20.3639
37.8281 20.049
38.0168 19.7624
38.2056 19.4914
38.3945 19.2243
38.5837 18.9455
38.7728 18.7732
38.9621 18.5329
39.1514 18.2757
39.3409 18.0183
39.5304 17.8474
39.7201 17.6816
39.9099 17.3756
40.0999 17.1937
40.2899 16.9724
40.48 16.7059
40.6703 16.5487
40.8607 16.3756
41.0512 16.1539
41.242 15.9352
41.4327 15.7024
41.6236 15.4819
41.8146 15.2947
42.0057 15.0893
42.1969 14.9437
42.3882 14.7093
42.5797 14.4942
42.7713 14.3092
42.963 14.098
43.1549 13.8896
43.3468 13.7358
43.5389 13.5233
43.7312 13.3716
43.9237 13.2188
44.1162 12.9835
44.3088 12.842
44.5016 12.5864
44.6945 12.4381
44.8875 12.2485
45.0806 12.0743
45.2739 11.949
45.4673 11.7845
45.6609 11.6093
45.8546 11.4056
46.0484 11.2803
46.2424 11.086
46.4365 10.9678
46.631 10.7765
46.8254 10.6162
47.0199 10.4745
47.2146 10.3244
47.4095 10.1593
47.6044 9.98855
47.7996 9.88447
47.9948 9.71422
48.1902 9.60493
48.3858 9.46884
48.5815 9.31804
48.7774 9.17064
48.9734 9.03345
49.1696 8.9008
49.3661 8.76818
49.5626 8.59055
49.7592 8.52631
49.956 8.39181
50.153 8.23782
50.3501 8.13841
50.5474 7.98672
50.7448 7.88218
50.9424 7.76314
51.1402 7.66954
51.3381 7.51997
51.5362 7.42137
51.7344 7.26814
51.9328 7.11504
52.1316 7.03112
52.3304 6.94855
52.5293 6.78757
52.7284 6.69106
52.9276 6.61506
53.1271 6.50228
53.3267 6.38456
53.5265 6.26425
53.7264 6.16702
53.9266 6.06424
54.1269 5.90839
54.3274 5.8399
54.528 5.68608
54.7289 5.5125
54.9301 5.40823
55.1314 5.26007
55.3328 5.02043
55.5344 4.86442
55.7361 4.72469