File: XRD/Ni3Fe_FD0860.xy
TT I
1.27165 7.13219
1.45013 5.68531
1.62863 5.00198
1.80712 5.10069
1.98562 4.95651
2.16411 4.60919
2.34263 5.12365
2.52115 7.5234
2.69965 8.6604
2.87818 8.7984
3.05672 11.1964
3.23527 14.9045
3.4138 19.0599
3.59237 23.9911
3.77094 25.6758
3.9495 29.6158
4.12809 34.6037
4.30669 223.264
4.4853 65.6591
4.6639 54.7301
4.84253 66.6784
5.02118 85.1377
5.19981 294.196
5.37848 177.231
5.55716 100.063
5.73586 90.7129
5.91455 91.182
6.09328 4447.73
6.27201 81.4369
6.45075 66.769
6.62952 61.9852
6.8083 57.8744
6.98711 55.1079
7.16591 54.4898
7.34475 92.0318
7.5236 53.9201
7.70247 55.6061
7.88135 57.1034
8.06026 61.0365
8.23919 68.4631
8.41812 83.511
8.59709 1136.01
8.77609 97.2321
8.9551 91.018
9.13412 81.0815
9.31318 81.2179
9.49226 82.9683
9.67134 97.4485
9.85047 98.1203
10.0296 302.974
10.2088 398.458
10.388 102.446
10.5672 520.756
10.7465 85.2742
10.9257 77.4225
11.105 71.0328
11.2844 69.6026
11.4637 64.0253
11.6431 62.8118
11.8225 61.58
12.002 62.4499
12.1814 152.931
12.3609 69.7241
12.5405 64.0308
12.72 69.0448
12.8996 69.7594
13.0792 77.1528
13.2589 231.693
13.4386 122.048
13.6183 246.292
13.7981 95.7299
13.9779 74.8662
14.1577 71.526
14.3376 70.8604
14.5175 67.7724
14.6974 69.2189
14.8774 105.991
15.0574 147.052
15.2374 70.1002
15.4175 65.414
15.5976 64.8242
15.7778 90.9658
15.958 154.375
16.1382 61.9093
16.3185 58.0361
16.4988 54.8454
16.6792 53.7344
16.8596 54.3785
17.04 54.7936
17.2205 65.4691
17.401 70.4752
17.5815 58.3165
17.7622 60.2895
17.9428 71.4283
18.1237 138.068
18.3044 89.6751
18.4852 76.2491
18.666 59.6296
18.8469 57.3514
19.0278 56.1892
19.2088 58.4594
19.3898 76.0677
19.5709 53.4489
19.752 52.4596
19.9332 55.2006
20.1144 68.9674
20.2957 63.5668
20.477 52.9806
20.6586 48.9686
20.84 48.0547
21.0215 47.9959
21.203 50.3985
21.3846 48.2772
21.5662 47.9859
21.7479 51.6317
21.9297 63.6815
22.1115 55.4461
22.2933 49.2596
22.4753 48.2616
22.6572 48.1436
22.8393 51.1108
23.0214 56.5977
23.2037 48.0675
23.3859 49.034
23.5682 56.516
23.7505 47.7877
23.9329 44.5696
24.1154 43.4875
24.2979 42.9591
24.4805 42.4686
24.6631 42.104
24.8458 41.7709
25.0286 42.1459
25.2114 44.0935
25.3943 44.0484
25.5773 40.3667
25.7605 39.7978
25.9436 40.1934
26.1268 41.2149
26.31 39.5637
26.4933 40.1714
26.6767 41.4709
26.8601 39.9348
27.0437 38.4579
27.2272 37.8801
27.4109 37.9042
27.5946 37.8702
27.7784 37.3439
27.9623 37.826
28.1462 38.3062
28.3304 36.6548
28.5145 35.481
28.6987 35.2083
28.8829 35.1107
29.0673 34.1825
29.2517 33.8659
29.4361 33.8497
29.6207 32.5977
29.8053 32.5249
29.99 32.2325
30.1748 32.0895
30.3597 31.8139
30.5447 31.6844
30.7297 31.7247
30.915 31.1371
31.1002 30.7374
31.2855 30.5212
31.4708 30.4175
31.6563 29.9721
31.8418 29.753
32.0275 29.6066
32.2132 28.9809
32.399 28.511
32.5848 28.1124
32.7708 27.8383
32.9569 27.7066
33.143 27.4727
33.3293 27.023
33.5158 26.7048
33.7022 26.2511
33.8887 26.002
34.0753 25.6343
34.262 25.3257
34.4488 25.0111
34.6357 24.6651
34.8227 24.3722
35.0098 24.175
35.1969 23.8716
35.3842 23.7003
35.5716 23.5457
35.759 23.2126
35.9468 22.8541
36.1345 22.6624
36.3222 22.3426
36.5101 22.1311
36.6981 21.8932
36.8861 21.4998
37.0743 21.2552
37.2626 21.0039
37.451 20.6491
37.6395 20.6046
37.8281 20.225
38.0168 19.9951
38.2056 19.7587
38.3945 19.4324
38.5837 19.2229
38.7728 19.0215
38.9621 18.712
39.1514 18.393
39.3409 18.2721
39.5304 18.0796
39.7201 17.8165
39.9099 17.601
40.0999 17.3914
40.2899 17.1081
40.48 16.8979
40.6703 16.7264
40.8607 16.5537
41.0512 16.3236
41.242 16.0243
41.4327 15.8613
41.6236 15.6924
41.8146 15.457
42.0057 15.2751
42.1969 15.0507
42.3882 14.9393
42.5797 14.6289
42.7713 14.4527
42.963 14.2034
43.1549 14.0937
43.3468 13.8691
43.5389 13.6913
43.7312 13.478
43.9237 13.2931
44.1162 13.143
44.3088 12.9665
44.5016 12.7137
44.6945 12.5765
44.8875 12.3817
45.0806 12.1855
45.2739 12.086
45.4673 11.9074
45.6609 11.7074
45.8546 11.559
46.0484 11.4176
46.2424 11.2137
46.4365 11.0559
46.631 10.8575
46.8254 10.7575
47.0199 10.5666
47.2146 10.4764
47.4095 10.2039
47.6044 10.1238
47.7996 9.97728
47.9948 9.84359
48.1902 9.66336
48.3858 9.57104
48.5815 9.41329
48.7774 9.29573
48.9734 9.16099
49.1696 8.97841
49.3661 8.86215
49.5626 8.72847
49.7592 8.59152
49.956 8.46209
50.153 8.32849
50.3501 8.14779
50.5474 8.04909
50.7448 7.95411
50.9424 7.84698
51.1402 7.71551
51.3381 7.60314
51.5362 7.47345
51.7344 7.33629
51.9328 7.22194
52.1316 7.07424
52.3304 6.9729
52.5293 6.84984
52.7284 6.74973
52.9276 6.66777
53.1271 6.56882
53.3267 6.42342
53.5265 6.27533
53.7264 6.17548
53.9266 6.08355
54.1269 6.00992
54.3274 5.8724
54.528 5.75062
54.7289 5.5841
54.9301 5.43055
55.1314 5.299
55.3328 5.06727
55.5344 4.92083
55.7361 4.79472