File: XRD/Ni3Fe_FD0132.xy
TT I
1.27165 8.0223
1.45013 5.71962
1.62863 5.92106
1.80712 5.41075
1.98562 5.31868
2.16411 4.62776
2.34263 4.43108
2.52115 4.32002
2.69965 5.46551
2.87818 7.98565
3.05672 11.0517
3.23527 14.9313
3.4138 18.323
3.59237 21.7243
3.77094 24.7904
3.9495 28.2505
4.12809 32.558
4.30669 37.248
4.4853 44.644
4.6639 53.5979
4.84253 65.9798
5.02118 90.7195
5.19981 573.142
5.37848 495.172
5.55716 107.717
5.73586 95.3124
5.91455 105.96
6.09328 2573.15
6.27201 90.0614
6.45075 65.9297
6.62952 59.2903
6.8083 55.3336
6.98711 52.9375
7.16591 51.9086
7.34475 51.6618
7.5236 55.8596
7.70247 53.5771
7.88135 55.6592
8.06026 60.2008
8.23919 67.6361
8.41812 83.6271
8.59709 853.224
8.77609 118.559
8.9551 84.6427
9.13412 81.0339
9.31318 87.4299
9.49226 82.7665
9.67134 87.9995
9.85047 98.0455
10.0296 553.38
10.2088 1028.81
10.388 103.815
10.5672 314.728
10.7465 90.9826
10.9257 75.1548
11.105 69.4925
11.2844 65.7976
11.4637 62.7511
11.6431 61.7014
11.8225 60.7885
12.002 65.5825
12.1814 114.439
12.3609 75.9443
12.5405 62.8644
12.72 64.7198
12.8996 69.217
13.0792 78.7527
13.2589 199.424
13.4386 220.372
13.6183 186.346
13.7981 160.262
13.9779 75.5743
14.1577 74.504
14.3376 68.6525
14.5175 67.8529
14.6974 69.2013
14.8774 120.389
15.0574 206.329
15.2374 68.4782
15.4175 65.5988
15.5976 65.2834
15.7778 106.919
15.958 184.451
16.1382 61.7738
16.3185 56.9178
16.4988 54.6869
16.6792 53.6334
16.8596 53.8562
17.04 55.019
17.2205 64.4887
17.401 80.979
17.5815 58.6565
17.7622 60.924
17.9428 83.7547
18.1237 111.414
18.3044 87.9687
18.4852 95.7481
18.666 60.5424
18.8469 57.8639
19.0278 56.2552
19.2088 61.4277
19.3898 67.8198
19.5709 56.3006
19.752 53.0607
19.9332 57.9117
20.1144 65.9183
20.2957 60.6241
20.477 59.2467
20.6586 49.5732
20.84 48.784
21.0215 48.6752
21.203 49.2301
21.3846 50.1691
21.5662 48.6528
21.7479 53.8575
21.9297 61.1182
22.1115 56.1191
22.2933 52.4172
22.4753 48.4752
22.6572 48.8608
22.8393 51.773
23.0214 56.448
23.2037 49.6311
23.3859 51.6311
23.5682 52.9147
23.7505 53.4994
23.9329 45.5389
24.1154 44.0791
24.2979 43.5087
24.4805 42.8332
24.6631 42.8856
24.8458 42.3175
25.0286 42.759
25.2114 44.199
25.3943 44.5404
25.5773 41.6417
25.7605 40.3611
25.9436 40.7857
26.1268 41.3613
26.31 40.8213
26.4933 40.5815
26.6767 41.7968
26.8601 41.0378
27.0437 39.2679
27.2272 38.7321
27.4109 38.2683
27.5946 38.4053
27.7784 38.39
27.9623 38.2791
28.1462 39.0629
28.3304 37.9397
28.5145 36.0644
28.6987 35.6746
28.8829 35.3217
29.0673 35.0181
29.2517 34.2848
29.4361 34.0823
29.6207 33.4402
29.8053 32.8471
29.99 32.5589
30.1748 32.3328
30.3597 32.3084
30.5447 32.0116
30.7297 32.1067
30.915 31.923
31.1002 31.2849
31.2855 30.8806
31.4708 30.7698
31.6563 30.6751
31.8418 30.1477
32.0275 30.0315
32.2132 29.5673
32.399 29.0469
32.5848 28.5948
32.7708 28.2807
32.9569 28.1612
33.143 27.7669
33.3293 27.5401
33.5158 27.1944
33.7022 26.6
33.8887 26.2715
34.0753 26.083
34.262 25.6026
34.4488 25.2749
34.6357 24.9804
34.8227 24.7636
35.0098 24.4922
35.1969 24.2066
35.3842 23.998
35.5716 23.8082
35.759 23.5283
35.9468 23.0957
36.1345 23.0203
36.3222 22.6608
36.5101 22.3766
36.6981 22.1417
36.8861 21.8292
37.0743 21.5523
37.2626 21.3254
37.451 20.9919
37.6395 20.912
37.8281 20.4868
38.0168 20.249
38.2056 20.0165
38.3945 19.6833
38.5837 19.4648
38.7728 19.2398
38.9621 18.9668
39.1514 18.7166
39.3409 18.4191
39.5304 18.3059
39.7201 18.0925
39.9099 17.8102
40.0999 17.6208
40.2899 17.3609
40.48 17.1335
40.6703 16.9693
40.8607 16.7886
41.0512 16.5287
41.242 16.2782
41.4327 16.0213
41.6236 15.7766
41.8146 15.7073
42.0057 15.3715
42.1969 15.2119
42.3882 15.0007
42.5797 14.8452
42.7713 14.664
42.963 14.4399
43.1549 14.1911
43.3468 14.0074
43.5389 13.8104
43.7312 13.6277
43.9237 13.4862
44.1162 13.2541
44.3088 13.068
44.5016 12.9003
44.6945 12.7373
44.8875 12.5248
45.0806 12.3694
45.2739 12.185
45.4673 11.998
45.6609 11.838
45.8546 11.7307
46.0484 11.5446
46.2424 11.3941
46.4365 11.2156
46.631 11.0139
46.8254 10.8487
47.0199 10.7364
47.2146 10.5778
47.4095 10.3467
47.6044 10.2152
47.7996 10.0663
47.9948 9.9237
48.1902 9.81532
48.3858 9.68358
48.5815 9.54319
48.7774 9.39657
48.9734 9.24443
49.1696 9.08951
49.3661 8.94563
49.5626 8.80267
49.7592 8.68471
49.956 8.61177
50.153 8.45194
50.3501 8.2986
50.5474 8.21037
50.7448 8.07513
50.9424 7.9831
51.1402 7.81202
51.3381 7.65095
51.5362 7.55597
51.7344 7.43426
51.9328 7.30029
52.1316 7.18855
52.3304 7.06556
52.5293 6.95205
52.7284 6.82819
52.9276 6.72621
53.1271 6.59196
53.3267 6.49936
53.5265 6.39835
53.7264 6.25749
53.9266 6.18057
54.1269 6.05642
54.3274 5.9439
54.528 5.78904
54.7289 5.57108
54.9301 5.43022
55.1314 5.32618
55.3328 5.04136
55.5344 4.9018
55.7361 4.72757