File: XRD/Ni3Fe_FD0126.xy
TT I
1.27165 8.08064
1.45013 7.38814
1.62863 6.05688
1.80712 5.32365
1.98562 5.25892
2.16411 5.01259
2.34263 4.42886
2.52115 4.21452
2.69965 5.24486
2.87818 7.71645
3.05672 11.3507
3.23527 14.9155
3.4138 18.4046
3.59237 21.4854
3.77094 24.9651
3.9495 28.427
4.12809 32.6223
4.30669 37.4886
4.4853 44.1964
4.6639 53.2941
4.84253 65.6711
5.02118 90.8081
5.19981 576.932
5.37848 516.096
5.55716 108.199
5.73586 95.5225
5.91455 106.081
6.09328 2528.48
6.27201 90.4154
6.45075 66.0458
6.62952 59.1925
6.8083 55.2078
6.98711 52.7859
7.16591 51.6115
7.34475 51.4035
7.5236 56.0981
7.70247 53.425
7.88135 55.7402
8.06026 59.8617
8.23919 67.2249
8.41812 83.0502
8.59709 841.167
8.77609 119.648
8.9551 84.7466
9.13412 81.0033
9.31318 87.7384
9.49226 82.8215
9.67134 87.4864
9.85047 98.2488
10.0296 555.697
10.2088 1053.6
10.388 104.018
10.5672 307.063
10.7465 91.5241
10.9257 75.2488
11.105 69.4323
11.2844 65.3746
11.4637 62.8911
11.6431 61.5791
11.8225 60.6171
12.002 65.9792
12.1814 112.874
12.3609 76.5794
12.5405 62.4311
12.72 64.4757
12.8996 68.8277
13.0792 78.4189
13.2589 197.467
13.4386 223.818
13.6183 183.697
13.7981 164.339
13.9779 75.3328
14.1577 74.4145
14.3376 68.1798
14.5175 67.5675
14.6974 69.1844
14.8774 120.831
15.0574 205.239
15.2374 68.3184
15.4175 65.4395
15.5976 64.9745
15.7778 107.482
15.958 183.753
16.1382 61.4685
16.3185 56.8034
16.4988 54.355
16.6792 53.5515
16.8596 53.5789
17.04 54.7577
17.2205 64.2248
17.401 80.7684
17.5815 58.5984
17.7622 60.7462
17.9428 83.817
18.1237 109.624
18.3044 87.743
18.4852 96.5979
18.666 60.6144
18.8469 57.7133
19.0278 56.185
19.2088 61.5901
19.3898 67.4094
19.5709 56.398
19.752 53.0691
19.9332 58.186
20.1144 65.6328
20.2957 60.2915
20.477 59.3731
20.6586 49.4255
20.84 48.5128
21.0215 48.7308
21.203 49.0173
21.3846 50.3561
21.5662 48.5401
21.7479 53.7469
21.9297 60.7623
22.1115 56.0029
22.2933 52.419
22.4753 48.4798
22.6572 48.6128
22.8393 51.6038
23.0214 56.1621
23.2037 49.8009
23.3859 51.6281
23.5682 52.6675
23.7505 53.8584
23.9329 45.3701
24.1154 43.9759
24.2979 43.3004
24.4805 42.6172
24.6631 42.8245
24.8458 42.1548
25.0286 42.7349
25.2114 44.1579
25.3943 44.5011
25.5773 41.5876
25.7605 40.3868
25.9436 40.7168
26.1268 41.3296
26.31 40.8468
26.4933 40.6002
26.6767 41.6766
26.8601 40.9535
27.0437 39.2942
27.2272 38.6697
27.4109 38.2414
27.5946 38.4573
27.7784 38.3
27.9623 38.2178
28.1462 38.9879
28.3304 37.8127
28.5145 36.076
28.6987 35.7267
28.8829 35.2151
29.0673 34.9386
29.2517 34.2994
29.4361 34.0574
29.6207 33.3929
29.8053 32.7095
29.99 32.5456
30.1748 32.2903
30.3597 32.3869
30.5447 32.215
30.7297 32.1057
30.915 31.8416
31.1002 31.3524
31.2855 30.8827
31.4708 30.7514
31.6563 30.6593
31.8418 30.2047
32.0275 29.9838
32.2132 29.5688
32.399 28.988
32.5848 28.5007
32.7708 28.2198
32.9569 28.0412
33.143 27.8064
33.3293 27.4671
33.5158 27.0987
33.7022 26.5632
33.8887 26.3107
34.0753 26.0282
34.262 25.61
34.4488 25.2559
34.6357 24.9602
34.8227 24.6431
35.0098 24.4804
35.1969 24.174
35.3842 23.8168
35.5716 23.792
35.759 23.4668
35.9468 23.1404
36.1345 22.8877
36.3222 22.7052
36.5101 22.3422
36.6981 22.054
36.8861 21.8154
37.0743 21.5562
37.2626 21.2751
37.451 20.9784
37.6395 20.7695
37.8281 20.5407
38.0168 20.1713
38.2056 19.923
38.3945 19.7198
38.5837 19.4026
38.7728 19.2246
38.9621 18.9748
39.1514 18.7228
39.3409 18.4708
39.5304 18.255
39.7201 18.0947
39.9099 17.8173
40.0999 17.5507
40.2899 17.3272
40.48 17.0886
40.6703 16.9286
40.8607 16.7573
41.0512 16.463
41.242 16.2456
41.4327 16.015
41.6236 15.8073
41.8146 15.6738
42.0057 15.3793
42.1969 15.1267
42.3882 14.9845
42.5797 14.771
42.7713 14.6071
42.963 14.3938
43.1549 14.1959
43.3468 14.0151
43.5389 13.8024
43.7312 13.6399
43.9237 13.4337
44.1162 13.1893
44.3088 13.0756
44.5016 12.8423
44.6945 12.7169
44.8875 12.5129
45.0806 12.3355
45.2739 12.1839
45.4673 12.0183
45.6609 11.8135
45.8546 11.6917
46.0484 11.5063
46.2424 11.3533
46.4365 11.2012
46.631 10.9742
46.8254 10.8629
47.0199 10.6608
47.2146 10.5078
47.4095 10.3989
47.6044 10.2349
47.7996 10.1178
47.9948 9.94576
48.1902 9.75367
48.3858 9.64062
48.5815 9.49214
48.7774 9.38341
48.9734 9.24233
49.1696 9.11104
49.3661 8.94111
49.5626 8.83434
49.7592 8.68574
49.956 8.57921
50.153 8.44067
50.3501 8.29377
50.5474 8.20213
50.7448 8.09277
50.9424 7.96091
51.1402 7.82159
51.3381 7.67245
51.5362 7.56996
51.7344 7.41633
51.9328 7.32348
52.1316 7.17287
52.3304 7.06698
52.5293 6.94876
52.7284 6.81338
52.9276 6.72032
53.1271 6.59941
53.3267 6.48423
53.5265 6.36415
53.7264 6.27923
53.9266 6.18295
54.1269 5.9787
54.3274 5.90312
54.528 5.74511
54.7289 5.57223
54.9301 5.41546
55.1314 5.24512
55.3328 5.01295
55.5344 4.89192
55.7361 4.7355