File: XRD/Ni3Fe_FD0416.xy
TT I
1.27165 8.03083
1.45013 5.77347
1.62863 5.41773
1.80712 5.41654
1.98562 4.86002
2.16411 5.33513
2.34263 4.993
2.52115 6.31152
2.69965 7.89946
2.87818 8.6762
3.05672 11.5025
3.23527 15.2133
3.4138 19.1088
3.59237 24.8141
3.77094 27.2064
3.9495 30.5998
4.12809 35.5573
4.30669 285.544
4.4853 73.4631
4.6639 56.356
4.84253 68.6292
5.02118 88.3863
5.19981 421.704
5.37848 222.846
5.55716 104.963
5.73586 94.2991
5.91455 96.7344
6.09328 3857.54
6.27201 87.2996
6.45075 68.9642
6.62952 64.6609
6.8083 60.4085
6.98711 57.53
7.16591 57.0117
7.34475 108.194
7.5236 56.1755
7.70247 57.4995
7.88135 58.829
8.06026 63.4854
8.23919 71.0044
8.41812 87.6245
8.59709 1062.13
8.77609 104.475
8.9551 95.8576
9.13412 83.4094
9.31318 84.4227
9.49226 86.0029
9.67134 103.825
9.85047 102.045
10.0296 353.735
10.2088 513.123
10.388 108.075
10.5672 472.83
10.7465 88.9347
10.9257 80.4738
11.105 73.8477
11.2844 73.0441
11.4637 66.7259
11.6431 64.9685
11.8225 64.1933
12.002 65.0312
12.1814 141.399
12.3609 74.8813
12.5405 66.1727
12.72 72.9842
12.8996 72.3802
13.0792 80.4889
13.2589 221.926
13.4386 138.446
13.6183 227.191
13.7981 106.882
13.9779 77.4405
14.1577 74.5361
14.3376 73.8132
14.5175 70.517
14.6974 72.0927
14.8774 109.355
15.0574 164.479
15.2374 73.8261
15.4175 67.851
15.5976 67.1152
15.7778 94.8398
15.958 171.309
16.1382 65.0257
16.3185 60.5013
16.4988 56.9434
16.6792 55.918
16.8596 56.628
17.04 57.2748
17.2205 66.6398
17.401 74.6897
17.5815 60.6812
17.7622 62.5382
17.9428 75.4158
18.1237 136.716
18.3044 89.3713
18.4852 82.7067
18.666 62.0942
18.8469 59.2369
19.0278 58.4604
19.2088 61.1534
19.3898 77.5731
19.5709 55.6947
19.752 54.567
19.9332 57.4732
20.1144 70.8058
20.2957 63.8551
20.477 55.7931
20.6586 50.9667
20.84 50.0636
21.0215 49.8129
21.203 51.5174
21.3846 50.2175
21.5662 49.9017
21.7479 53.4233
21.9297 65.6176
22.1115 56.9769
22.2933 51.3143
22.4753 50.2212
22.6572 49.9157
22.8393 52.7108
23.0214 59.1858
23.2037 49.9112
23.3859 50.5537
23.5682 57.1243
23.7505 49.8264
23.9329 46.304
24.1154 45.2581
24.2979 44.5398
24.4805 43.8942
24.6631 43.9903
24.8458 43.2295
25.0286 43.7074
25.2114 45.5667
25.3943 45.6882
25.5773 41.9581
25.7605 41.2831
25.9436 41.7618
26.1268 42.6182
26.31 41.0079
26.4933 41.4647
26.6767 43.0358
26.8601 41.4382
27.0437 39.896
27.2272 39.5107
27.4109 39.2423
27.5946 39.2678
27.7784 38.6904
27.9623 39.0926
28.1462 39.7491
28.3304 38.1692
28.5145 36.8166
28.6987 36.4715
28.8829 36.272
29.0673 35.5047
29.2517 35.0419
29.4361 34.9837
29.6207 33.8392
29.8053 33.6524
29.99 33.3098
30.1748 33.1316
30.3597 32.987
30.5447 32.8565
30.7297 33.0163
30.915 32.3498
31.1002 31.8516
31.2855 31.5633
31.4708 31.6315
31.6563 31.0611
31.8418 30.7813
32.0275 30.6406
32.2132 30.0464
32.399 29.5683
32.5848 29.196
32.7708 28.8195
32.9569 28.6311
33.143 28.4634
33.3293 28.0967
33.5158 27.6739
33.7022 27.2384
33.8887 26.8682
34.0753 26.5355
34.262 26.2041
34.4488 25.9141
34.6357 25.5722
34.8227 25.2309
35.0098 25.0769
35.1969 24.7534
35.3842 24.5252
35.5716 24.3065
35.759 23.9657
35.9468 23.7083
36.1345 23.387
36.3222 23.179
36.5101 22.9449
36.6981 22.599
36.8861 22.2856
37.0743 21.9801
37.2626 21.7123
37.451 21.4832
37.6395 21.3371
37.8281 21.0468
38.0168 20.6886
38.2056 20.3877
38.3945 20.1137
38.5837 19.8923
38.7728 19.6189
38.9621 19.353
39.1514 19.1834
39.3409 18.8716
39.5304 18.6473
39.7201 18.472
39.9099 18.2667
40.0999 17.9601
40.2899 17.7606
40.48 17.5601
40.6703 17.3251
40.8607 17.0837
41.0512 16.8785
41.242 16.6028
41.4327 16.4566
41.6236 16.1942
41.8146 16.0456
42.0057 15.8037
42.1969 15.5756
42.3882 15.3256
42.5797 15.1562
42.7713 14.967
42.963 14.7385
43.1549 14.5437
43.3468 14.3521
43.5389 14.1554
43.7312 13.974
43.9237 13.7311
44.1162 13.5385
44.3088 13.4049
44.5016 13.191
44.6945 13.0068
44.8875 12.8644
45.0806 12.6557
45.2739 12.4741
45.4673 12.2988
45.6609 12.1004
45.8546 11.9849
46.0484 11.7928
46.2424 11.67
46.4365 11.4643
46.631 11.2922
46.8254 11.1114
47.0199 11.007
47.2146 10.8104
47.4095 10.6208
47.6044 10.4777
47.7996 10.3055
47.9948 10.166
48.1902 10.0372
48.3858 9.90102
48.5815 9.72839
48.7774 9.60154
48.9734 9.45034
49.1696 9.29491
49.3661 9.17494
49.5626 9.01273
49.7592 8.92067
49.956 8.7729
50.153 8.6288
50.3501 8.48846
50.5474 8.36974
50.7448 8.23573
50.9424 8.14394
51.1402 7.97518
51.3381 7.81931
51.5362 7.74129
51.7344 7.65176
51.9328 7.49635
52.1316 7.33303
52.3304 7.19543
52.5293 7.11066
52.7284 6.9979
52.9276 6.88911
53.1271 6.76973
53.3267 6.64248
53.5265 6.53041
53.7264 6.43401
53.9266 6.29706
54.1269 6.161
54.3274 6.07027
54.528 5.91582
54.7289 5.79185
54.9301 5.55549
55.1314 5.43074
55.3328 5.27719
55.5344 5.05026
55.7361 4.9144