File: XRD/Ni3Fe_FD0839.xy
TT I
1.27165 7.19928
1.45013 6.67586
1.62863 4.76505
1.80712 4.6075
1.98562 5.12677
2.16411 4.71508
2.34263 5.63439
2.52115 6.70845
2.69965 8.57892
2.87818 9.19243
3.05672 11.0462
3.23527 15.2706
3.4138 19.0271
3.59237 23.1908
3.77094 25.5382
3.9495 29.4215
4.12809 34.4602
4.30669 164.957
4.4853 59.8425
4.6639 54.9586
4.84253 66.6969
5.02118 85.9452
5.19981 323.624
5.37848 180.22
5.55716 100.912
5.73586 91.5673
5.91455 92.9413
6.09328 4373.81
6.27201 80.9205
6.45075 67.1558
6.62952 62.3488
6.8083 58.0343
6.98711 55.0439
7.16591 55.011
7.34475 79.6478
7.5236 54.0543
7.70247 55.7614
7.88135 56.8839
8.06026 61.6676
8.23919 68.3763
8.41812 83.6796
8.59709 1188.43
8.77609 97.3856
8.9551 89.5757
9.13412 81.4474
9.31318 82.0572
9.49226 83.8816
9.67134 95.883
9.85047 99.5493
10.0296 327.285
10.2088 400.483
10.388 102.782
10.5672 524.586
10.7465 85.5372
10.9257 77.209
11.105 71.2409
11.2844 68.878
11.4637 64.1519
11.6431 63.0438
11.8225 61.6432
12.002 62.626
12.1814 157.007
12.3609 68.364
12.5405 63.8202
12.72 68.3443
12.8996 70.2941
13.0792 78.2281
13.2589 244.188
13.4386 121.739
13.6183 252.659
13.7981 96.0284
13.9779 75.0803
14.1577 71.5094
14.3376 70.4393
14.5175 68.0885
14.6974 69.5588
14.8774 110.031
15.0574 145.115
15.2374 69.8091
15.4175 65.8467
15.5976 65.16
15.7778 94.4085
15.958 150.591
16.1382 61.4359
16.3185 57.6813
16.4988 54.8298
16.6792 53.9069
16.8596 54.2899
17.04 55.278
17.2205 66.4291
17.401 69.7403
17.5815 58.5796
17.7622 60.6152
17.9428 72.5935
18.1237 137.844
18.3044 91.3306
18.4852 76.0792
18.666 59.6839
18.8469 57.4207
19.0278 56.215
19.2088 58.7675
19.3898 75.1545
19.5709 53.7167
19.752 52.648
19.9332 55.5088
20.1144 69.3103
20.2957 63.6371
20.477 53.0694
20.6586 49.2858
20.84 48.2798
21.0215 48.0258
21.203 50.25
21.3846 48.4573
21.5662 48.4191
21.7479 52.0525
21.9297 63.594
22.1115 55.3898
22.2933 49.4875
22.4753 48.3949
22.6572 48.3784
22.8393 51.5937
23.0214 56.3044
23.2037 48.2668
23.3859 49.2241
23.5682 56.5283
23.7505 47.7516
23.9329 44.7542
24.1154 43.5755
24.2979 42.961
24.4805 42.3717
24.6631 42.2209
24.8458 41.79
25.0286 42.4653
25.2114 44.1866
25.3943 43.9972
25.5773 40.4019
25.7605 39.9095
25.9436 40.3783
26.1268 41.3472
26.31 39.6449
26.4933 40.2559
26.6767 41.5797
26.8601 39.9387
27.0437 38.5733
27.2272 38.0358
27.4109 38.0532
27.5946 37.9806
27.7784 37.4957
27.9623 37.9718
28.1462 38.3702
28.3304 36.6774
28.5145 35.5778
28.6987 35.3529
28.8829 35.115
29.0673 34.3078
29.2517 33.977
29.4361 33.6944
29.6207 32.8448
29.8053 32.5302
29.99 32.3094
30.1748 32.1435
30.3597 31.9358
30.5447 31.8387
30.7297 31.8595
30.915 31.344
31.1002 30.7552
31.2855 30.4924
31.4708 30.5152
31.6563 29.9831
31.8418 29.8306
32.0275 29.5487
32.2132 29.154
32.399 28.616
32.5848 28.196
32.7708 27.8986
32.9569 27.764
33.143 27.4972
33.3293 27.1562
33.5158 26.6741
33.7022 26.3091
33.8887 26.0233
34.0753 25.6834
34.262 25.3286
34.4488 25.0887
34.6357 24.6658
34.8227 24.4804
35.0098 24.2399
35.1969 23.9155
35.3842 23.6884
35.5716 23.5335
35.759 23.2299
35.9468 22.7977
36.1345 22.6697
36.3222 22.3398
36.5101 22.2228
36.6981 21.9108
36.8861 21.6431
37.0743 21.2891
37.2626 21.0202
37.451 20.7889
37.6395 20.6165
37.8281 20.3021
38.0168 19.9514
38.2056 19.7335
38.3945 19.4077
38.5837 19.2568
38.7728 19.0297
38.9621 18.7561
39.1514 18.4964
39.3409 18.2951
39.5304 18.0942
39.7201 17.8343
39.9099 17.6442
40.0999 17.3978
40.2899 17.191
40.48 16.884
40.6703 16.7147
40.8607 16.5787
41.0512 16.3127
41.242 16.1095
41.4327 15.8538
41.6236 15.6973
41.8146 15.4557
42.0057 15.2597
42.1969 15.1042
42.3882 14.9077
42.5797 14.6689
42.7713 14.4898
42.963 14.2571
43.1549 14.0746
43.3468 13.846
43.5389 13.6562
43.7312 13.474
43.9237 13.3125
44.1162 13.129
44.3088 12.9211
44.5016 12.793
44.6945 12.5987
44.8875 12.3946
45.0806 12.2184
45.2739 12.0486
45.4673 11.9036
45.6609 11.7238
45.8546 11.5664
46.0484 11.3833
46.2424 11.2421
46.4365 11.1014
46.631 10.8804
46.8254 10.7151
47.0199 10.6267
47.2146 10.4625
47.4095 10.2944
47.6044 10.1637
47.7996 9.97964
47.9948 9.86748
48.1902 9.67902
48.3858 9.58074
48.5815 9.44137
48.7774 9.29536
48.9734 9.18387
49.1696 9.01663
49.3661 8.85212
49.5626 8.69334
49.7592 8.60511
49.956 8.51258
50.153 8.32768
50.3501 8.2088
50.5474 8.10551
50.7448 7.96206
50.9424 7.83988
51.1402 7.73344
51.3381 7.56943
51.5362 7.4539
51.7344 7.36841
51.9328 7.19706
52.1316 7.07814
52.3304 6.97427
52.5293 6.8558
52.7284 6.7351
52.9276 6.68472
53.1271 6.54302
53.3267 6.41343
53.5265 6.30073
53.7264 6.20306
53.9266 6.06533
54.1269 5.98766
54.3274 5.87078
54.528 5.74745
54.7289 5.57311
54.9301 5.45337
55.1314 5.35991
55.3328 5.12188
55.5344 4.94464
55.7361 4.72347