File: XRD/Ni3Fe_FD0402.xy
TT I
1.27165 7.28549
1.45013 6.59438
1.62863 5.72682
1.80712 5.21287
1.98562 5.251
2.16411 5.31966
2.34263 5.54295
2.52115 6.00533
2.69965 7.55811
2.87818 8.35697
3.05672 10.9644
3.23527 14.9277
3.4138 19.0128
3.59237 24.6691
3.77094 26.8453
3.9495 29.9081
4.12809 35.748
4.30669 255.353
4.4853 70.1653
4.6639 56.7517
4.84253 68.4224
5.02118 89.0006
5.19981 433.841
5.37848 224.912
5.55716 104.83
5.73586 94.8661
5.91455 97.2101
6.09328 3922.21
6.27201 86.8209
6.45075 69.0341
6.62952 64.5699
6.8083 60.638
6.98711 57.3276
7.16591 56.8939
7.34475 101.04
7.5236 56.0167
7.70247 57.3918
7.88135 58.8855
8.06026 63.5752
8.23919 71.0134
8.41812 87.8532
8.59709 1092.7
8.77609 104.517
8.9551 95.2355
9.13412 83.6763
9.31318 84.1328
9.49226 86.1594
9.67134 102.128
9.85047 102.223
10.0296 366.264
10.2088 510.811
10.388 108.282
10.5672 480.812
10.7465 89.3914
10.9257 80.7311
11.105 73.4905
11.2844 72.7439
11.4637 66.4567
11.6431 65.1871
11.8225 64.0262
12.002 65.2513
12.1814 146.098
12.3609 73.9322
12.5405 66.4538
12.72 72.2057
12.8996 72.5921
13.0792 80.7637
13.2589 227.917
13.4386 138.511
13.6183 231.554
13.7981 106.962
13.9779 77.927
14.1577 74.391
14.3376 73.6906
14.5175 70.3485
14.6974 72.1224
14.8774 111.155
15.0574 166.071
15.2374 73.3994
15.4175 67.9648
15.5976 67.0428
15.7778 96.402
15.958 171.679
16.1382 65.0624
16.3185 60.3692
16.4988 56.9805
16.6792 55.8119
16.8596 56.4691
17.04 57.3027
17.2205 67.225
17.401 74.9446
17.5815 60.6799
17.7622 62.6727
17.9428 75.8128
18.1237 137.284
18.3044 90.0302
18.4852 82.3171
18.666 62.0972
18.8469 59.5202
19.0278 58.3716
19.2088 61.1623
19.3898 77.3798
19.5709 55.7301
19.752 54.4017
19.9332 57.5997
20.1144 70.7462
20.2957 64.0911
20.477 56.0313
20.6586 50.7967
20.84 49.9877
21.0215 49.7312
21.203 51.6347
21.3846 50.4231
21.5662 49.8533
21.7479 53.6069
21.9297 65.5699
22.1115 56.9997
22.2933 51.3809
22.4753 50.0255
22.6572 49.9846
22.8393 52.7804
23.0214 59.0867
23.2037 50.2174
23.3859 50.9417
23.5682 57.3488
23.7505 50.2137
23.9329 46.3169
24.1154 45.2824
24.2979 44.4107
24.4805 44.04
24.6631 43.9192
24.8458 43.1805
25.0286 43.8055
25.2114 45.7065
25.3943 45.7781
25.5773 41.9096
25.7605 41.4382
25.9436 41.7973
26.1268 42.7632
26.31 41.031
26.4933 41.6895
26.6767 43.0545
26.8601 41.4749
27.0437 39.8333
27.2272 39.3987
27.4109 39.2817
27.5946 39.2767
27.7784 38.8259
27.9623 39.1875
28.1462 39.9081
28.3304 38.0833
28.5145 36.7958
28.6987 36.4665
28.8829 36.2786
29.0673 35.5679
29.2517 35.1687
29.4361 34.887
29.6207 34.0448
29.8053 33.7458
29.99 33.3735
30.1748 33.2307
30.3597 33.0465
30.5447 32.9123
30.7297 32.9092
30.915 32.3686
31.1002 31.8018
31.2855 31.5729
31.4708 31.5273
31.6563 31.0814
31.8418 30.8289
32.0275 30.5932
32.2132 30.1427
32.399 29.6157
32.5848 29.1811
32.7708 28.8884
32.9569 28.6526
33.143 28.4021
33.3293 28.0359
33.5158 27.6681
33.7022 27.1717
33.8887 26.9542
34.0753 26.6353
34.262 26.2686
34.4488 25.9097
34.6357 25.5852
34.8227 25.2698
35.0098 25.0922
35.1969 24.8088
35.3842 24.5588
35.5716 24.3324
35.759 23.9527
35.9468 23.6892
36.1345 23.3858
36.3222 23.1818
36.5101 22.9517
36.6981 22.6096
36.8861 22.3631
37.0743 22.0322
37.2626 21.7521
37.451 21.438
37.6395 21.3292
37.8281 20.9276
38.0168 20.7383
38.2056 20.4546
38.3945 20.1706
38.5837 19.8417
38.7728 19.6907
38.9621 19.4187
39.1514 19.1695
39.3409 18.821
39.5304 18.7382
39.7201 18.4565
39.9099 18.264
40.0999 18.0176
40.2899 17.7846
40.48 17.5446
40.6703 17.3294
40.8607 17.1199
41.0512 16.9009
41.242 16.6847
41.4327 16.4507
41.6236 16.2024
41.8146 16.0637
42.0057 15.7909
42.1969 15.5363
42.3882 15.395
42.5797 15.172
42.7713 15.0364
42.963 14.7442
43.1549 14.57
43.3468 14.3122
43.5389 14.1444
43.7312 13.9149
43.9237 13.7591
44.1162 13.5545
44.3088 13.3793
44.5016 13.2434
44.6945 13.0013
44.8875 12.848
45.0806 12.6611
45.2739 12.4742
45.4673 12.281
45.6609 12.0912
45.8546 11.9983
46.0484 11.8155
46.2424 11.6254
46.4365 11.4729
46.631 11.3021
46.8254 11.1086
47.0199 10.9439
47.2146 10.7833
47.4095 10.5967
47.6044 10.4863
47.7996 10.3337
47.9948 10.2117
48.1902 10.0417
48.3858 9.90202
48.5815 9.75876
48.7774 9.61391
48.9734 9.47271
49.1696 9.29426
49.3661 9.16079
49.5626 9.0117
49.7592 8.88527
49.956 8.76337
50.153 8.63021
50.3501 8.49022
50.5474 8.37693
50.7448 8.24944
50.9424 8.10031
51.1402 8.00073
51.3381 7.84505
51.5362 7.72211
51.7344 7.61781
51.9328 7.48988
52.1316 7.31353
52.3304 7.22288
52.5293 7.12874
52.7284 7.01822
52.9276 6.90625
53.1271 6.78031
53.3267 6.6311
53.5265 6.52654
53.7264 6.41487
53.9266 6.33145
54.1269 6.1868
54.3274 6.10199
54.528 5.94396
54.7289 5.74671
54.9301 5.57308
55.1314 5.50348
55.3328 5.24675
55.5344 5.07535
55.7361 4.90734