File: XRD/Ni3Fe_FD0636.xy
TT I
1.27165 7.26528
1.45013 5.79917
1.62863 5.57709
1.80712 4.42149
1.98562 4.58336
2.16411 5.20132
2.34263 5.30193
2.52115 6.46525
2.69965 8.0553
2.87818 8.59861
3.05672 11.1502
3.23527 15.3278
3.4138 18.8389
3.59237 24.2363
3.77094 26.0479
3.9495 29.8542
4.12809 34.4579
4.30669 251.617
4.4853 68.7641
4.6639 55.4187
4.84253 67.4837
5.02118 86.4908
5.19981 338.994
5.37848 195.248
5.55716 102.695
5.73586 92.5366
5.91455 93.4298
6.09328 4391.68
6.27201 84.0713
6.45075 67.5822
6.62952 63.3023
6.8083 58.969
6.98711 56.2101
7.16591 55.9683
7.34475 99.0909
7.5236 55.3435
7.70247 56.287
7.88135 58.0227
8.06026 62.7542
8.23919 69.9205
8.41812 85.7
8.59709 1126.49
8.77609 100.451
8.9551 93.154
9.13412 81.8549
9.31318 82.6333
9.49226 84.7348
9.67134 100.34
9.85047 100.06
10.0296 328.121
10.2088 435.134
10.388 105.05
10.5672 503.696
10.7465 87.2408
10.9257 79.0924
11.105 72.3175
11.2844 71.3746
11.4637 65.0167
11.6431 63.5673
11.8225 62.7907
12.002 63.4475
12.1814 148.12
12.3609 72.4242
12.5405 64.8331
12.72 71.0561
12.8996 71.0393
13.0792 78.7474
13.2589 230.676
13.4386 127.991
13.6183 240.935
13.7981 100.438
13.9779 76.1961
14.1577 72.7191
14.3376 72.2346
14.5175 68.9769
14.6974 70.5341
14.8774 108.077
15.0574 152.744
15.2374 71.8374
15.4175 66.4923
15.5976 65.8606
15.7778 93.3262
15.958 159.968
16.1382 63.4993
16.3185 59.0734
16.4988 55.773
16.6792 54.7027
16.8596 55.5381
17.04 55.8978
17.2205 66.4544
17.401 72.1215
17.5815 59.3711
17.7622 61.369
17.9428 73.0903
18.1237 138.233
18.3044 90.2146
18.4852 79.6423
18.666 60.642
18.8469 58.3181
19.0278 56.9777
19.2088 59.5824
19.3898 76.633
19.5709 54.4637
19.752 53.5083
19.9332 56.231
20.1144 69.8449
20.2957 63.3932
20.477 54.2987
20.6586 49.7395
20.84 48.9657
21.0215 48.7207
21.203 50.9087
21.3846 49.0667
21.5662 48.8531
21.7479 52.3895
21.9297 64.7166
22.1115 56.0992
22.2933 50.1989
22.4753 49.2285
22.6572 48.9485
22.8393 51.8129
23.0214 57.8131
23.2037 49.0428
23.3859 49.7624
23.5682 56.8252
23.7505 48.7045
23.9329 45.5233
24.1154 44.201
24.2979 43.7116
24.4805 43.0578
24.6631 42.9195
24.8458 42.2463
25.0286 42.8575
25.2114 44.7084
25.3943 44.9074
25.5773 41.0515
25.7605 40.6413
25.9436 40.9615
26.1268 41.8353
26.31 40.1213
26.4933 40.7752
26.6767 42.3762
26.8601 40.5655
27.0437 39.0419
27.2272 38.6117
27.4109 38.6369
27.5946 38.555
27.7784 37.9011
27.9623 38.3899
28.1462 38.8989
28.3304 37.3679
28.5145 36.1834
28.6987 35.7018
28.8829 35.5537
29.0673 34.8262
29.2517 34.4292
29.4361 34.2637
29.6207 33.2634
29.8053 33.046
29.99 32.7684
30.1748 32.5394
30.3597 32.4271
30.5447 32.2218
30.7297 32.3607
30.915 31.7602
31.1002 31.3153
31.2855 30.9719
31.4708 30.9469
31.6563 30.5487
31.8418 30.3385
32.0275 30.0144
32.2132 29.5211
32.399 29.0805
32.5848 28.6206
32.7708 28.3373
32.9569 28.1453
33.143 27.8515
33.3293 27.5522
33.5158 27.2066
33.7022 26.6636
33.8887 26.4575
34.0753 26.1219
34.262 25.7712
34.4488 25.3486
34.6357 25.0427
34.8227 24.8196
35.0098 24.6116
35.1969 24.2702
35.3842 24.0951
35.5716 23.8853
35.759 23.5777
35.9468 23.2087
36.1345 22.9207
36.3222 22.7352
36.5101 22.5449
36.6981 22.2136
36.8861 21.879
37.0743 21.713
37.2626 21.3615
37.451 21.1772
37.6395 20.9636
37.8281 20.5354
38.0168 20.2731
38.2056 19.9812
38.3945 19.7294
38.5837 19.5404
38.7728 19.313
38.9621 19.1229
39.1514 18.7988
39.3409 18.5452
39.5304 18.3152
39.7201 18.1773
39.9099 17.9173
40.0999 17.6721
40.2899 17.4032
40.48 17.17
40.6703 17.015
40.8607 16.7833
41.0512 16.5703
41.242 16.3346
41.4327 16.1764
41.6236 15.9239
41.8146 15.7839
42.0057 15.4841
42.1969 15.2986
42.3882 15.0818
42.5797 14.9329
42.7713 14.7283
42.963 14.5302
43.1549 14.3254
43.3468 14.0868
43.5389 13.9214
43.7312 13.6884
43.9237 13.5335
44.1162 13.3555
44.3088 13.1867
44.5016 12.9412
44.6945 12.8289
44.8875 12.6346
45.0806 12.4356
45.2739 12.2648
45.4673 12.1074
45.6609 11.8993
45.8546 11.7246
46.0484 11.6018
46.2424 11.3604
46.4365 11.2724
46.631 11.1078
46.8254 10.8889
47.0199 10.7426
47.2146 10.6411
47.4095 10.4403
47.6044 10.2833
47.7996 10.1474
47.9948 10.0113
48.1902 9.81865
48.3858 9.75
48.5815 9.59247
48.7774 9.42555
48.9734 9.28585
49.1696 9.08879
49.3661 8.98948
49.5626 8.82204
49.7592 8.75726
49.956 8.60226
50.153 8.48737
50.3501 8.3187
50.5474 8.19247
50.7448 8.10004
50.9424 8.00292
51.1402 7.83055
51.3381 7.69456
51.5362 7.61019
51.7344 7.46948
51.9328 7.35212
52.1316 7.23256
52.3304 7.10148
52.5293 6.97063
52.7284 6.89796
52.9276 6.76076
53.1271 6.6325
53.3267 6.55314
53.5265 6.40803
53.7264 6.29922
53.9266 6.15868
54.1269 6.0637
54.3274 5.94767
54.528 5.86137
54.7289 5.67471
54.9301 5.50019
55.1314 5.35576
55.3328 5.15338
55.5344 4.98288
55.7361 4.82809