File: XRD/Ni3Fe_FD0163.xy
TT I
1.27165 8.20759
1.45013 6.51482
1.62863 5.66718
1.80712 4.92077
1.98562 5.40846
2.16411 4.69181
2.34263 3.54697
2.52115 4.61393
2.69965 5.6293
2.87818 7.77539
3.05672 11.4497
3.23527 15.1843
3.4138 18.5659
3.59237 22.1628
3.77094 25.2123
3.9495 28.7928
4.12809 33.4693
4.30669 37.6176
4.4853 45.1646
4.6639 54.4033
4.84253 66.3918
5.02118 91.1109
5.19981 538.184
5.37848 421.614
5.55716 107.54
5.73586 95.5963
5.91455 104.906
6.09328 2780.94
6.27201 89.2657
6.45075 66.3316
6.62952 60.1716
6.8083 55.6858
6.98711 53.4798
7.16591 52.6456
7.34475 52.2993
7.5236 55.9264
7.70247 54.0391
7.88135 56.5513
8.06026 60.7041
8.23919 68.1984
8.41812 83.6475
8.59709 903.942
8.77609 115.879
8.9551 85.4492
9.13412 81.71
9.31318 86.7065
9.49226 83.7334
9.67134 89.1372
9.85047 99.0904
10.0296 541.869
10.2088 968.064
10.388 104.636
10.5672 338.378
10.7465 91.0819
10.9257 76.1017
11.105 70.4572
11.2844 66.3934
11.4637 63.6842
11.6431 62.3758
11.8225 61.4703
12.002 65.3366
12.1814 119.483
12.3609 74.9684
12.5405 63.2081
12.72 65.5414
12.8996 70.0486
13.0792 79.5355
13.2589 207.584
13.4386 206.802
13.6183 195.305
13.7981 153.444
13.9779 76.2783
14.1577 74.0835
14.3376 69.2846
14.5175 68.824
14.6974 70.0745
14.8774 121.188
15.0574 204.344
15.2374 69.3278
15.4175 66.4576
15.5976 65.9371
15.7778 107.547
15.958 185.997
16.1382 61.9935
16.3185 57.4609
16.4988 55.093
16.6792 54.1984
16.8596 54.5086
17.04 55.4838
17.2205 65.6285
17.401 80.9283
17.5815 59.1988
17.7622 61.5073
17.9428 83.8843
18.1237 116.371
18.3044 88.772
18.4852 94.8746
18.666 61.2882
18.8469 58.4333
19.0278 57.0857
19.2088 61.9276
19.3898 69.8066
19.5709 56.3014
19.752 53.5104
19.9332 58.4268
20.1144 67.6784
20.2957 61.3927
20.477 59.1982
20.6586 50.0817
20.84 49.1023
21.0215 49.1486
21.203 49.9027
21.3846 50.6158
21.5662 49.1241
21.7479 54.453
21.9297 62.6231
22.1115 56.3674
22.2933 52.613
22.4753 48.8214
22.6572 49.3287
22.8393 52.4115
23.0214 57.454
23.2037 49.9479
23.3859 51.8805
23.5682 53.9845
23.7505 53.1853
23.9329 45.7967
24.1154 44.4196
24.2979 43.7863
24.4805 43.0855
24.6631 43.2573
24.8458 42.6174
25.0286 43.334
25.2114 44.9891
25.3943 45.101
25.5773 41.8408
25.7605 40.9091
25.9436 41.2022
26.1268 41.8199
26.31 41.0883
26.4933 41.0535
26.6767 42.3212
26.8601 41.5593
27.0437 39.5531
27.2272 39.2822
27.4109 38.7737
27.5946 38.9197
27.7784 38.7018
27.9623 38.6939
28.1462 39.6089
28.3304 38.1412
28.5145 36.4878
28.6987 36.1985
28.8829 35.7463
29.0673 35.3247
29.2517 34.617
29.4361 34.4847
29.6207 33.6852
29.8053 33.1962
29.99 32.9813
30.1748 32.6366
30.3597 32.685
30.5447 32.472
30.7297 32.5463
30.915 32.3407
31.1002 31.5494
31.2855 31.3108
31.4708 31.1451
31.6563 30.9276
31.8418 30.5922
32.0275 30.4033
32.2132 29.962
32.399 29.3075
32.5848 28.9332
32.7708 28.5105
32.9569 28.3811
33.143 28.0739
33.3293 27.7591
33.5158 27.5228
33.7022 26.8585
33.8887 26.6348
34.0753 26.3572
34.262 25.9493
34.4488 25.7037
34.6357 25.2196
34.8227 24.9547
35.0098 24.7864
35.1969 24.5059
35.3842 24.2508
35.5716 24.0583
35.759 23.7271
35.9468 23.4254
36.1345 23.1817
36.3222 23.0123
36.5101 22.6486
36.6981 22.3813
36.8861 22.0845
37.0743 21.7765
37.2626 21.4726
37.451 21.2466
37.6395 21.0879
37.8281 20.7288
38.0168 20.3879
38.2056 20.2202
38.3945 19.8941
38.5837 19.6108
38.7728 19.4949
38.9621 19.2051
39.1514 18.9522
39.3409 18.7001
39.5304 18.4178
39.7201 18.2456
39.9099 18.0435
40.0999 17.7968
40.2899 17.5845
40.48 17.3161
40.6703 17.107
40.8607 16.9679
41.0512 16.6654
41.242 16.3706
41.4327 16.2311
41.6236 16.0071
41.8146 15.8249
42.0057 15.615
42.1969 15.4217
42.3882 15.1867
42.5797 15.0272
42.7713 14.7909
42.963 14.6055
43.1549 14.4066
43.3468 14.1767
43.5389 13.9735
43.7312 13.757
43.9237 13.6012
44.1162 13.4602
44.3088 13.2599
44.5016 13.0058
44.6945 12.8672
44.8875 12.7073
45.0806 12.4677
45.2739 12.3269
45.4673 12.1602
45.6609 12.0027
45.8546 11.8132
46.0484 11.6807
46.2424 11.4582
46.4365 11.3275
46.631 11.1542
46.8254 10.9824
47.0199 10.8075
47.2146 10.6808
47.4095 10.5018
47.6044 10.3686
47.7996 10.1917
47.9948 10.0801
48.1902 9.8961
48.3858 9.78774
48.5815 9.62226
48.7774 9.5541
48.9734 9.35963
49.1696 9.17292
49.3661 9.08465
49.5626 8.92996
49.7592 8.80195
49.956 8.65882
50.153 8.51262
50.3501 8.37726
50.5474 8.28476
50.7448 8.16575
50.9424 8.02733
51.1402 7.90829
51.3381 7.73817
51.5362 7.62731
51.7344 7.51027
51.9328 7.39116
52.1316 7.25892
52.3304 7.14494
52.5293 7.0128
52.7284 6.92736
52.9276 6.79292
53.1271 6.71188
53.3267 6.58999
53.5265 6.4558
53.7264 6.34394
53.9266 6.26895
54.1269 6.12172
54.3274 5.98456
54.528 5.83094
54.7289 5.65223
54.9301 5.44093
55.1314 5.34668
55.3328 5.134
55.5344 4.9314
55.7361 4.79918