File: XRD/Ni3Fe_FD0198.xy
TT I
1.27165 8.28789
1.45013 6.27829
1.62863 5.52425
1.80712 5.17176
1.98562 4.99034
2.16411 4.24894
2.34263 4.03281
2.52115 4.64543
2.69965 6.01088
2.87818 7.92241
3.05672 10.8085
3.23527 15.244
3.4138 18.9468
3.59237 22.6078
3.77094 25.7684
3.9495 30.2645
4.12809 34.8823
4.30669 40.8109
4.4853 48.328
4.6639 58.0616
4.84253 71.7943
5.02118 97.458
5.19981 860.457
5.37848 303.599
5.55716 113.192
5.73586 101.812
5.91455 112.207
6.09328 3421.29
6.27201 90.5308
6.45075 70.6804
6.62952 64.1073
6.8083 60.1199
6.98711 56.9861
7.16591 56.3759
7.34475 56.0039
7.5236 57.8159
7.70247 57.8663
7.88135 60.5305
8.06026 65.2728
8.23919 73.3568
8.41812 90.956
8.59709 1015.05
8.77609 113.176
8.9551 90.9562
9.13412 87.1933
9.31318 89.1951
9.49226 90.0464
9.67134 95.7483
9.85047 107.256
10.0296 539.317
10.2088 647.19
10.388 113.624
10.5672 421.798
10.7465 93.6158
10.9257 81.0402
11.105 74.982
11.2844 70.947
11.4637 67.7054
11.6431 66.5639
11.8225 65.4618
12.002 69.0507
12.1814 134.548
12.3609 71.4369
12.5405 67.6652
12.72 70.1335
12.8996 74.835
13.0792 85.7396
13.2589 221.109
13.4386 158.001
13.6183 217.807
13.7981 117.729
13.9779 80.417
14.1577 76.8403
14.3376 73.6442
14.5175 72.9054
14.6974 74.9005
14.8774 118.618
15.0574 181.356
15.2374 72.58
15.4175 70.0652
15.5976 69.9328
15.7778 103.611
15.958 179.763
16.1382 64.2888
16.3185 60.6464
16.4988 58.3341
16.6792 57.3512
16.8596 57.5457
17.04 59.1416
17.2205 68.8654
17.401 79.3203
17.5815 62.2969
17.7622 64.8638
17.9428 84.2122
18.1237 134.57
18.3044 89.5551
18.4852 86.4169
18.666 63.75
18.8469 61.1532
19.0278 59.7348
19.2088 63.3701
19.3898 75.1316
19.5709 57.6547
19.752 56.1844
19.9332 59.68
20.1144 72.0781
20.2957 64.0694
20.477 57.5343
20.6586 52.3153
20.84 51.3761
21.0215 51.5047
21.203 52.4983
21.3846 52.1763
21.5662 51.7208
21.7479 55.4749
21.9297 66.1074
22.1115 57.5158
22.2933 52.9564
22.4753 51.0873
22.6572 52.1742
22.8393 54.071
23.0214 59.9376
23.2037 51.5225
23.3859 52.9576
23.5682 56.9075
23.7505 51.9572
23.9329 47.4998
24.1154 46.2366
24.2979 45.5375
24.4805 44.993
24.6631 44.9304
24.8458 44.54
25.0286 45.1693
25.2114 46.5322
25.3943 46.6017
25.5773 43.0909
25.7605 42.6405
25.9436 42.6805
26.1268 43.669
26.31 42.4688
26.4933 42.6657
26.6767 43.9279
26.8601 42.3238
27.0437 40.8911
27.2272 40.5699
27.4109 40.1735
27.5946 40.3267
27.7784 39.8033
27.9623 39.9199
28.1462 40.617
28.3304 39.1757
28.5145 37.8089
28.6987 37.2626
28.8829 37.014
29.0673 36.4108
29.2517 35.9062
29.4361 35.5683
29.6207 34.7485
29.8053 34.4592
29.99 34.14
30.1748 33.9422
30.3597 33.8394
30.5447 33.7024
30.7297 33.704
30.915 33.1092
31.1002 32.6148
31.2855 32.307
31.4708 32.2298
31.6563 31.8706
31.8418 31.5577
32.0275 31.4338
32.2132 30.8687
32.399 30.3605
32.5848 30.0129
32.7708 29.4969
32.9569 29.4253
33.143 29.1115
33.3293 28.7139
33.5158 28.3625
33.7022 27.8263
33.8887 27.5272
34.0753 27.2295
34.262 26.8003
34.4488 26.4769
34.6357 26.1299
34.8227 25.8593
35.0098 25.6581
35.1969 25.3785
35.3842 25.0965
35.5716 24.9398
35.759 24.6033
35.9468 24.1184
36.1345 23.9918
36.3222 23.7544
36.5101 23.5017
36.6981 23.1728
36.8861 22.8801
37.0743 22.5224
37.2626 22.2827
37.451 21.9711
37.6395 21.8
37.8281 21.4763
38.0168 21.1976
38.2056 20.8814
38.3945 20.6025
38.5837 20.3227
38.7728 20.0885
38.9621 19.827
39.1514 19.6088
39.3409 19.3304
39.5304 19.0737
39.7201 18.9608
39.9099 18.6998
40.0999 18.444
40.2899 18.1647
40.48 17.9112
40.6703 17.7575
40.8607 17.5804
41.0512 17.2758
41.242 17.0071
41.4327 16.77
41.6236 16.5839
41.8146 16.3944
42.0057 16.1186
42.1969 15.9044
42.3882 15.7372
42.5797 15.4869
42.7713 15.3203
42.963 15.125
43.1549 14.913
43.3468 14.6274
43.5389 14.4643
43.7312 14.2634
43.9237 14.0672
44.1162 13.8624
44.3088 13.7251
44.5016 13.5095
44.6945 13.2859
44.8875 13.1481
45.0806 12.9064
45.2739 12.718
45.4673 12.5874
45.6609 12.3621
45.8546 12.207
46.0484 12.0169
46.2424 11.8836
46.4365 11.6919
46.631 11.5275
46.8254 11.3475
47.0199 11.1866
47.2146 11.0141
47.4095 10.8661
47.6044 10.6824
47.7996 10.532
47.9948 10.4079
48.1902 10.2329
48.3858 10.0513
48.5815 9.96395
48.7774 9.79249
48.9734 9.63132
49.1696 9.51302
49.3661 9.36306
49.5626 9.2334
49.7592 9.10949
49.956 8.94903
50.153 8.82227
50.3501 8.6757
50.5474 8.50139
50.7448 8.4128
50.9424 8.29386
51.1402 8.14561
51.3381 8.02399
51.5362 7.89746
51.7344 7.76854
51.9328 7.64359
52.1316 7.4856
52.3304 7.40434
52.5293 7.25162
52.7284 7.19423
52.9276 6.99535
53.1271 6.93748
53.3267 6.77533
53.5265 6.62922
53.7264 6.55284
53.9266 6.43999
54.1269 6.29447
54.3274 6.1829
54.528 5.99689
54.7289 5.87918
54.9301 5.69826
55.1314 5.56424
55.3328 5.29693
55.5344 5.1094
55.7361 4.98006