File: XRD/Ni3Fe_FD0656.xy
TT I
1.27165 7.54758
1.45013 6.3112
1.62863 5.84854
1.80712 5.20304
1.98562 4.66782
2.16411 5.05633
2.34263 5.55016
2.52115 7.0597
2.69965 7.82486
2.87818 9.14823
3.05672 11.3961
3.23527 15.0115
3.4138 19.1025
3.59237 24.7662
3.77094 26.4744
3.9495 29.9238
4.12809 35.2534
4.30669 296.452
4.4853 73.3982
4.6639 55.5188
4.84253 66.6945
5.02118 85.9505
5.19981 326.577
5.37848 196.85
5.55716 101.927
5.73586 91.5999
5.91455 92.615
6.09328 4266.76
6.27201 84.3437
6.45075 67.705
6.62952 63.5593
6.8083 59.5747
6.98711 56.2277
7.16591 56.3176
7.34475 108.606
7.5236 55.4953
7.70247 56.479
7.88135 58.2377
8.06026 62.5511
8.23919 70.1597
8.41812 85.5548
8.59709 1068.91
8.77609 100.319
8.9551 94.0852
9.13412 81.5701
9.31318 82.4041
9.49226 84.6044
9.67134 101.927
9.85047 99.614
10.0296 313.296
10.2088 458.285
10.388 105.427
10.5672 481.652
10.7465 87.1724
10.9257 78.9261
11.105 72.1916
11.2844 72.1432
11.4637 65.4702
11.6431 63.8629
11.8225 62.6742
12.002 63.3437
12.1814 144.216
12.3609 73.3251
12.5405 64.8372
12.72 72.2595
12.8996 70.9707
13.0792 78.2807
13.2589 221.921
13.4386 131.203
13.6183 232.069
13.7981 101.003
13.9779 75.8932
14.1577 73.0909
14.3376 72.708
14.5175 69.073
14.6974 70.4267
14.8774 105.495
15.0574 157.897
15.2374 72.3301
15.4175 66.4711
15.5976 65.7732
15.7778 91.6944
15.958 165.22
16.1382 63.9125
16.3185 59.3729
16.4988 55.8903
16.6792 54.5179
16.8596 55.5731
17.04 55.7493
17.2205 65.8236
17.401 72.402
17.5815 59.2466
17.7622 61.2902
17.9428 72.4086
18.1237 138.793
18.3044 88.8016
18.4852 80.1982
18.666 60.6431
18.8469 58.067
19.0278 57.0536
19.2088 59.4339
19.3898 77.3635
19.5709 54.2789
19.752 53.5062
19.9332 56.0241
20.1144 69.9259
20.2957 63.299
20.477 54.4294
20.6586 49.9711
20.84 49.0432
21.0215 48.5699
21.203 50.8212
21.3846 49.0611
21.5662 48.8177
21.7479 52.4056
21.9297 64.5787
22.1115 56.0722
22.2933 50.2608
22.4753 49.3698
22.6572 48.9957
22.8393 51.7677
23.0214 57.9125
23.2037 48.9163
23.3859 49.6714
23.5682 56.7052
23.7505 48.8416
23.9329 45.3639
24.1154 44.3269
24.2979 43.5137
24.4805 43.0911
24.6631 42.9542
24.8458 42.3206
25.0286 42.8276
25.2114 44.7978
25.3943 44.8912
25.5773 41.1006
25.7605 40.5509
25.9436 41.0265
26.1268 41.8433
26.31 40.1003
26.4933 40.7665
26.6767 42.2235
26.8601 40.5994
27.0437 39.0067
27.2272 38.668
27.4109 38.5142
27.5946 38.5968
27.7784 38.0103
27.9623 38.4394
28.1462 38.9804
28.3304 37.3715
28.5145 36.1051
28.6987 35.7378
28.8829 35.6186
29.0673 34.8604
29.2517 34.4627
29.4361 34.3009
29.6207 33.2067
29.8053 32.9151
29.99 32.6619
30.1748 32.5405
30.3597 32.4304
30.5447 32.3004
30.7297 32.3574
30.915 31.6616
31.1002 31.1963
31.2855 31.035
31.4708 30.9386
31.6563 30.4695
31.8418 30.1668
32.0275 30.0712
32.2132 29.5528
32.399 28.984
32.5848 28.6279
32.7708 28.2962
32.9569 28.0999
33.143 27.9111
33.3293 27.5407
33.5158 27.1961
33.7022 26.7067
33.8887 26.3662
34.0753 26.1256
34.262 25.8191
34.4488 25.4287
34.6357 25.0996
34.8227 24.7071
35.0098 24.6767
35.1969 24.3768
35.3842 24.0121
35.5716 23.877
35.759 23.5757
35.9468 23.1664
36.1345 22.9849
36.3222 22.7533
36.5101 22.4813
36.6981 22.2532
36.8861 21.8759
37.0743 21.5894
37.2626 21.3726
37.451 21.0698
37.6395 20.901
37.8281 20.5688
38.0168 20.2988
38.2056 20.0265
38.3945 19.7338
38.5837 19.5139
38.7728 19.2584
38.9621 19.0623
39.1514 18.7219
39.3409 18.5224
39.5304 18.2806
39.7201 18.1849
39.9099 17.9141
40.0999 17.6792
40.2899 17.4044
40.48 17.1565
40.6703 17.0037
40.8607 16.8414
41.0512 16.5641
41.242 16.3306
41.4327 16.154
41.6236 15.8901
41.8146 15.7224
42.0057 15.5307
42.1969 15.3206
42.3882 15.1249
42.5797 14.8708
42.7713 14.7222
42.963 14.4947
43.1549 14.2556
43.3468 14.1046
43.5389 13.8941
43.7312 13.6771
43.9237 13.5363
44.1162 13.2923
44.3088 13.1407
44.5016 12.9709
44.6945 12.8412
44.8875 12.5932
45.0806 12.4317
45.2739 12.2895
45.4673 12.0662
45.6609 11.9332
45.8546 11.7833
46.0484 11.5671
46.2424 11.4171
46.4365 11.2653
46.631 11.098
46.8254 10.9218
47.0199 10.7657
47.2146 10.5994
47.4095 10.4432
47.6044 10.2607
47.7996 10.163
47.9948 9.96013
48.1902 9.88273
48.3858 9.69975
48.5815 9.57271
48.7774 9.41812
48.9734 9.29769
49.1696 9.13396
49.3661 9.0184
49.5626 8.85928
49.7592 8.72571
49.956 8.59936
50.153 8.4706
50.3501 8.31778
50.5474 8.22142
50.7448 8.05743
50.9424 7.99201
51.1402 7.85072
51.3381 7.70141
51.5362 7.6029
51.7344 7.4554
51.9328 7.31006
52.1316 7.20656
52.3304 7.12547
52.5293 6.97293
52.7284 6.86846
52.9276 6.73852
53.1271 6.67124
53.3267 6.58321
53.5265 6.39173
53.7264 6.29416
53.9266 6.18723
54.1269 6.11601
54.3274 5.97245
54.528 5.82574
54.7289 5.6934
54.9301 5.52596
55.1314 5.36254
55.3328 5.20633
55.5344 4.96856
55.7361 4.85348