File: XRD/Ni3Fe_FD0253.xy
TT I
1.27165 8.1092
1.45013 6.3501
1.62863 5.30037
1.80712 5.50186
1.98562 5.04519
2.16411 4.41963
2.34263 5.02576
2.52115 4.9575
2.69965 5.58865
2.87818 8.52194
3.05672 11.1939
3.23527 14.827
3.4138 18.9345
3.59237 21.8741
3.77094 25.7953
3.9495 29.6329
4.12809 34.5946
4.30669 40.306
4.4853 48.4883
4.6639 57.7786
4.84253 71.489
5.02118 95.5721
5.19981 870.416
5.37848 259.97
5.55716 111.42
5.73586 100.317
5.91455 108.955
6.09328 3710.01
6.27201 88.4647
6.45075 70.8373
6.62952 63.974
6.8083 59.9441
6.98711 57.255
7.16591 56.6042
7.34475 55.6376
7.5236 55.7347
7.70247 58.0843
7.88135 59.7911
8.06026 65.0565
8.23919 72.8681
8.41812 89.847
8.59709 1084.47
8.77609 109.639
8.9551 90.3892
9.13412 86.2707
9.31318 87.9009
9.49226 89.1642
9.67134 95.0149
9.85047 106.313
10.0296 512.93
10.2088 525.061
10.388 114.665
10.5672 453.363
10.7465 91.8041
10.9257 80.6656
11.105 74.7312
11.2844 70.3335
11.4637 67.3344
11.6431 65.891
11.8225 65.0557
12.002 68.5566
12.1814 141.584
12.3609 69.5001
12.5405 67.262
12.72 69.2968
12.8996 74.7235
13.0792 86.0104
13.2589 232.205
13.4386 148.381
13.6183 229.106
13.7981 109.258
13.9779 79.7411
14.1577 74.9062
14.3376 72.5263
14.5175 72.1925
14.6974 74.2544
14.8774 120.01
15.0574 167.544
15.2374 71.8366
15.4175 69.7371
15.5976 69.6911
15.7778 104.0
15.958 170.453
16.1382 63.5115
16.3185 59.7515
16.4988 57.7268
16.6792 56.7918
16.8596 56.9654
17.04 58.9981
17.2205 69.0061
17.401 76.686
17.5815 61.9807
17.7622 64.5045
17.9428 82.3442
18.1237 139.295
18.3044 90.4591
18.4852 82.8982
18.666 63.1348
18.8469 60.7347
19.0278 59.4629
19.2088 62.6463
19.3898 76.3304
19.5709 57.0152
19.752 55.7101
19.9332 59.3481
20.1144 72.3281
20.2957 64.5264
20.477 56.2343
20.6586 51.9005
20.84 50.9803
21.0215 50.9214
21.203 52.4378
21.3846 51.1932
21.5662 51.4235
21.7479 55.3319
21.9297 66.432
22.1115 57.4762
22.2933 52.1218
22.4753 50.613
22.6572 51.7412
22.8393 54.2408
23.0214 59.6965
23.2037 51.3392
23.3859 52.5167
23.5682 57.6053
23.7505 50.9244
23.9329 47.1909
24.1154 45.9191
24.2979 45.2344
24.4805 44.7062
24.6631 44.6719
24.8458 44.2423
25.0286 44.8453
25.2114 46.3842
25.3943 46.5346
25.5773 42.7235
25.7605 42.2853
25.9436 42.5182
26.1268 43.5113
26.31 42.0896
26.4933 42.2898
26.6767 43.911
26.8601 42.3003
27.0437 40.5874
27.2272 40.2286
27.4109 39.9747
27.5946 40.0924
27.7784 39.5546
27.9623 39.6873
28.1462 40.4558
28.3304 38.8559
28.5145 37.4613
28.6987 37.0805
28.8829 36.7674
29.0673 36.2265
29.2517 35.7874
29.4361 35.4853
29.6207 34.5946
29.8053 34.2776
29.99 33.9329
30.1748 33.7992
30.3597 33.5916
30.5447 33.4752
30.7297 33.4717
30.915 32.9985
31.1002 32.4351
31.2855 32.0841
31.4708 32.0518
31.6563 31.7107
31.8418 31.392
32.0275 31.1927
32.2132 30.679
32.399 30.139
32.5848 29.6765
32.7708 29.3876
32.9569 29.1203
33.143 28.9988
33.3293 28.55
33.5158 28.2185
33.7022 27.7748
33.8887 27.416
34.0753 27.0943
34.262 26.7385
34.4488 26.3507
34.6357 26.0257
34.8227 25.8099
35.0098 25.446
35.1969 25.2086
35.3842 24.9715
35.5716 24.7145
35.759 24.4482
35.9468 24.1585
36.1345 23.8959
36.3222 23.6303
36.5101 23.3066
36.6981 23.0256
36.8861 22.7144
37.0743 22.4174
37.2626 22.1137
37.451 21.8246
37.6395 21.6093
37.8281 21.2869
38.0168 21.0936
38.2056 20.7985
38.3945 20.5098
38.5837 20.2803
38.7728 20.0098
38.9621 19.7103
39.1514 19.4385
39.3409 19.2232
39.5304 18.9636
39.7201 18.7963
39.9099 18.6415
40.0999 18.3124
40.2899 18.0879
40.48 17.8756
40.6703 17.6838
40.8607 17.4371
41.0512 17.2002
41.242 16.8629
41.4327 16.6616
41.6236 16.5256
41.8146 16.2664
42.0057 16.0791
42.1969 15.8593
42.3882 15.683
42.5797 15.42
42.7713 15.2186
42.963 15.0051
43.1549 14.8098
43.3468 14.5858
43.5389 14.4086
43.7312 14.1957
43.9237 13.9866
44.1162 13.7611
44.3088 13.6252
44.5016 13.4132
44.6945 13.2524
44.8875 13.0391
45.0806 12.8416
45.2739 12.7066
45.4673 12.5194
45.6609 12.3201
45.8546 12.1703
46.0484 12.0059
46.2424 11.8378
46.4365 11.6129
46.631 11.4965
46.8254 11.2852
47.0199 11.1667
47.2146 10.9694
47.4095 10.7701
47.6044 10.6431
47.7996 10.4792
47.9948 10.3267
48.1902 10.1371
48.3858 9.98897
48.5815 9.90594
48.7774 9.79362
48.9734 9.59306
49.1696 9.49145
49.3661 9.30789
49.5626 9.17718
49.7592 9.03422
49.956 8.91181
50.153 8.77221
50.3501 8.61128
50.5474 8.50911
50.7448 8.36746
50.9424 8.24877
51.1402 8.11427
51.3381 7.9824
51.5362 7.84715
51.7344 7.70764
51.9328 7.57334
52.1316 7.43853
52.3304 7.33413
52.5293 7.22426
52.7284 7.13554
52.9276 6.99067
53.1271 6.86092
53.3267 6.78854
53.5265 6.63331
53.7264 6.50921
53.9266 6.40068
54.1269 6.29722
54.3274 6.12379
54.528 5.95897
54.7289 5.8457
54.9301 5.66318
55.1314 5.52924
55.3328 5.29977
55.5344 5.13895
55.7361 4.9824