File: XRD/Ni3Fe_FD0216.xy
TT I
1.27165 8.38821
1.45013 6.7142
1.62863 6.35266
1.80712 5.10313
1.98562 4.71289
2.16411 5.12203
2.34263 4.18662
2.52115 4.99252
2.69965 6.82299
2.87818 8.29613
3.05672 11.2671
3.23527 14.6091
3.4138 19.0499
3.59237 22.4355
3.77094 26.132
3.9495 30.2217
4.12809 35.0706
4.30669 41.3767
4.4853 47.9595
4.6639 58.3429
4.84253 71.6754
5.02118 96.889
5.19981 893.935
5.37848 279.717
5.55716 112.858
5.73586 101.011
5.91455 111.095
6.09328 3576.96
6.27201 89.6452
6.45075 71.2924
6.62952 64.3241
6.8083 59.8334
6.98711 57.5306
7.16591 56.6664
7.34475 55.8272
7.5236 56.5189
7.70247 58.462
7.88135 60.1101
8.06026 65.3674
8.23919 73.7107
8.41812 90.8019
8.59709 1052.9
8.77609 111.827
8.9551 91.0018
9.13412 87.3763
9.31318 88.513
9.49226 89.7917
9.67134 95.7588
9.85047 106.655
10.0296 525.088
10.2088 575.306
10.388 115.143
10.5672 434.881
10.7465 92.4766
10.9257 80.7323
11.105 75.1444
11.2844 71.0241
11.4637 68.0246
11.6431 66.5629
11.8225 65.2714
12.002 68.6133
12.1814 139.581
12.3609 70.7095
12.5405 67.6909
12.72 69.8558
12.8996 74.9459
13.0792 86.4727
13.2589 227.149
13.4386 152.351
13.6183 223.649
13.7981 113.913
13.9779 80.3817
14.1577 75.4032
14.3376 73.4796
14.5175 72.681
14.6974 74.7782
14.8774 119.339
15.0574 175.249
15.2374 72.8539
15.4175 69.9881
15.5976 70.2012
15.7778 103.755
15.958 179.046
16.1382 64.1128
16.3185 60.3518
16.4988 58.3204
16.6792 57.394
16.8596 57.3689
17.04 59.189
17.2205 68.8442
17.401 78.1133
17.5815 62.213
17.7622 64.888
17.9428 82.9892
18.1237 138.035
18.3044 90.257
18.4852 84.8464
18.666 63.555
18.8469 61.2019
19.0278 59.7779
19.2088 63.2089
19.3898 76.1175
19.5709 57.0166
19.752 56.1862
19.9332 59.6524
20.1144 72.5895
20.2957 64.2571
20.477 57.0112
20.6586 52.1915
20.84 51.2254
21.0215 51.4512
21.203 52.7
21.3846 51.8552
21.5662 51.8225
21.7479 55.5914
21.9297 66.7598
22.1115 57.716
22.2933 52.7466
22.4753 50.9698
22.6572 52.041
22.8393 54.261
23.0214 60.0563
23.2037 51.6069
23.3859 52.6884
23.5682 57.3827
23.7505 51.5227
23.9329 47.4916
24.1154 46.2139
24.2979 45.4591
24.4805 44.9418
24.6631 44.9173
24.8458 44.4408
25.0286 45.1396
25.2114 46.7063
25.3943 46.6343
25.5773 42.8781
25.7605 42.5485
25.9436 42.8427
26.1268 43.6687
26.31 42.1733
26.4933 42.63
26.6767 44.0523
26.8601 42.3438
27.0437 40.8637
27.2272 40.4398
27.4109 40.2802
27.5946 40.3292
27.7784 39.8184
27.9623 40.0736
28.1462 40.8103
28.3304 39.0836
28.5145 37.6094
28.6987 37.3892
28.8829 37.0081
29.0673 36.4711
29.2517 35.9716
29.4361 35.7406
29.6207 34.8479
29.8053 34.5264
29.99 34.2028
30.1748 34.053
30.3597 33.8892
30.5447 33.7967
30.7297 33.6876
30.915 33.1545
31.1002 32.6764
31.2855 32.2826
31.4708 32.3185
31.6563 31.8486
31.8418 31.5667
32.0275 31.3624
32.2132 30.8332
32.399 30.3306
32.5848 29.9665
32.7708 29.4913
32.9569 29.3703
33.143 29.072
33.3293 28.728
33.5158 28.3323
33.7022 27.8556
33.8887 27.575
34.0753 27.1455
34.262 26.8777
34.4488 26.5187
34.6357 26.1673
34.8227 25.8874
35.0098 25.7361
35.1969 25.3381
35.3842 25.1467
35.5716 24.9033
35.759 24.5769
35.9468 24.2798
36.1345 24.0553
36.3222 23.8232
36.5101 23.4509
36.6981 23.1299
36.8861 22.8529
37.0743 22.5199
37.2626 22.2823
37.451 22.0026
37.6395 21.8168
37.8281 21.4919
38.0168 21.154
38.2056 20.8436
38.3945 20.5976
38.5837 20.4192
38.7728 20.1292
38.9621 19.8299
39.1514 19.5451
39.3409 19.3497
39.5304 19.088
39.7201 18.9832
39.9099 18.6388
40.0999 18.3569
40.2899 18.1615
40.48 17.9246
40.6703 17.7093
40.8607 17.5334
41.0512 17.2756
41.242 17.0027
41.4327 16.802
41.6236 16.5641
41.8146 16.3891
42.0057 16.1716
42.1969 15.9682
42.3882 15.7672
42.5797 15.5145
42.7713 15.3228
42.963 15.0741
43.1549 14.8712
43.3468 14.6425
43.5389 14.4888
43.7312 14.2746
43.9237 14.1125
44.1162 13.8321
44.3088 13.7171
44.5016 13.4842
44.6945 13.3412
44.8875 13.1036
45.0806 12.9262
45.2739 12.7198
45.4673 12.5843
45.6609 12.4011
45.8546 12.2358
46.0484 12.1167
46.2424 11.8946
46.4365 11.679
46.631 11.5438
46.8254 11.3441
47.0199 11.1814
47.2146 11.0318
47.4095 10.848
47.6044 10.6481
47.7996 10.5266
47.9948 10.3917
48.1902 10.2474
48.3858 10.1452
48.5815 9.93522
48.7774 9.82607
48.9734 9.64118
49.1696 9.52444
49.3661 9.34705
49.5626 9.20395
49.7592 9.08703
49.956 8.95409
50.153 8.82899
50.3501 8.65916
50.5474 8.53702
50.7448 8.4028
50.9424 8.29655
51.1402 8.19284
51.3381 8.01862
51.5362 7.90953
51.7344 7.76972
51.9328 7.60603
52.1316 7.47396
52.3304 7.43122
52.5293 7.25834
52.7284 7.1577
52.9276 7.00392
53.1271 6.93582
53.3267 6.78935
53.5265 6.64227
53.7264 6.5699
53.9266 6.42712
54.1269 6.34691
54.3274 6.2144
54.528 6.00401
54.7289 5.83409
54.9301 5.69735
55.1314 5.5527
55.3328 5.34225
55.5344 5.13206
55.7361 5.01575