File: XRD/Ni3Fe_FD0613.xy
TT I
1.27165 7.91561
1.45013 5.99777
1.62863 6.09119
1.80712 4.84833
1.98562 4.72088
2.16411 4.67963
2.34263 5.70179
2.52115 7.13539
2.69965 7.9997
2.87818 8.5565
3.05672 10.8096
3.23527 15.3413
3.4138 19.1765
3.59237 23.6505
3.77094 26.137
3.9495 29.3841
4.12809 35.0036
4.30669 193.052
4.4853 63.0586
4.6639 55.4719
4.84253 67.3737
5.02118 87.3401
5.19981 359.856
5.37848 195.483
5.55716 102.697
5.73586 92.7347
5.91455 94.5327
6.09328 4356.97
6.27201 83.2912
6.45075 67.4835
6.62952 62.7859
6.8083 58.289
6.98711 55.854
7.16591 55.042
7.34475 87.0755
7.5236 54.946
7.70247 56.2315
7.88135 57.9718
8.06026 62.2026
8.23919 69.6122
8.41812 85.3279
8.59709 1201.09
8.77609 100.809
8.9551 90.9859
9.13412 82.5816
9.31318 82.9796
9.49226 84.9184
9.67134 98.0042
9.85047 100.021
10.0296 344.912
10.2088 424.343
10.388 104.908
10.5672 502.77
10.7465 86.8601
10.9257 78.6142
11.105 71.9391
11.2844 70.3354
11.4637 65.1667
11.6431 63.8345
11.8225 62.6644
12.002 63.9536
12.1814 153.153
12.3609 70.5211
12.5405 64.7391
12.72 69.6653
12.8996 71.3099
13.0792 79.1255
13.2589 241.987
13.4386 129.18
13.6183 249.905
13.7981 100.319
13.9779 76.386
14.1577 72.64
14.3376 71.8182
14.5175 69.1488
14.6974 70.696
14.8774 112.134
15.0574 153.322
15.2374 71.0768
15.4175 66.7021
15.5976 66.0636
15.7778 96.1968
15.958 156.096
16.1382 62.8383
16.3185 58.7697
16.4988 55.6375
16.6792 54.818
16.8596 55.2693
17.04 55.9948
17.2205 67.1106
17.401 72.9218
17.5815 59.5122
17.7622 61.4643
17.9428 74.1492
18.1237 139.202
18.3044 91.4361
18.4852 79.153
18.666 60.536
18.8469 58.4152
19.0278 57.1764
19.2088 59.8758
19.3898 76.0689
19.5709 54.6859
19.752 53.7999
19.9332 56.3655
20.1144 69.4952
20.2957 64.1517
20.477 54.091
20.6586 49.9408
20.84 49.044
21.0215 48.828
21.203 51.022
21.3846 49.0942
21.5662 49.0281
21.7479 52.9705
21.9297 64.3405
22.1115 56.3943
22.2933 50.3171
22.4753 49.1418
22.6572 48.998
22.8393 52.1633
23.0214 57.4924
23.2037 49.0584
23.3859 49.8711
23.5682 56.9731
23.7505 48.9449
23.9329 45.4066
24.1154 44.3351
24.2979 43.6583
24.4805 43.1628
24.6631 42.9981
24.8458 42.5512
25.0286 43.0965
25.2114 44.8568
25.3943 44.6236
25.5773 41.2198
25.7605 40.6467
25.9436 41.2205
26.1268 41.8715
26.31 40.2864
26.4933 41.0163
26.6767 42.3931
26.8601 40.6914
27.0437 39.1296
27.2272 38.7671
27.4109 38.6402
27.5946 38.5044
27.7784 38.0445
27.9623 38.5667
28.1462 39.0912
28.3304 37.3722
28.5145 36.1096
28.6987 35.8542
28.8829 35.5505
29.0673 34.7582
29.2517 34.5367
29.4361 34.2627
29.6207 33.2814
29.8053 33.0954
29.99 32.682
30.1748 32.612
30.3597 32.4865
30.5447 32.443
30.7297 32.3539
30.915 31.8791
31.1002 31.2717
31.2855 31.0578
31.4708 31.031
31.6563 30.6174
31.8418 30.3506
32.0275 30.1236
32.2132 29.5052
32.399 28.9973
32.5848 28.6417
32.7708 28.4236
32.9569 28.1471
33.143 28.0785
33.3293 27.5188
33.5158 27.2193
33.7022 26.7729
33.8887 26.5078
34.0753 26.1329
34.262 25.8509
34.4488 25.4719
34.6357 25.0901
34.8227 24.7769
35.0098 24.6476
35.1969 24.3717
35.3842 24.0624
35.5716 23.9136
35.759 23.717
35.9468 23.237
36.1345 23.0467
36.3222 22.7546
36.5101 22.5882
36.6981 22.2768
36.8861 21.9328
37.0743 21.6768
37.2626 21.4096
37.451 21.136
37.6395 20.9361
37.8281 20.6618
38.0168 20.3032
38.2056 20.0857
38.3945 19.8259
38.5837 19.5879
38.7728 19.34
38.9621 19.0527
39.1514 18.8585
39.3409 18.5682
39.5304 18.3486
39.7201 18.1382
39.9099 17.966
40.0999 17.707
40.2899 17.4652
40.48 17.2574
40.6703 17.0799
40.8607 16.8318
41.0512 16.6485
41.242 16.3482
41.4327 16.1478
41.6236 15.9721
41.8146 15.7845
42.0057 15.4873
42.1969 15.3192
42.3882 15.1135
42.5797 14.9032
42.7713 14.7115
42.963 14.4997
43.1549 14.3432
43.3468 14.0752
43.5389 13.9363
43.7312 13.7311
43.9237 13.5316
44.1162 13.3381
44.3088 13.1415
44.5016 12.9418
44.6945 12.7715
44.8875 12.6354
45.0806 12.4349
45.2739 12.2997
45.4673 12.11
45.6609 11.9326
45.8546 11.763
46.0484 11.5844
46.2424 11.4401
46.4365 11.2634
46.631 11.083
46.8254 10.8925
47.0199 10.7331
47.2146 10.613
47.4095 10.42
47.6044 10.3324
47.7996 10.1287
47.9948 10.0077
48.1902 9.86442
48.3858 9.72535
48.5815 9.5863
48.7774 9.4498
48.9734 9.32239
49.1696 9.16533
49.3661 9.02788
49.5626 8.86666
49.7592 8.75949
49.956 8.62419
50.153 8.49385
50.3501 8.35773
50.5474 8.24084
50.7448 8.12466
50.9424 7.98691
51.1402 7.85006
51.3381 7.7092
51.5362 7.59456
51.7344 7.44879
51.9328 7.33514
52.1316 7.19528
52.3304 7.0953
52.5293 6.99225
52.7284 6.87439
52.9276 6.76332
53.1271 6.64216
53.3267 6.57164
53.5265 6.37001
53.7264 6.29019
53.9266 6.1822
54.1269 6.06777
54.3274 6.00329
54.528 5.79344
54.7289 5.70972
54.9301 5.514
55.1314 5.42197
55.3328 5.15588
55.5344 5.0468
55.7361 4.8043