File: XRD/Ni3Fe_FD0844.xy
TT I
1.27165 7.62034
1.45013 6.04026
1.62863 5.39152
1.80712 5.6503
1.98562 4.86914
2.16411 5.20939
2.34263 5.91608
2.52115 6.89891
2.69965 8.42054
2.87818 9.03627
3.05672 11.7081
3.23527 15.1465
3.4138 18.7721
3.59237 23.77
3.77094 26.092
3.9495 29.7696
4.12809 34.4498
4.30669 184.327
4.4853 61.9303
4.6639 54.8009
4.84253 66.2589
5.02118 85.5309
5.19981 311.838
5.37848 176.996
5.55716 100.9
5.73586 90.9962
5.91455 92.3728
6.09328 4385.5
6.27201 81.1638
6.45075 66.538
6.62952 62.0792
6.8083 58.006
6.98711 55.4053
7.16591 54.7342
7.34475 83.6968
7.5236 54.2193
7.70247 55.6943
7.88135 57.2971
8.06026 61.4085
8.23919 68.4192
8.41812 83.6391
8.59709 1172.68
8.77609 97.6468
8.9551 89.5196
9.13412 81.0756
9.31318 81.8433
9.49226 83.144
9.67134 96.2148
9.85047 98.5975
10.0296 320.029
10.2088 403.482
10.388 102.547
10.5672 533.9
10.7465 85.2669
10.9257 76.9193
11.105 71.0089
11.2844 68.9784
11.4637 64.0594
11.6431 62.8454
11.8225 61.4456
12.002 62.6893
12.1814 156.348
12.3609 68.6944
12.5405 63.7217
12.72 68.6954
12.8996 70.0727
13.0792 77.8608
13.2589 239.663
13.4386 121.472
13.6183 250.859
13.7981 96.0818
13.9779 74.8636
14.1577 71.5344
14.3376 70.4802
14.5175 67.9014
14.6974 69.6552
14.8774 108.579
15.0574 146.724
15.2374 69.8419
15.4175 65.6772
15.5976 64.9447
15.7778 92.7718
15.958 150.998
16.1382 61.5396
16.3185 57.7267
16.4988 54.5647
16.6792 53.739
16.8596 54.4874
17.04 55.0226
17.2205 66.0177
17.401 69.7777
17.5815 58.4584
17.7622 60.6973
17.9428 72.0379
18.1237 138.42
18.3044 90.4567
18.4852 75.8928
18.666 59.6651
18.8469 57.1947
19.0278 56.2429
19.2088 58.661
19.3898 75.2947
19.5709 53.5409
19.752 52.6265
19.9332 55.4592
20.1144 69.3342
20.2957 63.834
20.477 53.0386
20.6586 49.157
20.84 48.1443
21.0215 48.1056
21.203 50.3524
21.3846 48.4289
21.5662 48.2743
21.7479 51.8545
21.9297 63.5968
22.1115 55.6286
22.2933 49.2499
22.4753 48.4008
22.6572 48.2905
22.8393 51.3784
23.0214 56.4449
23.2037 48.1563
23.3859 49.1023
23.5682 56.5095
23.7505 47.765
23.9329 44.6721
24.1154 43.7283
24.2979 43.0649
24.4805 42.5127
24.6631 42.3219
24.8458 41.8599
25.0286 42.4351
25.2114 44.1654
25.3943 44.0288
25.5773 40.5033
25.7605 39.9746
25.9436 40.3657
26.1268 41.2721
26.31 39.7433
26.4933 40.2648
26.6767 41.7319
26.8601 40.0021
27.0437 38.3389
27.2272 38.062
27.4109 37.8971
27.5946 37.9595
27.7784 37.4447
27.9623 38.0522
28.1462 38.2821
28.3304 36.7747
28.5145 35.4599
28.6987 35.2813
28.8829 35.0653
29.0673 34.2088
29.2517 33.9813
29.4361 33.7582
29.6207 32.789
29.8053 32.5273
29.99 32.2376
30.1748 32.0522
30.3597 31.9446
30.5447 31.8312
30.7297 31.7398
30.915 31.2748
31.1002 30.7315
31.2855 30.5476
31.4708 30.4058
31.6563 29.9544
31.8418 29.7934
32.0275 29.6093
32.2132 29.0689
32.399 28.6382
32.5848 28.1087
32.7708 27.8989
32.9569 27.693
33.143 27.5563
33.3293 27.0269
33.5158 26.6816
33.7022 26.2913
33.8887 25.9705
34.0753 25.7256
34.262 25.3721
34.4488 25.0221
34.6357 24.6419
34.8227 24.438
35.0098 24.2995
35.1969 23.924
35.3842 23.7304
35.5716 23.5095
35.759 23.2193
35.9468 22.8224
36.1345 22.5646
36.3222 22.4338
36.5101 22.1666
36.6981 21.9236
36.8861 21.5348
37.0743 21.2801
37.2626 20.9756
37.451 20.7332
37.6395 20.598
37.8281 20.2624
38.0168 19.9753
38.2056 19.6942
38.3945 19.4992
38.5837 19.2204
38.7728 19.0463
38.9621 18.7668
39.1514 18.4682
39.3409 18.2256
39.5304 18.1035
39.7201 17.831
39.9099 17.6257
40.0999 17.3952
40.2899 17.2075
40.48 16.8837
40.6703 16.7623
40.8607 16.5943
41.0512 16.2795
41.242 16.0732
41.4327 15.8825
41.6236 15.6501
41.8146 15.527
42.0057 15.272
42.1969 15.0601
42.3882 14.8791
42.5797 14.6693
42.7713 14.432
42.963 14.2775
43.1549 14.0609
43.3468 13.8843
43.5389 13.6579
43.7312 13.5164
43.9237 13.3254
44.1162 13.133
44.3088 12.9551
44.5016 12.7591
44.6945 12.6204
44.8875 12.3847
45.0806 12.2229
45.2739 12.0503
45.4673 11.9346
45.6609 11.7635
45.8546 11.556
46.0484 11.4314
46.2424 11.2458
46.4365 11.0976
46.631 10.8598
46.8254 10.7324
47.0199 10.5701
47.2146 10.4583
47.4095 10.2586
47.6044 10.1319
47.7996 9.93992
47.9948 9.82274
48.1902 9.67982
48.3858 9.55496
48.5815 9.42739
48.7774 9.24522
48.9734 9.13041
49.1696 8.97226
49.3661 8.84831
49.5626 8.70462
49.7592 8.60527
49.956 8.45964
50.153 8.33843
50.3501 8.25507
50.5474 8.08547
50.7448 7.95214
50.9424 7.86678
51.1402 7.71988
51.3381 7.60901
51.5362 7.50203
51.7344 7.35189
51.9328 7.21088
52.1316 7.07676
52.3304 6.96296
52.5293 6.87331
52.7284 6.7438
52.9276 6.61263
53.1271 6.53251
53.3267 6.44823
53.5265 6.32053
53.7264 6.20035
53.9266 6.12605
54.1269 6.00445
54.3274 5.87155
54.528 5.72896
54.7289 5.55441
54.9301 5.41135
55.1314 5.29144
55.3328 5.11699
55.5344 4.89208
55.7361 4.76932