File: XRD/Ni3Fe_FD0545.xy
TT I
1.27165 7.47185
1.45013 5.63845
1.62863 5.07769
1.80712 4.87297
1.98562 4.20989
2.16411 4.68508
2.34263 5.33264
2.52115 6.64003
2.69965 8.2106
2.87818 8.69918
3.05672 11.2294
3.23527 15.4107
3.4138 19.0218
3.59237 24.4936
3.77094 26.3634
3.9495 30.2155
4.12809 34.9853
4.30669 224.558
4.4853 66.8671
4.6639 55.7395
4.84253 68.1185
5.02118 87.8178
5.19981 373.431
5.37848 200.889
5.55716 103.043
5.73586 93.0477
5.91455 95.435
6.09328 4325.81
6.27201 84.1567
6.45075 67.7563
6.62952 63.5016
6.8083 59.0842
6.98711 56.5016
7.16591 56.0627
7.34475 93.8582
7.5236 55.0526
7.70247 56.7004
7.88135 58.4558
8.06026 62.346
8.23919 70.0212
8.41812 86.5172
8.59709 1174.16
8.77609 100.557
8.9551 92.5025
9.13412 82.5098
9.31318 83.3427
9.49226 85.3647
9.67134 99.41
9.85047 100.932
10.0296 347.671
10.2088 398.829
10.388 105.627
10.5672 519.658
10.7465 87.2111
10.9257 79.0205
11.105 72.4537
11.2844 71.1409
11.4637 65.6545
11.6431 64.2953
11.8225 63.0778
12.002 64.3188
12.1814 151.837
12.3609 70.9974
12.5405 65.2789
12.72 70.8816
12.8996 71.4549
13.0792 79.6123
13.2589 237.404
13.4386 124.165
13.6183 244.813
13.7981 98.0794
13.9779 76.4134
14.1577 73.1792
14.3376 72.2428
14.5175 69.4133
14.6974 70.9252
14.8774 111.595
15.0574 149.57
15.2374 71.7107
15.4175 66.932
15.5976 66.2484
15.7778 95.6549
15.958 155.794
16.1382 63.3231
16.3185 59.1672
16.4988 56.0486
16.6792 55.0685
16.8596 55.6514
17.04 56.2737
17.2205 67.1297
17.401 71.8128
17.5815 59.6277
17.7622 61.8787
17.9428 74.4661
18.1237 141.556
18.3044 90.782
18.4852 78.0669
18.666 61.0442
18.8469 58.3912
19.0278 57.3994
19.2088 60.1801
19.3898 77.5949
19.5709 54.6945
19.752 53.5694
19.9332 56.715
20.1144 70.7074
20.2957 64.5451
20.477 54.2306
20.6586 50.0699
20.84 49.145
21.0215 49.0642
21.203 51.2476
21.3846 49.2664
21.5662 49.1561
21.7479 53.0596
21.9297 65.3734
22.1115 56.3069
22.2933 50.1871
22.4753 49.4056
22.6572 49.1388
22.8393 52.2586
23.0214 57.9302
23.2037 49.068
23.3859 50.1457
23.5682 57.4279
23.7505 48.435
23.9329 45.661
24.1154 44.4993
24.2979 43.8981
24.4805 43.4075
24.6631 43.229
24.8458 42.5977
25.0286 43.2565
25.2114 45.0583
25.3943 45.0202
25.5773 41.3165
25.7605 40.8086
25.9436 41.017
26.1268 42.0191
26.31 40.4522
26.4933 41.0981
26.6767 42.5257
26.8601 40.7166
27.0437 39.1463
27.2272 38.7957
27.4109 38.6845
27.5946 38.6949
27.7784 38.1416
27.9623 38.6317
28.1462 39.1526
28.3304 37.5339
28.5145 36.2937
28.6987 35.8819
28.8829 35.73
29.0673 35.0102
29.2517 34.6129
29.4361 34.4406
29.6207 33.4398
29.8053 33.1705
29.99 32.8339
30.1748 32.6703
30.3597 32.483
30.5447 32.525
30.7297 32.4418
30.915 31.8916
31.1002 31.3471
31.2855 30.9683
31.4708 31.0413
31.6563 30.5946
31.8418 30.4864
32.0275 30.1997
32.2132 29.6595
32.399 29.1326
32.5848 28.7342
32.7708 28.3117
32.9569 28.2525
33.143 28.0862
33.3293 27.6336
33.5158 27.2368
33.7022 26.882
33.8887 26.5769
34.0753 26.1709
34.262 25.8989
34.4488 25.5499
34.6357 25.2328
34.8227 24.9311
35.0098 24.6015
35.1969 24.4322
35.3842 24.2617
35.5716 24.027
35.759 23.6498
35.9468 23.2761
36.1345 23.0748
36.3222 22.853
36.5101 22.6039
36.6981 22.3528
36.8861 22.0409
37.0743 21.6676
37.2626 21.4108
37.451 21.1508
37.6395 21.0278
37.8281 20.63
38.0168 20.3965
38.2056 20.1486
38.3945 19.8923
38.5837 19.5765
38.7728 19.3671
38.9621 19.1273
39.1514 18.82
39.3409 18.6156
39.5304 18.4098
39.7201 18.1992
39.9099 17.9633
40.0999 17.7564
40.2899 17.4934
40.48 17.2297
40.6703 17.116
40.8607 16.9055
41.0512 16.6679
41.242 16.3784
41.4327 16.2336
41.6236 16.0047
41.8146 15.8042
42.0057 15.5767
42.1969 15.3243
42.3882 15.1986
42.5797 14.9553
42.7713 14.7404
42.963 14.5532
43.1549 14.4138
43.3468 14.1406
43.5389 13.9515
43.7312 13.7141
43.9237 13.5602
44.1162 13.4238
44.3088 13.1803
44.5016 13.0239
44.6945 12.822
44.8875 12.6735
45.0806 12.4859
45.2739 12.3163
45.4673 12.141
45.6609 11.9439
45.8546 11.7754
46.0484 11.6115
46.2424 11.4287
46.4365 11.3226
46.631 11.1117
46.8254 10.9616
47.0199 10.7559
47.2146 10.638
47.4095 10.4621
47.6044 10.3136
47.7996 10.1621
47.9948 10.0326
48.1902 9.89032
48.3858 9.7401
48.5815 9.59945
48.7774 9.4637
48.9734 9.34193
49.1696 9.17778
49.3661 9.06396
49.5626 8.89352
49.7592 8.77318
49.956 8.66257
50.153 8.49936
50.3501 8.36976
50.5474 8.2469
50.7448 8.10769
50.9424 7.99718
51.1402 7.8474
51.3381 7.74941
51.5362 7.63373
51.7344 7.45848
51.9328 7.33977
52.1316 7.20715
52.3304 7.15022
52.5293 7.00926
52.7284 6.94371
52.9276 6.77239
53.1271 6.65049
53.3267 6.55461
53.5265 6.44832
53.7264 6.35209
53.9266 6.19641
54.1269 6.09404
54.3274 5.96684
54.528 5.81723
54.7289 5.68839
54.9301 5.5527
55.1314 5.42515
55.3328 5.16429
55.5344 5.05229
55.7361 4.82803