File: XRD/Ni3Fe_FD0084.xy
TT I
1.27165 9.82996
1.45013 7.6853
1.62863 6.93903
1.80712 6.0416
1.98562 6.38041
2.16411 5.58535
2.34263 5.01725
2.52115 3.9583
2.69965 5.10602
2.87818 7.02518
3.05672 11.1861
3.23527 15.3486
3.4138 18.3016
3.59237 21.3523
3.77094 24.6146
3.9495 28.1201
4.12809 31.7496
4.30669 37.3448
4.4853 43.9286
4.6639 53.1562
4.84253 66.5396
5.02118 98.5188
5.19981 757.815
5.37848 1122.95
5.55716 119.151
5.73586 101.882
5.91455 120.864
6.09328 1627.35
6.27201 107.041
6.45075 67.356
6.62952 59.4172
6.8083 54.7489
6.98711 52.279
7.16591 51.1795
7.34475 51.0366
7.5236 67.9011
7.70247 53.4607
7.88135 54.8005
8.06026 59.3244
8.23919 66.5861
8.41812 85.0534
8.59709 624.091
8.77609 151.958
8.9551 85.7367
9.13412 81.4263
9.31318 123.232
9.49226 82.2116
9.67134 86.9563
9.85047 98.2329
10.0296 596.38
10.2088 1435.25
10.388 106.955
10.5672 198.474
10.7465 107.268
10.9257 74.3973
11.105 68.3315
11.2844 64.1381
11.4637 61.5924
11.6431 60.4118
11.8225 59.8284
12.002 81.6178
12.1814 91.3384
12.3609 91.0232
12.5405 61.4948
12.72 63.1471
12.8996 67.4393
13.0792 79.5245
13.2589 163.648
13.4386 306.921
13.6183 145.585
13.7981 225.959
13.9779 74.8106
14.1577 85.1105
14.3376 67.4142
14.5175 66.5741
14.6974 68.0126
14.8774 116.475
15.0574 205.123
15.2374 68.5604
15.4175 64.2386
15.5976 64.2116
15.7778 105.67
15.958 159.847
16.1382 64.8012
16.3185 55.7907
16.4988 53.8153
16.6792 52.4408
16.8596 52.8275
17.04 54.405
17.2205 61.1156
17.401 79.642
17.5815 57.1788
17.7622 60.3993
17.9428 84.5221
18.1237 85.5051
18.3044 89.2607
18.4852 103.503
18.666 60.0852
18.8469 56.5828
19.0278 55.0701
19.2088 60.8282
19.3898 61.9376
19.5709 58.6098
19.752 51.6888
19.9332 56.8679
20.1144 59.5958
20.2957 58.7073
20.477 62.9486
20.6586 48.5459
20.84 48.3271
21.0215 47.828
21.203 47.2789
21.3846 50.0829
21.5662 47.518
21.7479 52.4245
21.9297 54.6998
22.1115 56.5917
22.2933 53.7912
22.4753 47.4428
22.6572 47.9677
22.8393 49.7992
23.0214 51.759
23.2037 49.8725
23.3859 51.0085
23.5682 48.8948
23.7505 56.3195
23.9329 44.4955
24.1154 43.3403
24.2979 42.4745
24.4805 41.8115
24.6631 42.0393
24.8458 41.3717
25.0286 41.7356
25.2114 42.3194
25.3943 42.6494
25.5773 41.509
25.7605 39.8028
25.9436 39.6954
26.1268 39.6724
26.31 40.4717
26.4933 39.5899
26.6767 39.669
26.8601 40.5241
27.0437 38.8038
27.2272 37.9222
27.4109 37.3588
27.5946 37.2167
27.7784 37.5871
27.9623 37.0746
28.1462 37.5781
28.3304 36.9622
28.5145 35.4267
28.6987 34.918
28.8829 34.3968
29.0673 34.3037
29.2517 33.4102
29.4361 33.0797
29.6207 32.8011
29.8053 32.027
29.99 31.8156
30.1748 31.4703
30.3597 31.6783
30.5447 31.3016
30.7297 31.0718
30.915 31.1883
31.1002 30.6694
31.2855 30.0811
31.4708 29.9629
31.6563 29.9472
31.8418 29.28
32.0275 29.1195
32.2132 28.9304
32.399 28.3322
32.5848 27.7216
32.7708 27.499
32.9569 27.4021
33.143 26.9066
33.3293 26.7448
33.5158 26.5532
33.7022 25.9453
33.8887 25.5549
34.0753 25.3635
34.262 25.0164
34.4488 24.7731
34.6357 24.2995
34.8227 24.0566
35.0098 23.8303
35.1969 23.6151
35.3842 23.3832
35.5716 23.0286
35.759 22.848
35.9468 22.5567
36.1345 22.2701
36.3222 22.1332
36.5101 21.891
36.6981 21.5476
36.8861 21.3136
37.0743 20.9805
37.2626 20.7323
37.451 20.471
37.6395 20.2164
37.8281 19.9852
38.0168 19.7091
38.2056 19.4286
38.3945 19.2311
38.5837 18.9487
38.7728 18.6986
38.9621 18.5152
39.1514 18.206
39.3409 18.0271
39.5304 17.8364
39.7201 17.5793
39.9099 17.3992
40.0999 17.151
40.2899 16.958
40.48 16.7226
40.6703 16.5721
40.8607 16.3385
41.0512 16.1234
41.242 15.9437
41.4327 15.7262
41.6236 15.4549
41.8146 15.2949
42.0057 15.0852
42.1969 14.9052
42.3882 14.6666
42.5797 14.4609
42.7713 14.3048
42.963 14.083
43.1549 13.8823
43.3468 13.6753
43.5389 13.4935
43.7312 13.3163
43.9237 13.128
44.1162 13.0045
44.3088 12.7979
44.5016 12.6143
44.6945 12.4392
44.8875 12.2683
45.0806 12.0947
45.2739 11.9314
45.4673 11.7632
45.6609 11.5748
45.8546 11.4645
46.0484 11.2544
46.2424 11.089
46.4365 10.9452
46.631 10.8132
46.8254 10.6154
47.0199 10.4609
47.2146 10.2969
47.4095 10.135
47.6044 10.0164
47.7996 9.85383
47.9948 9.68994
48.1902 9.56775
48.3858 9.40543
48.5815 9.30979
48.7774 9.18207
48.9734 9.05179
49.1696 8.91751
49.3661 8.76409
49.5626 8.61859
49.7592 8.50925
49.956 8.3979
50.153 8.2795
50.3501 8.1259
50.5474 8.01978
50.7448 7.92423
50.9424 7.74317
51.1402 7.63647
51.3381 7.52621
51.5362 7.41694
51.7344 7.28017
51.9328 7.13408
52.1316 7.04277
52.3304 6.90952
52.5293 6.81415
52.7284 6.69122
52.9276 6.57591
53.1271 6.48611
53.3267 6.40014
53.5265 6.23197
53.7264 6.15099
53.9266 6.04546
54.1269 5.90111
54.3274 5.76049
54.528 5.56622
54.7289 5.4271
54.9301 5.21702
55.1314 5.12525
55.3328 4.91954
55.5344 4.71457
55.7361 4.63571