File: XRD/Ni3Fe_FD0377.xy
TT I
1.27165 7.96443
1.45013 6.22802
1.62863 5.30009
1.80712 4.94616
1.98562 4.82528
2.16411 4.85953
2.34263 5.05824
2.52115 5.68301
2.69965 7.12602
2.87818 7.94983
3.05672 10.6453
3.23527 14.5349
3.4138 19.6255
3.59237 24.335
3.77094 26.8665
3.9495 30.3685
4.12809 35.0714
4.30669 180.631
4.4853 62.5498
4.6639 56.6974
4.84253 69.2948
5.02118 90.9729
5.19981 491.777
5.37848 226.355
5.55716 106.437
5.73586 95.4662
5.91455 99.3577
6.09328 4043.03
6.27201 86.6523
6.45075 69.756
6.62952 64.7441
6.8083 60.1184
6.98711 57.4371
7.16591 56.8834
7.34475 84.7497
7.5236 56.0154
7.70247 57.484
7.88135 59.33
8.06026 64.1428
8.23919 71.1752
8.41812 87.9153
8.59709 1177.44
8.77609 105.126
8.9551 93.3084
9.13412 84.4081
9.31318 85.4538
9.49226 86.8891
9.67134 99.3375
9.85047 102.867
10.0296 406.243
10.2088 515.004
10.388 109.03
10.5672 483.172
10.7465 89.6497
10.9257 80.3817
11.105 73.7307
11.2844 71.5011
11.4637 66.3566
11.6431 65.2991
11.8225 64.2144
12.002 65.6032
12.1814 150.444
12.3609 72.1617
12.5405 66.5894
12.72 71.0597
12.8996 72.8568
13.0792 81.6923
13.2589 243.304
13.4386 141.134
13.6183 243.242
13.7981 107.126
13.9779 78.1317
14.1577 74.2509
14.3376 73.6381
14.5175 71.0254
14.6974 72.7939
14.8774 116.934
15.0574 160.845
15.2374 72.7967
15.4175 68.5011
15.5976 68.0003
15.7778 100.429
15.958 167.093
16.1382 64.3796
16.3185 60.1145
16.4988 57.0847
16.6792 56.0021
16.8596 56.7884
17.04 57.3945
17.2205 68.6042
17.401 74.5207
17.5815 61.0237
17.7622 63.1028
17.9428 77.615
18.1237 135.737
18.3044 91.9163
18.4852 82.4346
18.666 62.3011
18.8469 59.699
19.0278 58.4358
19.2088 61.6257
19.3898 76.419
19.5709 56.0735
19.752 54.8812
19.9332 58.1697
20.1144 70.6847
20.2957 64.5621
20.477 55.9756
20.6586 51.173
20.84 49.9945
21.0215 50.1873
21.203 51.8176
21.3846 50.6718
21.5662 50.2606
21.7479 54.4184
21.9297 65.2955
22.1115 57.1753
22.2933 51.5489
22.4753 50.2137
22.6572 50.3787
22.8393 53.4408
23.0214 58.6981
23.2037 50.2293
23.3859 51.3351
23.5682 57.3408
23.7505 50.0878
23.9329 46.5622
24.1154 45.4421
24.2979 44.7311
24.4805 44.0421
24.6631 44.0505
24.8458 43.4069
25.0286 44.0451
25.2114 45.888
25.3943 45.7482
25.5773 42.3577
25.7605 41.5851
25.9436 41.9911
26.1268 42.862
26.31 41.3798
26.4933 41.8861
26.6767 43.1142
26.8601 41.6063
27.0437 39.9939
27.2272 39.554
27.4109 39.5041
27.5946 39.6483
27.7784 39.0411
27.9623 39.4766
28.1462 39.9306
28.3304 38.3194
28.5145 36.9539
28.6987 36.6653
28.8829 36.3386
29.0673 35.7047
29.2517 35.334
29.4361 35.0959
29.6207 34.099
29.8053 33.8163
29.99 33.4912
30.1748 33.2777
30.3597 33.1604
30.5447 33.132
30.7297 33.1131
30.915 32.5837
31.1002 31.8534
31.2855 31.6682
31.4708 31.6233
31.6563 31.1448
31.8418 30.9051
32.0275 30.8102
32.2132 30.2199
32.399 29.7675
32.5848 29.272
32.7708 28.9548
32.9569 28.8077
33.143 28.6493
33.3293 28.1636
33.5158 27.7525
33.7022 27.3284
33.8887 26.9498
34.0753 26.7056
34.262 26.308
34.4488 26.0242
34.6357 25.6964
34.8227 25.3459
35.0098 25.2218
35.1969 24.8767
35.3842 24.6156
35.5716 24.4715
35.759 24.1023
35.9468 23.7824
36.1345 23.5545
36.3222 23.2825
36.5101 23.0403
36.6981 22.7885
36.8861 22.4137
37.0743 22.14
37.2626 21.8735
37.451 21.5445
37.6395 21.3713
37.8281 21.0034
38.0168 20.7894
38.2056 20.518
38.3945 20.2213
38.5837 19.988
38.7728 19.7259
38.9621 19.4635
39.1514 19.247
39.3409 18.9262
39.5304 18.7513
39.7201 18.5199
39.9099 18.3297
40.0999 18.0177
40.2899 17.8405
40.48 17.6563
40.6703 17.454
40.8607 17.2059
41.0512 16.9755
41.242 16.6331
41.4327 16.5
41.6236 16.334
41.8146 16.035
42.0057 15.8103
42.1969 15.6138
42.3882 15.4535
42.5797 15.2314
42.7713 15.0511
42.963 14.8498
43.1549 14.6389
43.3468 14.428
43.5389 14.2281
43.7312 13.9883
43.9237 13.8066
44.1162 13.6083
44.3088 13.4662
44.5016 13.2337
44.6945 13.0534
44.8875 12.8903
45.0806 12.7075
45.2739 12.5249
45.4673 12.357
45.6609 12.1145
45.8546 12.0154
46.0484 11.8549
46.2424 11.6464
46.4365 11.4955
46.631 11.3206
46.8254 11.1115
47.0199 11.0239
47.2146 10.8423
47.4095 10.7217
47.6044 10.4928
47.7996 10.3595
47.9948 10.2591
48.1902 10.1044
48.3858 9.93565
48.5815 9.75956
48.7774 9.62183
48.9734 9.49367
49.1696 9.3555
49.3661 9.21694
49.5626 9.05124
49.7592 8.91801
49.956 8.8064
50.153 8.67613
50.3501 8.51812
50.5474 8.39968
50.7448 8.25741
50.9424 8.14528
51.1402 8.03484
51.3381 7.85323
51.5362 7.77317
51.7344 7.62664
51.9328 7.46694
52.1316 7.33619
52.3304 7.24035
52.5293 7.08298
52.7284 7.01191
52.9276 6.92509
53.1271 6.7754
53.3267 6.6972
53.5265 6.5393
53.7264 6.44936
53.9266 6.34146
54.1269 6.19809
54.3274 6.09483
54.528 5.98483
54.7289 5.81444
54.9301 5.64303
55.1314 5.45907
55.3328 5.27114
55.5344 5.08817
55.7361 4.9504