File: XRD/Ni3Fe_FD0464.xy
TT I
1.27165 7.36972
1.45013 6.46121
1.62863 5.5104
1.80712 5.3427
1.98562 4.64081
2.16411 4.54898
2.34263 5.17595
2.52115 6.80379
2.69965 7.88867
2.87818 8.66443
3.05672 11.3453
3.23527 14.4225
3.4138 19.0289
3.59237 23.6338
3.77094 26.0474
3.9495 29.8528
4.12809 34.8812
4.30669 127.63
4.4853 56.987
4.6639 56.259
4.84253 69.1778
5.02118 90.3186
5.19981 529.349
5.37848 204.804
5.55716 104.969
5.73586 95.1343
5.91455 99.2008
6.09328 4236.62
6.27201 83.3517
6.45075 68.73
6.62952 63.1958
6.8083 59.3662
6.98711 56.404
7.16591 55.9396
7.34475 73.7571
7.5236 55.1442
7.70247 57.007
7.88135 58.7343
8.06026 63.4108
8.23919 70.7485
8.41812 87.2784
8.59709 1222.24
8.77609 101.805
8.9551 90.6966
9.13412 83.5501
9.31318 84.9557
9.49226 86.223
9.67134 97.0268
9.85047 102.735
10.0296 410.924
10.2088 405.779
10.388 108.249
10.5672 493.76
10.7465 87.9289
10.9257 79.0616
11.105 72.793
11.2844 70.3428
11.4637 65.9181
11.6431 64.6042
11.8225 63.8086
12.002 65.6299
12.1814 156.151
12.3609 69.5465
12.5405 65.5391
12.72 69.5489
12.8996 72.478
13.0792 82.1382
13.2589 251.327
13.4386 124.457
13.6183 254.794
13.7981 97.5782
13.9779 77.2748
14.1577 73.333
14.3376 71.9457
14.5175 70.4023
14.6974 71.9247
14.8774 118.355
15.0574 146.84
15.2374 71.2965
15.4175 67.7002
15.5976 67.3218
15.7778 101.332
15.958 154.722
16.1382 62.8996
16.3185 58.9157
16.4988 56.4521
16.6792 55.3792
16.8596 55.932
17.04 57.35
17.2205 68.8262
17.401 71.8648
17.5815 60.3275
17.7622 62.5559
17.9428 77.2622
18.1237 139.88
18.3044 91.9878
18.4852 77.7735
18.666 61.4383
18.8469 58.8989
19.0278 57.9328
19.2088 61.074
19.3898 76.6314
19.5709 55.1546
19.752 54.4536
19.9332 57.6985
20.1144 70.291
20.2957 64.362
20.477 54.263
20.6586 50.5411
20.84 49.6448
21.0215 49.6745
21.203 51.572
21.3846 49.8145
21.5662 49.8242
21.7479 53.9589
21.9297 65.24
22.1115 56.3675
22.2933 50.6764
22.4753 49.5123
22.6572 49.9039
22.8393 53.0246
23.0214 57.841
23.2037 49.6987
23.3859 51.047
23.5682 57.3639
23.7505 48.8735
23.9329 45.9605
24.1154 44.8772
24.2979 44.2282
24.4805 43.7812
24.6631 43.4034
24.8458 42.966
25.0286 43.6647
25.2114 45.4326
25.3943 45.2629
25.5773 41.5976
25.7605 41.2084
25.9436 41.6113
26.1268 42.4073
26.31 40.8547
26.4933 41.4878
26.6767 42.7515
26.8601 41.0162
27.0437 39.4291
27.2272 39.2943
27.4109 38.9568
27.5946 39.0022
27.7784 38.4382
27.9623 39.0142
28.1462 39.4737
28.3304 37.81
28.5145 36.5512
28.6987 36.235
28.8829 35.9111
29.0673 35.1719
29.2517 34.9644
29.4361 34.6421
29.6207 33.6707
29.8053 33.3744
29.99 33.038
30.1748 33.0003
30.3597 32.7776
30.5447 32.6525
30.7297 32.7308
30.915 32.0723
31.1002 31.4961
31.2855 31.3727
31.4708 31.304
31.6563 30.7931
31.8418 30.5896
32.0275 30.356
32.2132 29.8537
32.399 29.4417
32.5848 28.9085
32.7708 28.5746
32.9569 28.377
33.143 28.1852
33.3293 27.8593
33.5158 27.4894
33.7022 27.0512
33.8887 26.7492
34.0753 26.411
34.262 26.0879
34.4488 25.6769
34.6357 25.3834
34.8227 25.0024
35.0098 24.8861
35.1969 24.5411
35.3842 24.3405
35.5716 24.1366
35.759 23.8287
35.9468 23.4492
36.1345 23.2064
36.3222 22.9947
36.5101 22.7541
36.6981 22.5044
36.8861 22.1362
37.0743 21.8513
37.2626 21.6137
37.451 21.3317
37.6395 21.0986
37.8281 20.8603
38.0168 20.5054
38.2056 20.2406
38.3945 19.9179
38.5837 19.773
38.7728 19.4988
38.9621 19.2573
39.1514 18.975
39.3409 18.7199
39.5304 18.5304
39.7201 18.2896
39.9099 18.1111
40.0999 17.873
40.2899 17.6454
40.48 17.3232
40.6703 17.1527
40.8607 16.9927
41.0512 16.7797
41.242 16.5137
41.4327 16.284
41.6236 16.1006
41.8146 15.8636
42.0057 15.6844
42.1969 15.3928
42.3882 15.2899
42.5797 15.0284
42.7713 14.8801
42.963 14.6174
43.1549 14.4115
43.3468 14.2291
43.5389 14.028
43.7312 13.8131
43.9237 13.6543
44.1162 13.4633
44.3088 13.2972
44.5016 13.0852
44.6945 12.9134
44.8875 12.7527
45.0806 12.5281
45.2739 12.3672
45.4673 12.1909
45.6609 12.0401
45.8546 11.8833
46.0484 11.7103
46.2424 11.5089
46.4365 11.3537
46.631 11.1414
46.8254 10.9945
47.0199 10.9056
47.2146 10.7445
47.4095 10.5231
47.6044 10.3759
47.7996 10.1977
47.9948 10.078
48.1902 9.89341
48.3858 9.81953
48.5815 9.63284
48.7774 9.55559
48.9734 9.38566
49.1696 9.23721
49.3661 9.06113
49.5626 8.89385
49.7592 8.82986
49.956 8.67613
50.153 8.53397
50.3501 8.3907
50.5474 8.28839
50.7448 8.17218
50.9424 8.0406
51.1402 7.91464
51.3381 7.74912
51.5362 7.64352
51.7344 7.5474
51.9328 7.39868
52.1316 7.31539
52.3304 7.16582
52.5293 7.0696
52.7284 6.9401
52.9276 6.82421
53.1271 6.71989
53.3267 6.62057
53.5265 6.4529
53.7264 6.41598
53.9266 6.24273
54.1269 6.11066
54.3274 6.06849
54.528 5.9191
54.7289 5.71036
54.9301 5.53779
55.1314 5.4795
55.3328 5.27313
55.5344 5.03986
55.7361 4.90363