File: XRD/Ni3Fe_FD0635.xy
TT I
1.27165 7.35263
1.45013 6.34733
1.62863 5.23084
1.80712 4.84403
1.98562 4.70051
2.16411 5.60922
2.34263 5.21028
2.52115 6.74201
2.69965 7.47632
2.87818 8.61262
3.05672 10.9169
3.23527 15.3082
3.4138 19.0136
3.59237 24.2984
3.77094 26.3378
3.9495 29.7741
4.12809 35.3773
4.30669 251.437
4.4853 69.231
4.6639 55.4103
4.84253 66.9782
5.02118 86.8631
5.19981 338.022
5.37848 196.563
5.55716 102.704
5.73586 92.58
5.91455 93.8338
6.09328 4407.2
6.27201 83.4355
6.45075 67.5047
6.62952 63.3404
6.8083 59.1757
6.98711 56.2889
7.16591 55.565
7.34475 99.0905
7.5236 55.2833
7.70247 56.1885
7.88135 57.8962
8.06026 62.1378
8.23919 69.5813
8.41812 85.074
8.59709 1125.39
8.77609 100.519
8.9551 93.0138
9.13412 82.0223
9.31318 82.4127
9.49226 84.7832
9.67134 100.039
9.85047 99.7674
10.0296 327.311
10.2088 437.125
10.388 105.045
10.5672 500.023
10.7465 87.112
10.9257 79.0558
11.105 72.1736
11.2844 71.2609
11.4637 65.2154
11.6431 63.8285
11.8225 62.5293
12.002 63.5214
12.1814 147.354
12.3609 72.2669
12.5405 64.9623
12.72 70.8829
12.8996 71.164
13.0792 78.6884
13.2589 230.633
13.4386 128.157
13.6183 241.302
13.7981 100.946
13.9779 76.0239
14.1577 72.8883
14.3376 72.2126
14.5175 68.9333
14.6974 70.5473
14.8774 108.352
15.0574 153.304
15.2374 71.6313
15.4175 66.4596
15.5976 66.0349
15.7778 93.1838
15.958 160.825
16.1382 63.458
16.3185 58.9847
16.4988 55.6903
16.6792 54.6515
16.8596 55.4411
17.04 56.0991
17.2205 66.3977
17.401 72.486
17.5815 59.1733
17.7622 61.378
17.9428 73.1898
18.1237 138.606
18.3044 90.2376
18.4852 79.7775
18.666 60.7098
18.8469 58.279
19.0278 57.2096
19.2088 59.6865
19.3898 76.7623
19.5709 54.4437
19.752 53.3238
19.9332 56.1182
20.1144 69.626
20.2957 63.7351
20.477 54.1771
20.6586 49.8859
20.84 48.9463
21.0215 48.8445
21.203 51.0991
21.3846 49.0769
21.5662 48.8306
21.7479 52.6166
21.9297 64.641
22.1115 56.3115
22.2933 50.096
22.4753 49.2348
22.6572 49.0143
22.8393 51.824
23.0214 57.8511
23.2037 49.0561
23.3859 49.7112
23.5682 56.9231
23.7505 48.6681
23.9329 45.3448
24.1154 44.3844
24.2979 43.6746
24.4805 43.0054
24.6631 43.0618
24.8458 42.2545
25.0286 42.9528
25.2114 44.732
25.3943 44.8432
25.5773 41.0494
25.7605 40.5809
25.9436 41.0278
26.1268 41.8062
26.31 40.2214
26.4933 40.8813
26.6767 42.2582
26.8601 40.5968
27.0437 38.9331
27.2272 38.6723
27.4109 38.5425
27.5946 38.4906
27.7784 37.9198
27.9623 38.43
28.1462 38.9987
28.3304 37.4042
28.5145 36.0832
28.6987 35.7998
28.8829 35.5574
29.0673 34.8805
29.2517 34.5271
29.4361 34.3199
29.6207 33.3432
29.8053 32.9897
29.99 32.6317
30.1748 32.4753
30.3597 32.3405
30.5447 32.2769
30.7297 32.3182
30.915 31.8114
31.1002 31.1796
31.2855 31.0811
31.4708 30.8403
31.6563 30.4562
31.8418 30.304
32.0275 30.0727
32.2132 29.5722
32.399 28.9457
32.5848 28.5808
32.7708 28.2484
32.9569 28.0808
33.143 27.8719
33.3293 27.4917
33.5158 27.1784
33.7022 26.7154
33.8887 26.4915
34.0753 26.0467
34.262 25.7404
34.4488 25.4712
34.6357 25.0634
34.8227 24.7871
35.0098 24.6315
35.1969 24.3395
35.3842 24.1175
35.5716 23.8781
35.759 23.5766
35.9468 23.2628
36.1345 23.0574
36.3222 22.7346
36.5101 22.4917
36.6981 22.1952
36.8861 21.9251
37.0743 21.6476
37.2626 21.4098
37.451 21.1154
37.6395 20.9813
37.8281 20.6205
38.0168 20.3848
38.2056 20.1143
38.3945 19.79
38.5837 19.5435
38.7728 19.3121
38.9621 19.095
39.1514 18.7858
39.3409 18.5444
39.5304 18.351
39.7201 18.209
39.9099 17.9763
40.0999 17.6727
40.2899 17.4299
40.48 17.1751
40.6703 17.0105
40.8607 16.8465
41.0512 16.5909
41.242 16.3102
41.4327 16.1643
41.6236 15.904
41.8146 15.7633
42.0057 15.5115
42.1969 15.2527
42.3882 15.0919
42.5797 14.9272
42.7713 14.7036
42.963 14.5045
43.1549 14.2975
43.3468 14.088
43.5389 13.8943
43.7312 13.722
43.9237 13.5522
44.1162 13.3437
44.3088 13.1907
44.5016 12.969
44.6945 12.8028
44.8875 12.6355
45.0806 12.4716
45.2739 12.2801
45.4673 12.118
45.6609 11.9169
45.8546 11.73
46.0484 11.5542
46.2424 11.4431
46.4365 11.2989
46.631 11.0572
46.8254 10.9196
47.0199 10.768
47.2146 10.6119
47.4095 10.4041
47.6044 10.3014
47.7996 10.1546
47.9948 9.97511
48.1902 9.8466
48.3858 9.71534
48.5815 9.57715
48.7774 9.43072
48.9734 9.26978
49.1696 9.15309
49.3661 8.97862
49.5626 8.84977
49.7592 8.76078
49.956 8.59384
50.153 8.48528
50.3501 8.32368
50.5474 8.2034
50.7448 8.12089
50.9424 7.96112
51.1402 7.83905
51.3381 7.72242
51.5362 7.58743
51.7344 7.48326
51.9328 7.35218
52.1316 7.17542
52.3304 7.11079
52.5293 7.00815
52.7284 6.85179
52.9276 6.74166
53.1271 6.6002
53.3267 6.49662
53.5265 6.37865
53.7264 6.27788
53.9266 6.19886
54.1269 6.10178
54.3274 5.95203
54.528 5.84346
54.7289 5.68717
54.9301 5.479
55.1314 5.45496
55.3328 5.2092
55.5344 4.98626
55.7361 4.88022