File: XRD/Ni3Fe_FD0684.xy
TT I
1.27165 7.3743
1.45013 6.27306
1.62863 5.12005
1.80712 4.69986
1.98562 4.55099
2.16411 4.89134
2.34263 5.56775
2.52115 6.57308
2.69965 7.4338
2.87818 8.91335
3.05672 11.0102
3.23527 14.5959
3.4138 18.6622
3.59237 23.6556
3.77094 25.9378
3.9495 29.4816
4.12809 34.579
4.30669 135.799
4.4853 56.539
4.6639 55.3182
4.84253 68.5238
5.02118 87.5797
5.19981 414.502
5.37848 188.546
5.55716 102.226
5.73586 92.7746
5.91455 95.4355
6.09328 4582.52
6.27201 80.8126
6.45075 67.9319
6.62952 62.587
6.8083 58.4208
6.98711 55.6978
7.16591 55.6372
7.34475 74.37
7.5236 54.2873
7.70247 56.0496
7.88135 57.5932
8.06026 62.2884
8.23919 69.4572
8.41812 84.5056
8.59709 1238.29
8.77609 98.4213
8.9551 89.3039
9.13412 82.45
9.31318 83.5374
9.49226 84.6231
9.67134 95.7463
9.85047 100.164
10.0296 366.512
10.2088 359.001
10.388 105.386
10.5672 512.91
10.7465 86.2009
10.9257 77.6152
11.105 71.5753
11.2844 69.0921
11.4637 64.8256
11.6431 63.4879
11.8225 62.4207
12.002 63.8701
12.1814 156.474
12.3609 67.6963
12.5405 64.4946
12.72 68.5796
12.8996 71.1528
13.0792 80.1996
13.2589 248.687
13.4386 119.963
13.6183 257.003
13.7981 93.3762
13.9779 75.6826
14.1577 72.0713
14.3376 70.5532
14.5175 68.974
14.6974 70.6621
14.8774 113.671
15.0574 140.053
15.2374 69.9717
15.4175 66.2875
15.5976 65.8643
15.7778 96.6602
15.958 149.47
16.1382 61.8031
16.3185 57.8722
16.4988 55.3516
16.6792 54.3158
16.8596 55.0819
17.04 55.8921
17.2205 67.0747
17.401 69.6821
17.5815 59.0152
17.7622 61.3786
17.9428 74.3616
18.1237 142.436
18.3044 91.472
18.4852 75.0087
18.666 60.4291
18.8469 57.8839
19.0278 56.8196
19.2088 59.3615
19.3898 76.0036
19.5709 54.0332
19.752 53.2628
19.9332 56.3321
20.1144 69.821
20.2957 64.0552
20.477 52.9599
20.6586 49.5558
20.84 48.7636
21.0215 48.5905
21.203 50.9394
21.3846 48.7429
21.5662 48.8296
21.7479 52.8787
21.9297 64.674
22.1115 55.975
22.2933 49.6385
22.4753 48.6672
22.6572 48.9619
22.8393 52.2244
23.0214 56.9773
23.2037 48.753
23.3859 49.8965
23.5682 57.1541
23.7505 47.7692
23.9329 45.0662
24.1154 44.1011
24.2979 43.4217
24.4805 42.7488
24.6631 42.769
24.8458 42.2743
25.0286 42.8225
25.2114 44.6332
25.3943 44.4202
25.5773 40.7305
25.7605 40.3624
25.9436 40.6998
26.1268 41.6739
26.31 39.9829
26.4933 40.6774
26.6767 42.0727
26.8601 40.4664
27.0437 38.7885
27.2272 38.3737
27.4109 38.3051
27.5946 38.2733
27.7784 37.778
27.9623 38.4177
28.1462 38.6303
28.3304 37.1315
28.5145 35.8494
28.6987 35.4484
28.8829 35.3459
29.0673 34.5475
29.2517 34.2496
29.4361 34.0534
29.6207 33.0215
29.8053 32.8348
29.99 32.5524
30.1748 32.4557
30.3597 32.1518
30.5447 32.112
30.7297 32.0496
30.915 31.5802
31.1002 31.0595
31.2855 30.8533
31.4708 30.7775
31.6563 30.3091
31.8418 30.0433
32.0275 29.8892
32.2132 29.2873
32.399 28.8915
32.5848 28.5323
32.7708 28.0822
32.9569 28.0112
33.143 27.6759
33.3293 27.3289
33.5158 26.9191
33.7022 26.5436
33.8887 26.1476
34.0753 25.946
34.262 25.5811
34.4488 25.2541
34.6357 25.0237
34.8227 24.6193
35.0098 24.4433
35.1969 24.1926
35.3842 23.9154
35.5716 23.7505
35.759 23.3285
35.9468 23.0455
36.1345 22.8831
36.3222 22.6609
36.5101 22.3654
36.6981 22.0967
36.8861 21.7741
37.0743 21.4437
37.2626 21.1736
37.451 20.8889
37.6395 20.7673
37.8281 20.4871
38.0168 20.1294
38.2056 19.9371
38.3945 19.642
38.5837 19.4244
38.7728 19.1655
38.9621 18.9782
39.1514 18.6726
39.3409 18.4283
39.5304 18.1424
39.7201 17.987
39.9099 17.8017
40.0999 17.5893
40.2899 17.3537
40.48 17.121
40.6703 16.9257
40.8607 16.7085
41.0512 16.471
41.242 16.219
41.4327 16.0267
41.6236 15.7694
41.8146 15.6302
42.0057 15.3988
42.1969 15.2275
42.3882 15.0851
42.5797 14.7552
42.7713 14.6004
42.963 14.3931
43.1549 14.1802
43.3468 13.988
43.5389 13.8178
43.7312 13.6253
43.9237 13.4329
44.1162 13.2244
44.3088 13.0426
44.5016 12.8948
44.6945 12.6993
44.8875 12.5489
45.0806 12.3417
45.2739 12.193
45.4673 11.997
45.6609 11.8559
45.8546 11.7003
46.0484 11.4806
46.2424 11.3403
46.4365 11.1963
46.631 11.0327
46.8254 10.8381
47.0199 10.6621
47.2146 10.4843
47.4095 10.3698
47.6044 10.2391
47.7996 10.09
47.9948 9.91225
48.1902 9.76128
48.3858 9.61696
48.5815 9.52789
48.7774 9.34227
48.9734 9.23248
49.1696 9.10084
49.3661 8.93275
49.5626 8.81282
49.7592 8.68524
49.956 8.51435
50.153 8.40462
50.3501 8.26913
50.5474 8.16663
50.7448 8.04834
50.9424 7.93263
51.1402 7.79512
51.3381 7.66538
51.5362 7.53737
51.7344 7.42291
51.9328 7.25683
52.1316 7.13099
52.3304 7.05973
52.5293 6.93143
52.7284 6.83438
52.9276 6.77349
53.1271 6.61699
53.3267 6.47894
53.5265 6.36053
53.7264 6.26631
53.9266 6.15765
54.1269 6.04881
54.3274 5.93599
54.528 5.83748
54.7289 5.68938
54.9301 5.45147
55.1314 5.35636
55.3328 5.12595
55.5344 4.98439
55.7361 4.76069