File: XRD/Ni3Fe_FD0251.xy
TT I
1.27165 7.93747
1.45013 6.35427
1.62863 5.25092
1.80712 5.2186
1.98562 5.12798
2.16411 4.4825
2.34263 4.54149
2.52115 5.70043
2.69965 6.66501
2.87818 7.79106
3.05672 10.7525
3.23527 14.5946
3.4138 19.1905
3.59237 22.7815
3.77094 25.5611
3.9495 29.9178
4.12809 35.0536
4.30669 40.0068
4.4853 48.4213
4.6639 57.9334
4.84253 71.3393
5.02118 96.292
5.19981 884.003
5.37848 262.462
5.55716 111.619
5.73586 100.358
5.91455 109.204
6.09328 3741.52
6.27201 88.4539
6.45075 70.8408
6.62952 64.2087
6.8083 59.9048
6.98711 57.2265
7.16591 56.0892
7.34475 55.6833
7.5236 56.3466
7.70247 57.8713
7.88135 60.2664
8.06026 65.2893
8.23919 72.9858
8.41812 89.9451
8.59709 1089.92
8.77609 109.318
8.9551 90.6059
9.13412 86.4351
9.31318 88.4021
9.49226 89.5604
9.67134 95.5453
9.85047 106.63
10.0296 513.057
10.2088 517.857
10.388 115.081
10.5672 453.348
10.7465 91.8352
10.9257 80.7713
11.105 74.4682
11.2844 70.6336
11.4637 67.5695
11.6431 66.2109
11.8225 65.3891
12.002 68.6589
12.1814 142.123
12.3609 69.4462
12.5405 67.2895
12.72 69.7189
12.8996 74.5689
13.0792 86.4198
13.2589 233.114
13.4386 146.522
13.6183 229.773
13.7981 109.69
13.9779 79.7162
14.1577 75.1275
14.3376 72.8101
14.5175 72.5299
14.6974 74.4453
14.8774 120.083
15.0574 166.784
15.2374 72.2722
15.4175 69.5406
15.5976 69.8241
15.7778 104.284
15.958 168.98
16.1382 63.4922
16.3185 60.2549
16.4988 57.8217
16.6792 56.9103
16.8596 57.2852
17.04 59.0475
17.2205 69.2367
17.401 76.5887
17.5815 62.2075
17.7622 64.5195
17.9428 82.5064
18.1237 138.965
18.3044 90.5866
18.4852 82.9008
18.666 63.1035
18.8469 60.62
19.0278 59.5578
19.2088 62.761
19.3898 76.7137
19.5709 56.8992
19.752 55.9704
19.9332 59.4645
20.1144 72.548
20.2957 64.7704
20.477 56.4404
20.6586 51.9761
20.84 51.0237
21.0215 51.1297
21.203 52.4664
21.3846 51.359
21.5662 51.6533
21.7479 55.6645
21.9297 66.8183
22.1115 57.5376
22.2933 52.3224
22.4753 50.7535
22.6572 51.7815
22.8393 54.1548
23.0214 59.7399
23.2037 51.3248
23.3859 52.5045
23.5682 57.7244
23.7505 50.8645
23.9329 47.3224
24.1154 46.0494
24.2979 45.3821
24.4805 44.6433
24.6631 44.8031
24.8458 44.3339
25.0286 44.8646
25.2114 46.3666
25.3943 46.4398
25.5773 42.7635
25.7605 42.3233
25.9436 42.5574
26.1268 43.4166
26.31 41.9342
26.4933 42.4042
26.6767 43.861
26.8601 42.2208
27.0437 40.649
27.2272 40.377
27.4109 40.0163
27.5946 40.2287
27.7784 39.572
27.9623 39.9195
28.1462 40.3866
28.3304 38.8207
28.5145 37.5833
28.6987 37.0314
28.8829 36.8821
29.0673 36.2385
29.2517 35.7555
29.4361 35.5901
29.6207 34.5004
29.8053 34.351
29.99 33.9286
30.1748 33.9157
30.3597 33.6538
30.5447 33.5184
30.7297 33.6606
30.915 33.0159
31.1002 32.5496
31.2855 32.2775
31.4708 32.0715
31.6563 31.7512
31.8418 31.4291
32.0275 31.1932
32.2132 30.6331
32.399 30.2126
32.5848 29.6626
32.7708 29.3943
32.9569 29.2314
33.143 28.8974
33.3293 28.6401
33.5158 28.2546
33.7022 27.6975
33.8887 27.4558
34.0753 27.1388
34.262 26.7246
34.4488 26.4159
34.6357 26.0882
34.8227 25.7072
35.0098 25.5827
35.1969 25.1955
35.3842 24.9453
35.5716 24.7696
35.759 24.4979
35.9468 24.0789
36.1345 23.8144
36.3222 23.635
36.5101 23.3442
36.6981 23.0617
36.8861 22.706
37.0743 22.4155
37.2626 22.1618
37.451 21.8643
37.6395 21.7579
37.8281 21.3065
38.0168 21.1025
38.2056 20.7589
38.3945 20.5056
38.5837 20.3065
38.7728 20.0072
38.9621 19.752
39.1514 19.5011
39.3409 19.2417
39.5304 19.0144
39.7201 18.8768
39.9099 18.5694
40.0999 18.3266
40.2899 18.0475
40.48 17.8487
40.6703 17.651
40.8607 17.4243
41.0512 17.1478
41.242 16.9222
41.4327 16.7036
41.6236 16.479
41.8146 16.3393
42.0057 16.0967
42.1969 15.816
42.3882 15.6535
42.5797 15.4189
42.7713 15.2064
42.963 15.065
43.1549 14.8109
43.3468 14.533
43.5389 14.3661
43.7312 14.1857
43.9237 14.0161
44.1162 13.8321
44.3088 13.5937
44.5016 13.4143
44.6945 13.2545
44.8875 13.0417
45.0806 12.8949
45.2739 12.6663
45.4673 12.4925
45.6609 12.3254
45.8546 12.2118
46.0484 11.9874
46.2424 11.7975
46.4365 11.6653
46.631 11.4496
46.8254 11.3208
47.0199 11.1517
47.2146 10.997
47.4095 10.7985
47.6044 10.6192
47.7996 10.4794
47.9948 10.3143
48.1902 10.2177
48.3858 10.0289
48.5815 9.89534
48.7774 9.75244
48.9734 9.63724
49.1696 9.44286
49.3661 9.33382
49.5626 9.1789
49.7592 9.05112
49.956 8.89074
50.153 8.79484
50.3501 8.66024
50.5474 8.47447
50.7448 8.34046
50.9424 8.23394
51.1402 8.11745
51.3381 7.98781
51.5362 7.82969
51.7344 7.70495
51.9328 7.62549
52.1316 7.42135
52.3304 7.33972
52.5293 7.21537
52.7284 7.09314
52.9276 6.97597
53.1271 6.87098
53.3267 6.73023
53.5265 6.62703
53.7264 6.48878
53.9266 6.41992
54.1269 6.25965
54.3274 6.17239
54.528 5.99582
54.7289 5.80449
54.9301 5.66584
55.1314 5.54841
55.3328 5.30444
55.5344 5.11115
55.7361 4.9426