File: XRD/Ni3Fe_FD0678.xy
TT I
1.27165 7.35489
1.45013 6.2947
1.62863 4.96295
1.80712 4.78351
1.98562 4.49386
2.16411 4.65589
2.34263 5.07224
2.52115 7.30494
2.69965 7.57809
2.87818 8.16831
3.05672 11.3603
3.23527 15.2535
3.4138 18.9715
3.59237 23.196
3.77094 25.8002
3.9495 29.3091
4.12809 34.6236
4.30669 148.158
4.4853 57.9264
4.6639 55.5019
4.84253 67.3335
5.02118 87.3302
5.19981 399.315
5.37848 184.541
5.55716 101.978
5.73586 92.828
5.91455 95.1693
6.09328 4548.73
6.27201 81.5795
6.45075 67.2991
6.62952 62.265
6.8083 58.538
6.98711 55.7832
7.16591 55.2518
7.34475 77.0918
7.5236 54.5181
7.70247 56.0482
7.88135 57.3093
8.06026 62.1101
8.23919 69.8678
8.41812 85.2476
8.59709 1237.48
8.77609 98.2667
8.9551 89.3122
9.13412 82.3997
9.31318 82.9889
9.49226 84.3719
9.67134 95.7451
9.85047 100.485
10.0296 364.901
10.2088 367.298
10.388 104.914
10.5672 510.924
10.7465 86.4219
10.9257 77.6224
11.105 71.5501
11.2844 69.2217
11.4637 64.583
11.6431 63.2772
11.8225 62.3167
12.002 64.1306
12.1814 154.01
12.3609 68.1719
12.5405 64.3799
12.72 68.612
12.8996 70.8428
13.0792 79.6352
13.2589 248.653
13.4386 120.28
13.6183 255.127
13.7981 93.2905
13.9779 75.7322
14.1577 72.1999
14.3376 70.7601
14.5175 68.6457
14.6974 70.5668
14.8774 113.273
15.0574 140.691
15.2374 70.016
15.4175 66.4769
15.5976 66.0225
15.7778 96.5657
15.958 150.961
16.1382 61.9426
16.3185 58.0309
16.4988 55.3975
16.6792 54.1838
16.8596 54.9038
17.04 55.8321
17.2205 67.3727
17.401 69.883
17.5815 59.2219
17.7622 61.2856
17.9428 74.4719
18.1237 142.595
18.3044 91.3637
18.4852 75.5907
18.666 60.3206
18.8469 57.7959
19.0278 56.8158
19.2088 59.4896
19.3898 76.2706
19.5709 54.0529
19.752 53.2495
19.9332 56.3168
20.1144 69.8705
20.2957 64.1247
20.477 52.9477
20.6586 49.5253
20.84 48.8782
21.0215 48.6206
21.203 50.9845
21.3846 48.7969
21.5662 48.9482
21.7479 52.9366
21.9297 64.7258
22.1115 56.091
22.2933 49.6326
22.4753 48.721
22.6572 48.8093
22.8393 52.1664
23.0214 57.1656
23.2037 48.702
23.3859 49.8363
23.5682 57.2472
23.7505 47.7813
23.9329 45.232
24.1154 44.0402
24.2979 43.4801
24.4805 42.9186
24.6631 42.7062
24.8458 42.2897
25.0286 42.9911
25.2114 44.6654
25.3943 44.4571
25.5773 40.8036
25.7605 40.3763
25.9436 40.8054
26.1268 41.6854
26.31 39.9749
26.4933 40.839
26.6767 42.1781
26.8601 40.4109
27.0437 38.8052
27.2272 38.5331
27.4109 38.2645
27.5946 38.2947
27.7784 37.9682
27.9623 38.5086
28.1462 38.7419
28.3304 36.9591
28.5145 35.8692
28.6987 35.5868
28.8829 35.3732
29.0673 34.6355
29.2517 34.3618
29.4361 34.0718
29.6207 33.1778
29.8053 32.8375
29.99 32.468
30.1748 32.3579
30.3597 32.1685
30.5447 32.2258
30.7297 32.2548
30.915 31.5422
31.1002 31.0581
31.2855 30.7975
31.4708 30.8424
31.6563 30.3939
31.8418 30.1399
32.0275 29.9615
32.2132 29.3755
32.399 28.9504
32.5848 28.512
32.7708 28.1378
32.9569 27.8972
33.143 27.7724
33.3293 27.3156
33.5158 26.9979
33.7022 26.5958
33.8887 26.2549
34.0753 25.9118
34.262 25.7293
34.4488 25.2114
34.6357 24.9407
34.8227 24.5902
35.0098 24.4687
35.1969 24.1643
35.3842 23.9419
35.5716 23.782
35.759 23.4896
35.9468 23.1159
36.1345 22.8724
36.3222 22.6356
36.5101 22.355
36.6981 22.1161
36.8861 21.7778
37.0743 21.3677
37.2626 21.1877
37.451 20.9354
37.6395 20.7962
37.8281 20.4034
38.0168 20.2208
38.2056 19.929
38.3945 19.6132
38.5837 19.4185
38.7728 19.2355
38.9621 18.8642
39.1514 18.6238
39.3409 18.4704
39.5304 18.1789
39.7201 17.9842
39.9099 17.8096
40.0999 17.5763
40.2899 17.2996
40.48 17.0908
40.6703 16.8921
40.8607 16.6975
41.0512 16.5759
41.242 16.2694
41.4327 16.0297
41.6236 15.831
41.8146 15.5955
42.0057 15.4453
42.1969 15.149
42.3882 15.0074
42.5797 14.7657
42.7713 14.6375
42.963 14.4495
43.1549 14.2285
43.3468 14.0476
43.5389 13.7809
43.7312 13.6445
43.9237 13.4182
44.1162 13.272
44.3088 13.0754
44.5016 12.865
44.6945 12.702
44.8875 12.5749
45.0806 12.3743
45.2739 12.1912
45.4673 11.9571
45.6609 11.808
45.8546 11.6898
46.0484 11.5155
46.2424 11.3381
46.4365 11.1565
46.631 11.0056
46.8254 10.8451
47.0199 10.6676
47.2146 10.5083
47.4095 10.3455
47.6044 10.2269
47.7996 10.0357
47.9948 9.96245
48.1902 9.77391
48.3858 9.65479
48.5815 9.52969
48.7774 9.34004
48.9734 9.21088
49.1696 9.09114
49.3661 8.95087
49.5626 8.77769
49.7592 8.70369
49.956 8.54922
50.153 8.43478
50.3501 8.30205
50.5474 8.17424
50.7448 8.02406
50.9424 7.94811
51.1402 7.77375
51.3381 7.69367
51.5362 7.51932
51.7344 7.41381
51.9328 7.29852
52.1316 7.15385
52.3304 7.06368
52.5293 6.93066
52.7284 6.83969
52.9276 6.72819
53.1271 6.58368
53.3267 6.53433
53.5265 6.37733
53.7264 6.26407
53.9266 6.15569
54.1269 6.05266
54.3274 5.90692
54.528 5.79498
54.7289 5.65363
54.9301 5.48078
55.1314 5.35623
55.3328 5.15668
55.5344 4.96568
55.7361 4.79796