File: XRD/Ni3Fe_FD0768.xy
TT I
1.27165 7.2482
1.45013 6.54887
1.62863 5.06893
1.80712 4.65864
1.98562 4.41158
2.16411 4.73658
2.34263 5.28299
2.52115 7.2518
2.69965 8.28579
2.87818 9.06323
3.05672 11.2127
3.23527 14.9993
3.4138 18.6924
3.59237 24.5781
3.77094 26.1665
3.9495 29.6299
4.12809 34.7856
4.30669 275.663
4.4853 71.173
4.6639 54.8118
4.84253 66.522
5.02118 84.9504
5.19981 302.74
5.37848 187.951
5.55716 100.803
5.73586 90.7804
5.91455 91.779
6.09328 4220.04
6.27201 82.5375
6.45075 66.9743
6.62952 62.792
6.8083 58.4857
6.98711 56.1085
7.16591 55.4043
7.34475 103.499
7.5236 54.9063
7.70247 56.0071
7.88135 57.4195
8.06026 61.9855
8.23919 68.9799
8.41812 84.8539
8.59709 1088.7
8.77609 98.6639
8.9551 92.9639
9.13412 80.979
9.31318 81.296
9.49226 83.6949
9.67134 100.272
9.85047 98.8138
10.0296 298.584
10.2088 405.872
10.388 103.766
10.5672 513.694
10.7465 86.184
10.9257 78.2186
11.105 71.3003
11.2844 71.3015
11.4637 64.2837
11.6431 63.0953
11.8225 62.2501
12.002 62.9381
12.1814 145.602
12.3609 72.0555
12.5405 63.9517
12.72 70.9487
12.8996 70.5551
13.0792 77.5782
13.2589 223.484
13.4386 127.135
13.6183 234.297
13.7981 98.397
13.9779 75.2499
14.1577 72.1068
14.3376 71.6284
14.5175 67.9969
14.6974 69.8266
14.8774 105.038
15.0574 152.28
15.2374 71.3121
15.4175 65.7397
15.5976 65.2209
15.7778 90.3959
15.958 159.124
16.1382 62.9518
16.3185 58.7273
16.4988 55.1241
16.6792 54.1205
16.8596 54.9724
17.04 55.2887
17.2205 65.5012
17.401 71.0948
17.5815 58.6553
17.7622 60.4964
17.9428 71.5005
18.1237 138.622
18.3044 88.921
18.4852 78.6245
18.666 59.9147
18.8469 57.7202
19.0278 56.5139
19.2088 58.7815
19.3898 76.9562
19.5709 53.9715
19.752 52.8764
19.9332 55.5333
20.1144 69.5356
20.2957 62.9768
20.477 53.6846
20.6586 49.4268
20.84 48.4077
21.0215 48.2595
21.203 50.3404
21.3846 48.764
21.5662 48.431
21.7479 51.767
21.9297 64.3341
22.1115 55.4612
22.2933 49.7669
22.4753 48.7442
22.6572 48.4185
22.8393 51.1816
23.0214 57.3264
23.2037 48.4133
23.3859 49.0722
23.5682 56.5578
23.7505 48.3103
23.9329 44.9263
24.1154 43.7246
24.2979 43.0893
24.4805 42.4693
24.6631 42.5724
24.8458 41.8852
25.0286 42.5237
25.2114 44.3781
25.3943 44.4756
25.5773 40.6755
25.7605 40.0983
25.9436 40.4891
26.1268 41.5124
26.31 39.882
26.4933 40.2412
26.6767 42.0234
26.8601 40.3116
27.0437 38.6725
27.2272 38.2871
27.4109 38.1206
27.5946 38.1038
27.7784 37.6088
27.9623 38.0122
28.1462 38.5267
28.3304 37.0229
28.5145 35.7333
28.6987 35.3678
28.8829 35.3367
29.0673 34.445
29.2517 34.1266
29.4361 33.9097
29.6207 33.0114
29.8053 32.6916
29.99 32.2884
30.1748 32.3587
30.3597 32.0117
30.5447 31.8252
30.7297 32.0588
30.915 31.4633
31.1002 30.9094
31.2855 30.6229
31.4708 30.685
31.6563 30.1961
31.8418 29.8597
32.0275 29.7678
32.2132 29.2715
32.399 28.7313
32.5848 28.312
32.7708 27.9441
32.9569 27.8108
33.143 27.6055
33.3293 27.2705
33.5158 26.8835
33.7022 26.4256
33.8887 26.2119
34.0753 25.832
34.262 25.5278
34.4488 25.1672
34.6357 24.7916
34.8227 24.6056
35.0098 24.3882
35.1969 24.12
35.3842 23.8424
35.5716 23.6805
35.759 23.3707
35.9468 23.0287
36.1345 22.8122
36.3222 22.5137
36.5101 22.3406
36.6981 22.0426
36.8861 21.658
37.0743 21.3933
37.2626 21.1512
37.451 20.8716
37.6395 20.7516
37.8281 20.3845
38.0168 20.0823
38.2056 19.8705
38.3945 19.6187
38.5837 19.3565
38.7728 19.1064
38.9621 18.9162
39.1514 18.6166
39.3409 18.3868
39.5304 18.1668
39.7201 17.9787
39.9099 17.7261
40.0999 17.4738
40.2899 17.2767
40.48 17.0063
40.6703 16.8966
40.8607 16.6029
41.0512 16.4498
41.242 16.1736
41.4327 16.0304
41.6236 15.7543
41.8146 15.582
42.0057 15.3539
42.1969 15.1073
42.3882 14.967
42.5797 14.7631
42.7713 14.5467
42.963 14.3297
43.1549 14.1572
43.3468 13.9788
43.5389 13.7523
43.7312 13.606
43.9237 13.4722
44.1162 13.2104
44.3088 13.0251
44.5016 12.8686
44.6945 12.6948
44.8875 12.5136
45.0806 12.2759
45.2739 12.1407
45.4673 11.9697
45.6609 11.7783
45.8546 11.658
46.0484 11.4649
46.2424 11.3263
46.4365 11.1818
46.631 10.9549
46.8254 10.7975
47.0199 10.6609
47.2146 10.5207
47.4095 10.3192
47.6044 10.1965
47.7996 10.0521
47.9948 9.8786
48.1902 9.78461
48.3858 9.64005
48.5815 9.48285
48.7774 9.33408
48.9734 9.21734
49.1696 9.07061
49.3661 8.90687
49.5626 8.79273
49.7592 8.63695
49.956 8.50715
50.153 8.37717
50.3501 8.3053
50.5474 8.12334
50.7448 8.05139
50.9424 7.9045
51.1402 7.75986
51.3381 7.62623
51.5362 7.53306
51.7344 7.41763
51.9328 7.28928
52.1316 7.13939
52.3304 7.04082
52.5293 6.91434
52.7284 6.81555
52.9276 6.69612
53.1271 6.57019
53.3267 6.45871
53.5265 6.32402
53.7264 6.26195
53.9266 6.1499
54.1269 6.06011
54.3274 5.90804
54.528 5.7773
54.7289 5.65186
54.9301 5.44678
55.1314 5.33131
55.3328 5.12976
55.5344 4.93146
55.7361 4.79385