File: XRD/Ni3Fe_FD0162.xy
TT I
1.27165 8.15346
1.45013 6.88886
1.62863 6.03634
1.80712 4.93287
1.98562 5.47744
2.16411 4.45327
2.34263 4.12857
2.52115 4.45816
2.69965 6.01856
2.87818 8.36649
3.05672 11.0971
3.23527 15.0022
3.4138 18.7448
3.59237 22.1028
3.77094 25.1448
3.9495 28.7301
4.12809 33.0048
4.30669 37.6288
4.4853 45.2544
4.6639 54.2703
4.84253 66.0905
5.02118 90.3144
5.19981 532.93
5.37848 427.563
5.55716 107.331
5.73586 95.5504
5.91455 105.087
6.09328 2774.14
6.27201 89.0079
6.45075 66.3556
6.62952 59.99
6.8083 55.5796
6.98711 53.5539
7.16591 52.5137
7.34475 52.1055
7.5236 55.8234
7.70247 54.2245
7.88135 56.0549
8.06026 60.8467
8.23919 68.0635
8.41812 83.3061
8.59709 900.464
8.77609 115.584
8.9551 85.456
9.13412 81.5782
9.31318 86.1468
9.49226 83.3552
9.67134 88.5593
9.85047 98.5788
10.0296 541.155
10.2088 977.514
10.388 104.528
10.5672 337.089
10.7465 90.5961
10.9257 75.9855
11.105 70.386
11.2844 66.3201
11.4637 63.501
11.6431 62.2316
11.8225 61.5039
12.002 65.0635
12.1814 119.3
12.3609 74.9725
12.5405 63.3572
12.72 65.1977
12.8996 69.9026
13.0792 79.2932
13.2589 207.541
13.4386 208.069
13.6183 195.024
13.7981 154.196
13.9779 76.1089
14.1577 74.013
14.3376 69.0868
14.5175 68.4633
14.6974 69.9534
14.8774 121.534
15.0574 205.236
15.2374 69.2374
15.4175 66.2362
15.5976 65.7195
15.7778 107.535
15.958 187.014
16.1382 61.8078
16.3185 57.4543
16.4988 55.1674
16.6792 54.2303
16.8596 54.4156
17.04 55.4065
17.2205 65.4827
17.401 81.0175
17.5815 58.9761
17.7622 61.3618
17.9428 83.7099
18.1237 116.048
18.3044 88.9052
18.4852 95.2986
18.666 61.0454
18.8469 58.3702
19.0278 56.8944
19.2088 61.9559
19.3898 69.5034
19.5709 56.4172
19.752 53.3962
19.9332 58.2166
20.1144 67.2971
20.2957 61.2614
20.477 59.3363
20.6586 49.876
20.84 49.2114
21.0215 49.3097
21.203 49.7161
21.3846 50.7063
21.5662 49.1097
21.7479 54.3065
21.9297 62.5259
22.1115 56.5019
22.2933 52.5916
22.4753 49.0805
22.6572 49.3017
22.8393 52.3528
23.0214 57.5831
23.2037 50.1079
23.3859 51.8737
23.5682 54.0037
23.7505 53.296
23.9329 45.8101
24.1154 44.55
24.2979 43.7451
24.4805 43.1662
24.6631 43.1481
24.8458 42.7452
25.0286 43.1682
25.2114 44.895
25.3943 45.1068
25.5773 41.912
25.7605 40.8033
25.9436 41.2404
26.1268 41.7596
26.31 40.9983
26.4933 41.1522
26.6767 42.2433
26.8601 41.3756
27.0437 39.6909
27.2272 39.0089
27.4109 38.7179
27.5946 38.8362
27.7784 38.7295
27.9623 38.6531
28.1462 39.5816
28.3304 38.0658
28.5145 36.4871
28.6987 35.9102
28.8829 35.6076
29.0673 35.3746
29.2517 34.7119
29.4361 34.4532
29.6207 33.6905
29.8053 33.2633
29.99 32.9032
30.1748 32.6739
30.3597 32.7339
30.5447 32.4764
30.7297 32.5654
30.915 32.183
31.1002 31.6309
31.2855 31.326
31.4708 31.2212
31.6563 31.0425
31.8418 30.5169
32.0275 30.3088
32.2132 29.8794
32.399 29.3925
32.5848 28.8835
32.7708 28.5045
32.9569 28.3682
33.143 28.1158
33.3293 27.815
33.5158 27.4479
33.7022 26.904
33.8887 26.6973
34.0753 26.3004
34.262 25.9673
34.4488 25.6052
34.6357 25.2737
34.8227 24.9761
35.0098 24.7076
35.1969 24.4861
35.3842 24.1954
35.5716 24.0781
35.759 23.8051
35.9468 23.4071
36.1345 23.1442
36.3222 22.9232
36.5101 22.6602
36.6981 22.4728
36.8861 21.957
37.0743 21.7658
37.2626 21.4499
37.451 21.1937
37.6395 21.1079
37.8281 20.7208
38.0168 20.4878
38.2056 20.2255
38.3945 19.9142
38.5837 19.6666
38.7728 19.4096
38.9621 19.1574
39.1514 18.8836
39.3409 18.6415
39.5304 18.4401
39.7201 18.2218
39.9099 18.0308
40.0999 17.8305
40.2899 17.4952
40.48 17.3268
40.6703 17.1267
40.8607 16.8629
41.0512 16.7085
41.242 16.488
41.4327 16.2004
41.6236 15.9932
41.8146 15.857
42.0057 15.5946
42.1969 15.3524
42.3882 15.2022
42.5797 14.9723
42.7713 14.8051
42.963 14.5667
43.1549 14.3736
43.3468 14.1897
43.5389 13.9728
43.7312 13.782
43.9237 13.601
44.1162 13.415
44.3088 13.2285
44.5016 13.0102
44.6945 12.8868
44.8875 12.6907
45.0806 12.5219
45.2739 12.3587
45.4673 12.148
45.6609 11.9752
45.8546 11.8281
46.0484 11.6831
46.2424 11.4792
46.4365 11.3672
46.631 11.1134
46.8254 10.9814
47.0199 10.8012
47.2146 10.6361
47.4095 10.479
47.6044 10.3622
47.7996 10.1713
47.9948 10.0305
48.1902 9.8856
48.3858 9.75477
48.5815 9.59925
48.7774 9.49497
48.9734 9.34948
49.1696 9.21764
49.3661 9.07148
49.5626 8.89457
49.7592 8.78563
49.956 8.68887
50.153 8.50711
50.3501 8.3832
50.5474 8.2674
50.7448 8.12973
50.9424 8.04202
51.1402 7.88633
51.3381 7.73923
51.5362 7.63551
51.7344 7.51792
51.9328 7.37038
52.1316 7.21264
52.3304 7.14165
52.5293 7.03484
52.7284 6.93847
52.9276 6.83167
53.1271 6.72983
53.3267 6.58004
53.5265 6.48522
53.7264 6.36804
53.9266 6.23957
54.1269 6.10348
54.3274 6.01599
54.528 5.82463
54.7289 5.66516
54.9301 5.49196
55.1314 5.35818
55.3328 5.10716
55.5344 4.94688
55.7361 4.81165