File: XRD/Ni3Fe_FD0817.xy
TT I
1.27165 7.32823
1.45013 5.97959
1.62863 5.54073
1.80712 4.74177
1.98562 5.30606
2.16411 5.08123
2.34263 5.61132
2.52115 7.36744
2.69965 8.95847
2.87818 9.19487
3.05672 11.3103
3.23527 15.3845
3.4138 18.6951
3.59237 22.6666
3.77094 25.7461
3.9495 29.0341
4.12809 34.2725
4.30669 106.395
4.4853 53.6082
4.6639 55.1011
4.84253 67.9617
5.02118 86.6716
5.19981 399.579
5.37848 192.238
5.55716 101.565
5.73586 92.562
5.91455 95.0039
6.09328 4591.66
6.27201 79.7324
6.45075 69.2364
6.62952 62.6095
6.8083 59.114
6.98711 55.1073
7.16591 55.7711
7.34475 67.2432
7.5236 53.7864
7.70247 56.457
7.88135 57.0743
8.06026 62.0087
8.23919 68.9765
8.41812 83.0353
8.59709 1217.95
8.77609 96.5849
8.9551 89.412
9.13412 82.7197
9.31318 84.0431
9.49226 84.4107
9.67134 94.8545
9.85047 100.82
10.0296 342.738
10.2088 348.763
10.388 104.378
10.5672 539.616
10.7465 85.4806
10.9257 77.7435
11.105 70.924
11.2844 67.6362
11.4637 64.1259
11.6431 62.888
11.8225 62.2439
12.002 63.946
12.1814 160.342
12.3609 66.1637
12.5405 64.3636
12.72 67.4621
12.8996 70.9527
13.0792 79.9982
13.2589 249.303
13.4386 117.978
13.6183 259.203
13.7981 93.3233
13.9779 75.1237
14.1577 71.3409
14.3376 69.29
14.5175 68.4047
14.6974 70.1196
14.8774 111.811
15.0574 140.912
15.2374 68.9549
15.4175 65.8079
15.5976 65.2306
15.7778 95.3229
15.958 146.301
16.1382 60.82
16.3185 57.3751
16.4988 54.8677
16.6792 53.772
16.8596 54.2902
17.04 55.6345
17.2205 66.8831
17.401 68.5864
17.5815 58.6139
17.7622 60.7868
17.9428 73.4486
18.1237 141.381
18.3044 91.2278
18.4852 74.0944
18.666 59.6397
18.8469 57.5961
19.0278 56.3885
19.2088 58.7926
19.3898 75.6046
19.5709 53.4518
19.752 52.6466
19.9332 55.7166
20.1144 69.7319
20.2957 63.9548
20.477 52.4698
20.6586 49.0514
20.84 48.2304
21.0215 48.1184
21.203 50.3857
21.3846 48.2443
21.5662 48.6731
21.7479 52.4221
21.9297 64.1704
22.1115 55.8531
22.2933 49.134
22.4753 48.4216
22.6572 48.3706
22.8393 51.7652
23.0214 56.5738
23.2037 48.2711
23.3859 49.4564
23.5682 57.1034
23.7505 47.4073
23.9329 44.7946
24.1154 43.4965
24.2979 43.0318
24.4805 42.4968
24.6631 42.3778
24.8458 41.7922
25.0286 42.5229
25.2114 44.1768
25.3943 44.054
25.5773 40.4427
25.7605 40.01
25.9436 40.4555
26.1268 41.4088
26.31 39.6888
26.4933 40.3433
26.6767 41.9056
26.8601 40.081
27.0437 38.5654
27.2272 38.1767
27.4109 38.0435
27.5946 38.0095
27.7784 37.4637
27.9623 38.11
28.1462 38.3191
28.3304 36.7716
28.5145 35.5025
28.6987 35.2393
28.8829 35.1674
29.0673 34.218
29.2517 33.9044
29.4361 33.8265
29.6207 32.8377
29.8053 32.5765
29.99 32.2621
30.1748 32.043
30.3597 31.8919
30.5447 31.8727
30.7297 31.8949
30.915 31.2638
31.1002 30.9032
31.2855 30.57
31.4708 30.5791
31.6563 30.0466
31.8418 29.9188
32.0275 29.607
32.2132 29.0877
32.399 28.6556
32.5848 28.2081
32.7708 27.8269
32.9569 27.714
33.143 27.5414
33.3293 27.1128
33.5158 26.7675
33.7022 26.3836
33.8887 26.0224
34.0753 25.7341
34.262 25.4435
34.4488 25.0758
34.6357 24.7221
34.8227 24.3754
35.0098 24.2425
35.1969 23.9745
35.3842 23.7171
35.5716 23.5241
35.759 23.2354
35.9468 22.8946
36.1345 22.5815
36.3222 22.4116
36.5101 22.2256
36.6981 21.9093
36.8861 21.6129
37.0743 21.3242
37.2626 21.0697
37.451 20.7794
37.6395 20.5232
37.8281 20.2846
38.0168 20.0293
38.2056 19.7669
38.3945 19.5264
38.5837 19.222
38.7728 19.0374
38.9621 18.7735
39.1514 18.5246
39.3409 18.3218
39.5304 18.1032
39.7201 17.8675
39.9099 17.6368
40.0999 17.3919
40.2899 17.1876
40.48 16.8916
40.6703 16.7439
40.8607 16.505
41.0512 16.3387
41.242 16.0309
41.4327 15.888
41.6236 15.611
41.8146 15.4767
42.0057 15.2258
42.1969 15.0464
42.3882 14.8717
42.5797 14.6816
42.7713 14.5113
42.963 14.3011
43.1549 14.0843
43.3468 13.8739
43.5389 13.6966
43.7312 13.4748
43.9237 13.3246
44.1162 13.1165
44.3088 12.9775
44.5016 12.7746
44.6945 12.5742
44.8875 12.4212
45.0806 12.2514
45.2739 12.1184
45.4673 11.9295
45.6609 11.7219
45.8546 11.5391
46.0484 11.3855
46.2424 11.224
46.4365 11.1029
46.631 10.9245
46.8254 10.7196
47.0199 10.601
47.2146 10.4411
47.4095 10.2965
47.6044 10.1304
47.7996 9.95333
47.9948 9.85639
48.1902 9.67785
48.3858 9.56977
48.5815 9.41443
48.7774 9.2736
48.9734 9.13686
49.1696 9.04501
49.3661 8.87892
49.5626 8.70918
49.7592 8.60898
49.956 8.45412
50.153 8.33355
50.3501 8.1959
50.5474 8.10369
50.7448 7.96057
50.9424 7.84653
51.1402 7.73417
51.3381 7.6085
51.5362 7.47607
51.7344 7.37679
51.9328 7.21805
52.1316 7.09922
52.3304 6.99478
52.5293 6.90839
52.7284 6.77563
52.9276 6.64557
53.1271 6.5551
53.3267 6.44143
53.5265 6.31829
53.7264 6.21394
53.9266 6.11563
54.1269 5.99169
54.3274 5.88055
54.528 5.76467
54.7289 5.57237
54.9301 5.46449
55.1314 5.29241
55.3328 5.15229
55.5344 4.87301
55.7361 4.79826