File: XRD/Ni3Fe_FD0293.xy
TT I
1.27165 7.63029
1.45013 6.91984
1.62863 5.6065
1.80712 4.96082
1.98562 5.00087
2.16411 5.63228
2.34263 4.82279
2.52115 5.459
2.69965 7.63115
2.87818 8.5725
3.05672 11.3722
3.23527 15.0352
3.4138 19.0733
3.59237 25.3107
3.77094 26.8223
3.9495 30.8229
4.12809 36.6027
4.30669 285.788
4.4853 73.3696
4.6639 57.2406
4.84253 69.172
5.02118 90.9483
5.19981 500.593
5.37848 258.104
5.55716 106.951
5.73586 96.4923
5.91455 100.737
6.09328 3732.37
6.27201 90.2975
6.45075 70.224
6.62952 65.7405
6.8083 61.2435
6.98711 57.9828
7.16591 58.0596
7.34475 108.515
7.5236 56.9297
7.70247 58.0906
7.88135 59.9928
8.06026 64.3045
8.23919 71.9489
8.41812 89.773
8.59709 1010.94
8.77609 108.551
8.9551 97.3329
9.13412 84.9736
9.31318 85.7241
9.49226 87.4992
9.67134 104.901
9.85047 104.149
10.0296 385.227
10.2088 603.191
10.388 110.669
10.5672 446.406
10.7465 90.8488
10.9257 82.0973
11.105 74.4337
11.2844 74.0658
11.4637 67.4234
11.6431 66.2812
11.8225 64.7411
12.002 66.2172
12.1814 138.465
12.3609 76.5493
12.5405 67.3873
12.72 73.9417
12.8996 73.3343
13.0792 81.6019
13.2589 213.004
13.4386 149.117
13.6183 215.59
13.7981 114.147
13.9779 78.8679
14.1577 75.5936
14.3376 74.8333
14.5175 71.2508
14.6974 73.1441
14.8774 109.858
15.0574 175.894
15.2374 74.5143
15.4175 68.8826
15.5976 68.191
15.7778 95.874
15.958 178.353
16.1382 66.0153
16.3185 61.1935
16.4988 57.7429
16.6792 56.7
16.8596 57.5108
17.04 57.9788
17.2205 67.1098
17.401 77.3126
17.5815 61.5451
17.7622 63.5434
17.9428 77.2363
18.1237 137.462
18.3044 89.0479
18.4852 85.4001
18.666 62.845
18.8469 60.1693
19.0278 59.0383
19.2088 61.9068
19.3898 78.6162
19.5709 56.7801
19.752 55.2542
19.9332 58.2817
20.1144 71.5086
20.2957 64.0557
20.477 57.1894
20.6586 51.5796
20.84 50.5929
21.0215 50.4531
21.203 52.2226
21.3846 51.2189
21.5662 50.5861
21.7479 54.1612
21.9297 66.3348
22.1115 57.7238
22.2933 52.1669
22.4753 50.8983
22.6572 50.6672
22.8393 53.0868
23.0214 60.1774
23.2037 50.7372
23.3859 51.6807
23.5682 57.4102
23.7505 51.1909
23.9329 47.0205
24.1154 45.7132
24.2979 45.2684
24.4805 44.4721
24.6631 44.4926
24.8458 43.7234
25.0286 44.3251
25.2114 46.0009
25.3943 46.4984
25.5773 42.7513
25.7605 41.9507
25.9436 42.1011
26.1268 43.2337
26.31 41.7723
26.4933 42.024
26.6767 43.6823
26.8601 42.1579
27.0437 40.4119
27.2272 39.9753
27.4109 39.7357
27.5946 39.8592
27.7784 39.2869
27.9623 39.5629
28.1462 40.3329
28.3304 38.7491
28.5145 37.3318
28.6987 36.8763
28.8829 36.7411
29.0673 35.9991
29.2517 35.5713
29.4361 35.5145
29.6207 34.4512
29.8053 34.1818
29.99 33.9425
30.1748 33.7316
30.3597 33.5273
30.5447 33.2501
30.7297 33.4491
30.915 32.8557
31.1002 32.2721
31.2855 32.1373
31.4708 31.876
31.6563 31.6454
31.8418 31.1856
32.0275 30.9736
32.2132 30.6438
32.399 30.0308
32.5848 29.5935
32.7708 29.2278
32.9569 29.092
33.143 28.8306
33.3293 28.429
33.5158 28.05
33.7022 27.5954
33.8887 27.3337
34.0753 26.9941
34.262 26.6339
34.4488 26.2309
34.6357 25.9368
34.8227 25.6213
35.0098 25.3914
35.1969 25.1329
35.3842 24.9548
35.5716 24.5473
35.759 24.3361
35.9468 24.004
36.1345 23.8146
36.3222 23.5203
36.5101 23.2492
36.6981 22.9482
36.8861 22.6298
37.0743 22.3331
37.2626 22.0282
37.451 21.7428
37.6395 21.6076
37.8281 21.2767
38.0168 20.965
38.2056 20.709
38.3945 20.4309
38.5837 20.1682
38.7728 19.9396
38.9621 19.6778
39.1514 19.4328
39.3409 19.1289
39.5304 18.9549
39.7201 18.8058
39.9099 18.4861
40.0999 18.2636
40.2899 18.0047
40.48 17.7827
40.6703 17.5764
40.8607 17.3412
41.0512 17.1618
41.242 16.8781
41.4327 16.6488
41.6236 16.4446
41.8146 16.23
42.0057 15.9622
42.1969 15.7313
42.3882 15.6169
42.5797 15.4198
42.7713 15.2073
42.963 14.9655
43.1549 14.7405
43.3468 14.5165
43.5389 14.3606
43.7312 14.1793
43.9237 13.9771
44.1162 13.7391
44.3088 13.5715
44.5016 13.36
44.6945 13.2299
44.8875 12.9827
45.0806 12.8276
45.2739 12.6785
45.4673 12.4966
45.6609 12.3225
45.8546 12.193
46.0484 11.9817
46.2424 11.806
46.4365 11.6452
46.631 11.4514
46.8254 11.2595
47.0199 11.1065
47.2146 10.9356
47.4095 10.7974
47.6044 10.6068
47.7996 10.4703
47.9948 10.2986
48.1902 10.1828
48.3858 10.0448
48.5815 9.89807
48.7774 9.77772
48.9734 9.61697
49.1696 9.45825
49.3661 9.30829
49.5626 9.15327
49.7592 9.04549
49.956 8.89862
50.153 8.7837
50.3501 8.59037
50.5474 8.50938
50.7448 8.3662
50.9424 8.22735
51.1402 8.11195
51.3381 7.95621
51.5362 7.87766
51.7344 7.72051
51.9328 7.55968
52.1316 7.42753
52.3304 7.3223
52.5293 7.21693
52.7284 7.11064
52.9276 6.98424
53.1271 6.88627
53.3267 6.75871
53.5265 6.61791
53.7264 6.52769
53.9266 6.37336
54.1269 6.26172
54.3274 6.19069
54.528 6.03346
54.7289 5.85526
54.9301 5.66998
55.1314 5.5595
55.3328 5.27573
55.5344 5.13619
55.7361 4.98487