File: XRD/Ni3Fe_FD0272.xy
TT I
1.27165 7.71762
1.45013 6.13876
1.62863 6.06698
1.80712 4.69845
1.98562 4.40619
2.16411 4.75304
2.34263 4.64826
2.52115 5.54655
2.69965 6.48971
2.87818 8.37319
3.05672 11.032
3.23527 14.9176
3.4138 19.2552
3.59237 24.028
3.77094 26.6482
3.9495 30.4537
4.12809 35.6452
4.30669 201.297
4.4853 65.1961
4.6639 57.7923
4.84253 69.839
5.02118 92.8915
5.19981 529.962
5.37848 266.606
5.55716 109.629
5.73586 97.5114
5.91455 103.27
6.09328 3709.23
6.27201 89.9095
6.45075 70.6784
6.62952 65.3442
6.8083 60.9159
6.98711 58.0214
7.16591 57.7092
7.34475 90.9159
7.5236 56.4929
7.70247 58.1413
7.88135 60.008
8.06026 64.911
8.23919 72.4869
8.41812 89.8224
8.59709 1070.13
8.77609 109.98
8.9551 95.0813
9.13412 86.2188
9.31318 86.8842
9.49226 88.3604
9.67134 101.972
9.85047 105.454
10.0296 426.132
10.2088 595.848
10.388 110.837
10.5672 456.251
10.7465 91.3595
10.9257 81.6618
11.105 74.9643
11.2844 72.9263
11.4637 67.4833
11.6431 66.0
11.8225 65.4289
12.002 66.4955
12.1814 141.718
12.3609 74.8597
12.5405 67.0505
12.72 72.6752
12.8996 73.9509
13.0792 82.4405
13.2589 224.329
13.4386 152.949
13.6183 226.832
13.7981 114.233
13.9779 79.1531
14.1577 75.3842
14.3376 74.2955
14.5175 71.703
14.6974 73.4941
14.8774 114.568
15.0574 174.05
15.2374 74.1506
15.4175 69.2312
15.5976 68.7834
15.7778 99.7809
15.958 175.087
16.1382 65.3405
16.3185 60.9766
16.4988 57.8021
16.6792 56.8176
16.8596 57.6499
17.04 58.1439
17.2205 68.2272
17.401 77.8009
17.5815 61.6455
17.7622 63.881
17.9428 79.2885
18.1237 136.578
18.3044 90.9283
18.4852 85.6599
18.666 63.0563
18.8469 60.5362
19.0278 59.52
19.2088 62.6358
19.3898 77.312
19.5709 56.9458
19.752 55.6776
19.9332 58.9121
20.1144 71.9001
20.2957 64.6634
20.477 57.2028
20.6586 51.7956
20.84 51.0868
21.0215 50.8486
21.203 52.4119
21.3846 51.4292
21.5662 50.9396
21.7479 54.8246
21.9297 66.2029
22.1115 57.9847
22.2933 52.5185
22.4753 51.0399
22.6572 50.9137
22.8393 53.6933
23.0214 59.925
23.2037 51.0812
23.3859 52.192
23.5682 57.5391
23.7505 51.4697
23.9329 47.261
24.1154 46.1327
24.2979 45.4285
24.4805 44.6836
24.6631 44.6267
24.8458 44.0108
25.0286 44.5902
25.2114 46.3188
25.3943 46.3964
25.5773 42.7171
25.7605 42.188
25.9436 42.3718
26.1268 43.3494
26.31 41.9162
26.4933 42.3688
26.6767 43.8163
26.8601 42.2211
27.0437 40.5902
27.2272 40.2533
27.4109 40.052
27.5946 40.0391
27.7784 39.4799
27.9623 39.8308
28.1462 40.4449
28.3304 38.9058
28.5145 37.5422
28.6987 37.0535
28.8829 36.9246
29.0673 36.113
29.2517 35.725
29.4361 35.5338
29.6207 34.5885
29.8053 34.2703
29.99 33.9272
30.1748 33.7463
30.3597 33.6562
30.5447 33.5731
30.7297 33.4748
30.915 32.9684
31.1002 32.4267
31.2855 32.1352
31.4708 32.067
31.6563 31.6626
31.8418 31.3478
32.0275 31.1805
32.2132 30.5935
32.399 30.1536
32.5848 29.6871
32.7708 29.3384
32.9569 29.1772
33.143 28.9344
33.3293 28.5229
33.5158 28.2026
33.7022 27.7746
33.8887 27.45
34.0753 27.0466
34.262 26.7976
34.4488 26.3697
34.6357 26.0335
34.8227 25.6504
35.0098 25.4455
35.1969 25.2469
35.3842 25.0033
35.5716 24.7936
35.759 24.5023
35.9468 24.0251
36.1345 23.7892
36.3222 23.5943
36.5101 23.3831
36.6981 23.0578
36.8861 22.7061
37.0743 22.4362
37.2626 22.1846
37.451 21.8233
37.6395 21.6788
37.8281 21.3863
38.0168 21.054
38.2056 20.8691
38.3945 20.4759
38.5837 20.2758
38.7728 19.9595
38.9621 19.7918
39.1514 19.464
39.3409 19.1626
39.5304 18.9895
39.7201 18.8437
39.9099 18.6097
40.0999 18.3246
40.2899 18.1085
40.48 17.7369
40.6703 17.6541
40.8607 17.4023
41.0512 17.1521
41.242 16.9563
41.4327 16.7477
41.6236 16.4719
41.8146 16.2847
42.0057 16.056
42.1969 15.8319
42.3882 15.67
42.5797 15.4418
42.7713 15.22
42.963 15.005
43.1549 14.896
43.3468 14.6007
43.5389 14.4047
43.7312 14.1961
43.9237 14.0077
44.1162 13.8023
44.3088 13.6021
44.5016 13.4137
44.6945 13.2249
44.8875 13.0558
45.0806 12.8913
45.2739 12.6551
45.4673 12.5588
45.6609 12.3324
45.8546 12.1964
46.0484 11.982
46.2424 11.8237
46.4365 11.648
46.631 11.4654
46.8254 11.2625
47.0199 11.1794
47.2146 10.9812
47.4095 10.8078
47.6044 10.6534
47.7996 10.4966
47.9948 10.3327
48.1902 10.1963
48.3858 10.0577
48.5815 9.8995
48.7774 9.77697
48.9734 9.6237
49.1696 9.4892
49.3661 9.3399
49.5626 9.18726
49.7592 9.04168
49.956 8.90995
50.153 8.7757
50.3501 8.64678
50.5474 8.50911
50.7448 8.36662
50.9424 8.2405
51.1402 8.12599
51.3381 7.96696
51.5362 7.84877
51.7344 7.73387
51.9328 7.6135
52.1316 7.46101
52.3304 7.36891
52.5293 7.18987
52.7284 7.11411
52.9276 6.97589
53.1271 6.87394
53.3267 6.74331
53.5265 6.6336
53.7264 6.53464
53.9266 6.43511
54.1269 6.29579
54.3274 6.17666
54.528 5.97952
54.7289 5.83595
54.9301 5.67192
55.1314 5.56843
55.3328 5.31015
55.5344 5.15853
55.7361 5.01797