File: XRD/Ni3Fe_FD0514.xy
TT I
1.27165 7.82037
1.45013 6.13193
1.62863 5.16875
1.80712 4.61562
1.98562 4.78782
2.16411 5.3667
2.34263 5.68147
2.52115 6.69828
2.69965 8.18671
2.87818 8.69871
3.05672 11.1541
3.23527 15.0912
3.4138 19.2665
3.59237 24.3281
3.77094 26.9952
3.9495 30.116
4.12809 35.5944
4.30669 235.246
4.4853 67.8974
4.6639 56.1911
4.84253 68.1717
5.02118 87.8622
5.19981 388.002
5.37848 205.289
5.55716 103.489
5.73586 93.2884
5.91455 95.5149
6.09328 4080.38
6.27201 85.6246
6.45075 68.176
6.62952 63.8535
6.8083 59.5169
6.98711 56.538
7.16591 56.298
7.34475 96.6859
7.5236 55.5777
7.70247 56.7696
7.88135 58.8833
8.06026 62.9943
8.23919 70.5863
8.41812 86.8943
8.59709 1135.78
8.77609 101.845
8.9551 93.3461
9.13412 82.6178
9.31318 83.4992
9.49226 85.5375
9.67134 100.318
9.85047 101.086
10.0296 349.45
10.2088 449.76
10.388 106.623
10.5672 495.119
10.7465 88.255
10.9257 79.5006
11.105 72.9325
11.2844 71.6911
11.4637 65.9828
11.6431 64.734
11.8225 63.4357
12.002 64.467
12.1814 152.294
12.3609 72.4282
12.5405 65.2052
12.72 71.2733
12.8996 71.7262
13.0792 79.6183
13.2589 233.502
13.4386 132.015
13.6183 240.486
13.7981 102.988
13.9779 76.815
14.1577 73.474
14.3376 72.9562
14.5175 69.6355
14.6974 71.2543
14.8774 111.344
15.0574 155.27
15.2374 72.2266
15.4175 67.2108
15.5976 66.614
15.7778 95.2901
15.958 161.446
16.1382 63.8356
16.3185 59.9262
16.4988 56.2557
16.6792 55.3201
16.8596 55.9854
17.04 56.493
17.2205 67.29
17.401 72.688
17.5815 60.0419
17.7622 62.0003
17.9428 74.5174
18.1237 137.395
18.3044 90.4217
18.4852 80.6439
18.666 61.2004
18.8469 58.9462
19.0278 57.8804
19.2088 60.2444
19.3898 76.958
19.5709 54.9558
19.752 53.9626
19.9332 57.0972
20.1144 70.2235
20.2957 64.0279
20.477 54.8505
20.6586 50.5222
20.84 49.3953
21.0215 49.2845
21.203 51.3749
21.3846 49.6483
21.5662 49.2463
21.7479 53.1762
21.9297 64.9204
22.1115 56.5111
22.2933 50.6366
22.4753 49.5775
22.6572 49.5
22.8393 52.4862
23.0214 58.1834
23.2037 49.5259
23.3859 50.2107
23.5682 57.1792
23.7505 49.1495
23.9329 45.9269
24.1154 44.7877
24.2979 43.9704
24.4805 43.577
24.6631 43.305
24.8458 42.7568
25.0286 43.3598
25.2114 45.2188
25.3943 45.1049
25.5773 41.5352
25.7605 41.0025
25.9436 41.325
26.1268 42.2152
26.31 40.7064
26.4933 41.1039
26.6767 42.5845
26.8601 41.0483
27.0437 39.3854
27.2272 39.1282
27.4109 38.9998
27.5946 38.7986
27.7784 38.4119
27.9623 38.8387
28.1462 39.3623
28.3304 37.8077
28.5145 36.4508
28.6987 36.0252
28.8829 35.8497
29.0673 35.1478
29.2517 34.7757
29.4361 34.7181
29.6207 33.6709
29.8053 33.4149
29.99 33.0555
30.1748 32.7971
30.3597 32.6775
30.5447 32.5299
30.7297 32.6538
30.915 31.9267
31.1002 31.4793
31.2855 31.2644
31.4708 31.3046
31.6563 30.7812
31.8418 30.541
32.0275 30.3377
32.2132 29.8046
32.399 29.2209
32.5848 28.7968
32.7708 28.51
32.9569 28.3942
33.143 28.1406
33.3293 27.7178
33.5158 27.4182
33.7022 26.9081
33.8887 26.6855
34.0753 26.3783
34.262 25.9202
34.4488 25.7143
34.6357 25.3345
34.8227 24.9955
35.0098 24.7999
35.1969 24.5625
35.3842 24.3967
35.5716 24.0549
35.759 23.7547
35.9468 23.3687
36.1345 23.2265
36.3222 22.9527
36.5101 22.6944
36.6981 22.334
36.8861 22.0484
37.0743 21.7421
37.2626 21.5223
37.451 21.2463
37.6395 21.0859
37.8281 20.7986
38.0168 20.5205
38.2056 20.1929
38.3945 19.9288
38.5837 19.6926
38.7728 19.5056
38.9621 19.2674
39.1514 18.9324
39.3409 18.7057
39.5304 18.4895
39.7201 18.322
39.9099 18.1065
40.0999 17.8263
40.2899 17.5987
40.48 17.3466
40.6703 17.1261
40.8607 17.008
41.0512 16.7186
41.242 16.4531
41.4327 16.3008
41.6236 16.0251
41.8146 15.8131
42.0057 15.6312
42.1969 15.3932
42.3882 15.2289
42.5797 15.0228
42.7713 14.7939
42.963 14.5994
43.1549 14.4005
43.3468 14.2523
43.5389 14.0621
43.7312 13.7464
43.9237 13.6823
44.1162 13.4437
44.3088 13.2233
44.5016 13.0255
44.6945 12.8981
44.8875 12.6973
45.0806 12.5122
45.2739 12.3933
45.4673 12.193
45.6609 12.0135
45.8546 11.8519
46.0484 11.6901
46.2424 11.4961
46.4365 11.3591
46.631 11.15
46.8254 10.9851
47.0199 10.8729
47.2146 10.7188
47.4095 10.5672
47.6044 10.3944
47.7996 10.21
47.9948 10.0911
48.1902 9.94379
48.3858 9.78439
48.5815 9.6797
48.7774 9.53264
48.9734 9.3715
49.1696 9.23054
49.3661 9.08006
49.5626 8.92506
49.7592 8.80335
49.956 8.66802
50.153 8.54373
50.3501 8.41002
50.5474 8.28042
50.7448 8.15463
50.9424 8.0245
51.1402 7.91428
51.3381 7.74649
51.5362 7.64667
51.7344 7.51741
51.9328 7.40572
52.1316 7.2697
52.3304 7.17582
52.5293 7.05082
52.7284 6.92319
52.9276 6.79994
53.1271 6.71466
53.3267 6.58852
53.5265 6.45113
53.7264 6.39101
53.9266 6.26207
54.1269 6.16812
54.3274 6.02052
54.528 5.94609
54.7289 5.71586
54.9301 5.54426
55.1314 5.47326
55.3328 5.23146
55.5344 5.04634
55.7361 4.90584