File: XRD/Ni3Fe_FD0501.xy
TT I
1.27165 7.58059
1.45013 5.84587
1.62863 5.75066
1.80712 5.06874
1.98562 5.21723
2.16411 5.07936
2.34263 5.28348
2.52115 6.24154
2.69965 7.76813
2.87818 8.50147
3.05672 10.7632
3.23527 15.168
3.4138 19.109
3.59237 24.2655
3.77094 26.6656
3.9495 30.2294
4.12809 35.1868
4.30669 204.113
4.4853 65.3491
4.6639 55.9711
4.84253 68.4498
5.02118 88.7068
5.19981 400.334
5.37848 204.965
5.55716 104.097
5.73586 93.9447
5.91455 96.2472
6.09328 4146.94
6.27201 85.0349
6.45075 68.2038
6.62952 63.7136
6.8083 59.4742
6.98711 56.4231
7.16591 55.7374
7.34475 89.2725
7.5236 55.2515
7.70247 56.9176
7.88135 58.5331
8.06026 62.8419
8.23919 70.5669
8.41812 86.2295
8.59709 1185.26
8.77609 102.255
8.9551 92.7394
9.13412 83.3391
9.31318 84.0346
9.49226 85.6551
9.67134 99.1058
9.85047 101.435
10.0296 362.688
10.2088 447.138
10.388 106.037
10.5672 497.214
10.7465 88.0513
10.9257 79.2762
11.105 72.838
11.2844 70.8995
11.4637 65.823
11.6431 64.6048
11.8225 63.2563
12.002 64.5114
12.1814 154.085
12.3609 71.4491
12.5405 65.432
12.72 70.5136
12.8996 71.8529
13.0792 80.1132
13.2589 238.999
13.4386 132.109
13.6183 245.583
13.7981 103.12
13.9779 76.9183
14.1577 73.2836
14.3376 72.4666
14.5175 69.7354
14.6974 71.1377
14.8774 112.639
15.0574 156.423
15.2374 71.9524
15.4175 67.1888
15.5976 66.532
15.7778 96.956
15.958 159.904
16.1382 63.5782
16.3185 59.4542
16.4988 56.1737
16.6792 55.2733
16.8596 56.0286
17.04 56.4407
17.2205 67.5572
17.401 72.7163
17.5815 60.1812
17.7622 62.1355
17.9428 75.0842
18.1237 136.499
18.3044 91.6067
18.4852 80.6293
18.666 61.2072
18.8469 58.7374
19.0278 57.6494
19.2088 60.4307
19.3898 76.5793
19.5709 55.1489
19.752 54.1732
19.9332 57.1313
20.1144 69.8429
20.2957 64.0278
20.477 54.6921
20.6586 50.3806
20.84 49.5319
21.0215 49.3048
21.203 51.4089
21.3846 49.6048
21.5662 49.4156
21.7479 53.3575
21.9297 64.6237
22.1115 56.6097
22.2933 50.6495
22.4753 49.5775
22.6572 49.5553
22.8393 52.7398
23.0214 57.9313
23.2037 49.3619
23.3859 50.5947
23.5682 57.2145
23.7505 49.3245
23.9329 45.8544
24.1154 44.7294
24.2979 44.0155
24.4805 43.4364
24.6631 43.3933
24.8458 42.8566
25.0286 43.5261
25.2114 45.1758
25.3943 44.9991
25.5773 41.4996
25.7605 40.9767
25.9436 41.398
26.1268 42.1285
26.31 40.8116
26.4933 41.451
26.6767 42.6201
26.8601 41.0635
27.0437 39.4138
27.2272 39.1562
27.4109 38.8891
27.5946 38.9838
27.7784 38.4523
27.9623 38.9129
28.1462 39.272
28.3304 37.7642
28.5145 36.4203
28.6987 36.1412
28.8829 36.0262
29.0673 35.0983
29.2517 34.7978
29.4361 34.5291
29.6207 33.6707
29.8053 33.3219
29.99 33.0623
30.1748 32.8838
30.3597 32.6208
30.5447 32.6105
30.7297 32.6109
30.915 32.1141
31.1002 31.5619
31.2855 31.3877
31.4708 31.2135
31.6563 30.7248
31.8418 30.5271
32.0275 30.4401
32.2132 29.8946
32.399 29.3057
32.5848 28.889
32.7708 28.4794
32.9569 28.4219
33.143 28.1155
33.3293 27.717
33.5158 27.4547
33.7022 26.9747
33.8887 26.6773
34.0753 26.3494
34.262 26.0658
34.4488 25.6273
34.6357 25.3492
34.8227 25.0517
35.0098 24.9258
35.1969 24.5511
35.3842 24.2883
35.5716 24.0968
35.759 23.8064
35.9468 23.3909
36.1345 23.2402
36.3222 23.0185
36.5101 22.7635
36.6981 22.4283
36.8861 22.083
37.0743 21.8187
37.2626 21.6425
37.451 21.2763
37.6395 21.1518
37.8281 20.7893
38.0168 20.5299
38.2056 20.2456
38.3945 19.9328
38.5837 19.725
38.7728 19.472
38.9621 19.2578
39.1514 18.9653
39.3409 18.7019
39.5304 18.5178
39.7201 18.2359
39.9099 18.116
40.0999 17.8741
40.2899 17.6488
40.48 17.3665
40.6703 17.1452
40.8607 16.9906
41.0512 16.6912
41.242 16.5272
41.4327 16.2918
41.6236 16.0527
41.8146 15.89
42.0057 15.6333
42.1969 15.4372
42.3882 15.2801
42.5797 15.0181
42.7713 14.8324
42.963 14.6157
43.1549 14.4226
43.3468 14.1991
43.5389 14.0085
43.7312 13.805
43.9237 13.6531
44.1162 13.4653
44.3088 13.2787
44.5016 13.0467
44.6945 12.8907
44.8875 12.7066
45.0806 12.5426
45.2739 12.3777
45.4673 12.1944
45.6609 11.9935
45.8546 11.8673
46.0484 11.6809
46.2424 11.5519
46.4365 11.3554
46.631 11.2066
46.8254 10.977
47.0199 10.8344
47.2146 10.6942
47.4095 10.5401
47.6044 10.3714
47.7996 10.2277
47.9948 10.0795
48.1902 9.91989
48.3858 9.78948
48.5815 9.63671
48.7774 9.53047
48.9734 9.38631
49.1696 9.25599
49.3661 9.07802
49.5626 8.93031
49.7592 8.80692
49.956 8.69189
50.153 8.55233
50.3501 8.42669
50.5474 8.29936
50.7448 8.1969
50.9424 8.0216
51.1402 7.93861
51.3381 7.74892
51.5362 7.65397
51.7344 7.55009
51.9328 7.36786
52.1316 7.26312
52.3304 7.15262
52.5293 7.02963
52.7284 6.95842
52.9276 6.80884
53.1271 6.70709
53.3267 6.58489
53.5265 6.49607
53.7264 6.38092
53.9266 6.24942
54.1269 6.12599
54.3274 6.00283
54.528 5.88486
54.7289 5.71616
54.9301 5.5302
55.1314 5.44697
55.3328 5.19053
55.5344 5.04101
55.7361 4.87582