File: XRD/Ni3Fe_FD0127.xy
TT I
1.27165 7.94951
1.45013 7.45204
1.62863 6.15804
1.80712 5.17369
1.98562 5.23488
2.16411 4.54986
2.34263 4.48024
2.52115 4.19988
2.69965 4.7017
2.87818 7.58012
3.05672 11.2941
3.23527 14.9389
3.4138 18.5999
3.59237 21.7057
3.77094 24.9659
3.9495 28.3344
4.12809 32.1876
4.30669 37.2205
4.4853 44.3303
4.6639 53.2294
4.84253 66.0404
5.02118 91.1229
5.19981 583.265
5.37848 505.576
5.55716 108.107
5.73586 95.3822
5.91455 106.738
6.09328 2543.13
6.27201 90.4852
6.45075 66.0434
6.62952 59.5082
6.8083 54.873
6.98711 52.7169
7.16591 52.0972
7.34475 51.6088
7.5236 56.2667
7.70247 53.8014
7.88135 55.8207
8.06026 59.7187
8.23919 67.3232
8.41812 83.4792
8.59709 843.227
8.77609 118.664
8.9551 85.1557
9.13412 81.0996
9.31318 87.8406
9.49226 82.674
9.67134 88.0157
9.85047 98.2783
10.0296 557.481
10.2088 1034.02
10.388 104.295
10.5672 310.1
10.7465 91.2492
10.9257 75.1826
11.105 69.4565
11.2844 65.7003
11.4637 62.9754
11.6431 61.7939
11.8225 60.463
12.002 66.0096
12.1814 113.285
12.3609 76.2502
12.5405 62.7443
12.72 64.5777
12.8996 69.0195
13.0792 78.7421
13.2589 197.023
13.4386 222.831
13.6183 184.192
13.7981 161.382
13.9779 75.5657
14.1577 74.4482
14.3376 68.481
14.5175 67.7097
14.6974 69.2544
14.8774 120.195
15.0574 204.34
15.2374 68.5977
15.4175 65.8302
15.5976 65.0639
15.7778 107.332
15.958 182.81
16.1382 61.6864
16.3185 56.7733
16.4988 54.6577
16.6792 53.6719
16.8596 53.792
17.04 54.9351
17.2205 64.3912
17.401 80.8931
17.5815 58.5232
17.7622 60.9324
17.9428 83.9333
18.1237 110.039
18.3044 87.5196
18.4852 96.5016
18.666 60.4829
18.8469 57.7196
19.0278 56.316
19.2088 61.3448
19.3898 67.6009
19.5709 56.3723
19.752 52.979
19.9332 58.0073
20.1144 65.5722
20.2957 60.4811
20.477 59.0272
20.6586 49.4876
20.84 48.7386
21.0215 48.6667
21.203 49.3008
21.3846 50.2571
21.5662 48.5694
21.7479 53.6334
21.9297 61.1382
22.1115 56.0698
22.2933 52.3614
22.4753 48.3835
22.6572 48.6972
22.8393 51.5289
23.0214 56.2244
23.2037 49.7023
23.3859 51.4825
23.5682 52.5747
23.7505 53.4018
23.9329 45.486
24.1154 43.9257
24.2979 43.3032
24.4805 42.6517
24.6631 42.9012
24.8458 42.1293
25.0286 42.6686
25.2114 44.1274
25.3943 44.5191
25.5773 41.5369
25.7605 40.3902
25.9436 40.6854
26.1268 41.2353
26.31 40.6997
26.4933 40.6153
26.6767 41.6298
26.8601 41.0335
27.0437 39.2533
27.2272 38.7342
27.4109 38.3056
27.5946 38.4589
27.7784 38.2909
27.9623 38.19
28.1462 38.9892
28.3304 37.7194
28.5145 36.0491
28.6987 35.6795
28.8829 35.1883
29.0673 34.7931
29.2517 34.3382
29.4361 34.0064
29.6207 33.422
29.8053 32.7393
29.99 32.5708
30.1748 32.3315
30.3597 32.4434
30.5447 32.169
30.7297 32.0891
30.915 31.8812
31.1002 31.3074
31.2855 30.8167
31.4708 30.8618
31.6563 30.775
31.8418 30.2166
32.0275 29.9792
32.2132 29.536
32.399 28.9754
32.5848 28.5928
32.7708 28.2795
32.9569 28.0517
33.143 27.7438
33.3293 27.4485
33.5158 27.2073
33.7022 26.6193
33.8887 26.2286
34.0753 26.0792
34.262 25.6364
34.4488 25.3352
34.6357 25.0107
34.8227 24.7077
35.0098 24.508
35.1969 24.2149
35.3842 23.9409
35.5716 23.7443
35.759 23.473
35.9468 23.1337
36.1345 22.9397
36.3222 22.6993
36.5101 22.3849
36.6981 22.106
36.8861 21.8487
37.0743 21.4784
37.2626 21.2433
37.451 20.9852
37.6395 20.8303
37.8281 20.5463
38.0168 20.2053
38.2056 19.966
38.3945 19.6676
38.5837 19.4192
38.7728 19.2681
38.9621 18.9822
39.1514 18.7263
39.3409 18.4677
39.5304 18.2068
39.7201 17.9972
39.9099 17.8409
40.0999 17.5736
40.2899 17.3761
40.48 17.1109
40.6703 16.9316
40.8607 16.7343
41.0512 16.5291
41.242 16.2242
41.4327 16.054
41.6236 15.8127
41.8146 15.6568
42.0057 15.4369
42.1969 15.2495
42.3882 15.0568
42.5797 14.7875
42.7713 14.5871
42.963 14.3924
43.1549 14.1811
43.3468 13.9537
43.5389 13.8038
43.7312 13.6319
43.9237 13.5124
44.1162 13.248
44.3088 13.0952
44.5016 12.8917
44.6945 12.7447
44.8875 12.5428
45.0806 12.3777
45.2739 12.1454
45.4673 12.0188
45.6609 11.8499
45.8546 11.656
46.0484 11.4841
46.2424 11.3993
46.4365 11.1789
46.631 11.0148
46.8254 10.8648
47.0199 10.7057
47.2146 10.5494
47.4095 10.3802
47.6044 10.1921
47.7996 10.0815
47.9948 9.92953
48.1902 9.79874
48.3858 9.66827
48.5815 9.5456
48.7774 9.39653
48.9734 9.27246
49.1696 9.11418
49.3661 8.96395
49.5626 8.83956
49.7592 8.68564
49.956 8.58511
50.153 8.45202
50.3501 8.29297
50.5474 8.17651
50.7448 8.07875
50.9424 7.94981
51.1402 7.78318
51.3381 7.66867
51.5362 7.55037
51.7344 7.4405
51.9328 7.30061
52.1316 7.1604
52.3304 7.07116
52.5293 6.95717
52.7284 6.82823
52.9276 6.75305
53.1271 6.64936
53.3267 6.53369
53.5265 6.37856
53.7264 6.28052
53.9266 6.17518
54.1269 6.01999
54.3274 5.89766
54.528 5.75592
54.7289 5.56974
54.9301 5.41505
55.1314 5.24447
55.3328 5.05026
55.5344 4.88734
55.7361 4.75452