File: XRD/Ni3Fe_FD0487.xy
TT I
1.27165 7.6279
1.45013 7.17533
1.62863 5.52172
1.80712 4.86219
1.98562 5.00505
2.16411 4.80501
2.34263 5.20269
2.52115 6.67026
2.69965 7.71415
2.87818 8.84017
3.05672 10.6845
3.23527 15.4649
3.4138 19.0332
3.59237 23.5552
3.77094 26.0406
3.9495 30.0002
4.12809 34.6275
4.30669 141.018
4.4853 58.2003
4.6639 56.4937
4.84253 68.9366
5.02118 89.4871
5.19981 468.266
5.37848 208.468
5.55716 105.112
5.73586 94.743
5.91455 98.1876
6.09328 4137.85
6.27201 84.2732
6.45075 68.8922
6.62952 63.4301
6.8083 59.5323
6.98711 56.3379
7.16591 56.0014
7.34475 76.1867
7.5236 55.3863
7.70247 56.8709
7.88135 58.8059
8.06026 63.4377
8.23919 70.395
8.41812 86.6399
8.59709 1222.25
8.77609 102.106
8.9551 91.131
9.13412 83.5974
9.31318 84.7976
9.49226 86.1913
9.67134 96.9703
9.85047 102.371
10.0296 398.057
10.2088 453.273
10.388 107.594
10.5672 488.185
10.7465 88.1865
10.9257 79.0739
11.105 72.8659
11.2844 70.211
11.4637 66.0755
11.6431 64.5009
11.8225 63.5611
12.002 64.9248
12.1814 154.022
12.3609 69.921
12.5405 65.545
12.72 69.6123
12.8996 72.2877
13.0792 81.2107
13.2589 249.446
13.4386 132.154
13.6183 252.725
13.7981 102.833
13.9779 77.2199
14.1577 73.1506
14.3376 71.9744
14.5175 69.9472
14.6974 71.7034
14.8774 117.755
15.0574 156.452
15.2374 71.1599
15.4175 67.2771
15.5976 67.0923
15.7778 100.397
15.958 158.985
16.1382 62.9071
16.3185 59.3134
16.4988 56.2866
16.6792 55.4644
16.8596 56.0687
17.04 56.9217
17.2205 68.44
17.401 72.7885
17.5815 60.361
17.7622 62.3085
17.9428 76.546
18.1237 136.238
18.3044 92.198
18.4852 80.1264
18.666 61.3467
18.8469 59.1511
19.0278 57.9089
19.2088 60.9722
19.3898 75.5575
19.5709 55.0699
19.752 54.1759
19.9332 57.4528
20.1144 69.8733
20.2957 64.0687
20.477 54.8597
20.6586 50.4337
20.84 49.7362
21.0215 49.4064
21.203 51.3475
21.3846 49.7852
21.5662 49.7203
21.7479 54.079
21.9297 64.7556
22.1115 56.5339
22.2933 50.9406
22.4753 49.6511
22.6572 49.8044
22.8393 53.1993
23.0214 57.9991
23.2037 49.5008
23.3859 50.7535
23.5682 56.8951
23.7505 49.3844
23.9329 46.0103
24.1154 44.7665
24.2979 44.1202
24.4805 43.6403
24.6631 43.5764
24.8458 43.0253
25.0286 43.6573
25.2114 45.2809
25.3943 45.0035
25.5773 41.6502
25.7605 41.096
25.9436 41.6753
26.1268 42.2885
26.31 40.7322
26.4933 41.4975
26.6767 42.7859
26.8601 41.0977
27.0437 39.5741
27.2272 39.1744
27.4109 39.0289
27.5946 38.9211
27.7784 38.4693
27.9623 38.9178
28.1462 39.3856
28.3304 37.7232
28.5145 36.5731
28.6987 36.2669
28.8829 36.0003
29.0673 35.2604
29.2517 34.8613
29.4361 34.5416
29.6207 33.7516
29.8053 33.3471
29.99 33.0811
30.1748 32.9978
30.3597 32.875
30.5447 32.6636
30.7297 32.7269
30.915 32.1196
31.1002 31.6184
31.2855 31.3905
31.4708 31.2598
31.6563 30.8479
31.8418 30.6406
32.0275 30.3116
32.2132 29.8749
32.399 29.4663
32.5848 28.8639
32.7708 28.5556
32.9569 28.4296
33.143 28.3156
33.3293 27.7943
33.5158 27.4647
33.7022 27.0605
33.8887 26.664
34.0753 26.4178
34.262 25.9593
34.4488 25.6915
34.6357 25.424
34.8227 25.0144
35.0098 24.903
35.1969 24.5251
35.3842 24.3662
35.5716 24.1828
35.759 23.7745
35.9468 23.4684
36.1345 23.2925
36.3222 23.092
36.5101 22.7122
36.6981 22.4084
36.8861 22.1734
37.0743 21.772
37.2626 21.609
37.451 21.3133
37.6395 21.2098
37.8281 20.7464
38.0168 20.5034
38.2056 20.2606
38.3945 20.0639
38.5837 19.7199
38.7728 19.5166
38.9621 19.2624
39.1514 19.0162
39.3409 18.7529
39.5304 18.5034
39.7201 18.3065
39.9099 18.1328
40.0999 17.9082
40.2899 17.597
40.48 17.3653
40.6703 17.1601
40.8607 16.9609
41.0512 16.8144
41.242 16.5263
41.4327 16.2645
41.6236 16.0404
41.8146 15.8765
42.0057 15.7063
42.1969 15.4706
42.3882 15.3097
42.5797 15.0269
42.7713 14.8132
42.963 14.6657
43.1549 14.4502
43.3468 14.2714
43.5389 14.0226
43.7312 13.8365
43.9237 13.7086
44.1162 13.4734
44.3088 13.2513
44.5016 13.09
44.6945 12.8752
44.8875 12.7313
45.0806 12.53
45.2739 12.367
45.4673 12.2409
45.6609 12.0421
45.8546 11.8519
46.0484 11.6867
46.2424 11.5146
46.4365 11.3982
46.631 11.2266
46.8254 11.0045
47.0199 10.8595
47.2146 10.7413
47.4095 10.5445
47.6044 10.4071
47.7996 10.2234
47.9948 10.06
48.1902 9.91182
48.3858 9.79856
48.5815 9.63217
48.7774 9.50262
48.9734 9.40837
49.1696 9.23828
49.3661 9.13142
49.5626 8.94521
49.7592 8.80807
49.956 8.70165
50.153 8.53113
50.3501 8.41137
50.5474 8.30285
50.7448 8.16851
50.9424 8.00428
51.1402 7.9376
51.3381 7.77917
51.5362 7.66106
51.7344 7.58559
51.9328 7.38256
52.1316 7.26582
52.3304 7.17679
52.5293 7.03754
52.7284 6.93004
52.9276 6.79267
53.1271 6.7174
53.3267 6.5747
53.5265 6.44351
53.7264 6.33631
53.9266 6.28161
54.1269 6.13316
54.3274 5.99852
54.528 5.88624
54.7289 5.69502
54.9301 5.58857
55.1314 5.46673
55.3328 5.24578
55.5344 5.02645
55.7361 4.87492