File: XRD/Ni3Fe_FD1043.xy
TT I
1.27165 7.37509
1.45013 5.80824
1.62863 5.49219
1.80712 4.5001
1.98562 4.10659
2.16411 4.76556
2.34263 4.68668
2.52115 6.90234
2.69965 8.07109
2.87818 8.3807
3.05672 10.8284
3.23527 15.0567
3.4138 18.29
3.59237 21.595
3.77094 24.5299
3.9495 28.8077
4.12809 32.7322
4.30669 57.0157
4.4853 46.0943
4.6639 52.5293
4.84253 64.0349
5.02118 82.7114
5.19981 230.912
5.37848 214.978
5.55716 97.3273
5.73586 87.8457
5.91455 88.9181
6.09328 4529.6
6.27201 75.8695
6.45075 63.5889
6.62952 57.9079
6.8083 54.5806
6.98711 52.7551
7.16591 51.4976
7.34475 55.9391
7.5236 59.4907
7.70247 53.1468
7.88135 54.7728
8.06026 59.1519
8.23919 65.3796
8.41812 77.4886
8.59709 1078.33
8.77609 94.9056
8.9551 82.3323
9.13412 78.7974
9.31318 89.9713
9.49226 80.639
9.67134 86.644
9.85047 93.653
10.0296 346.009
10.2088 438.69
10.388 97.4031
10.5672 504.658
10.7465 86.2542
10.9257 73.17
11.105 68.0027
11.2844 64.6592
11.4637 61.6672
11.6431 60.4345
11.8225 59.5229
12.002 67.016
12.1814 145.918
12.3609 64.4939
12.5405 61.2123
12.72 63.9101
12.8996 67.6133
13.0792 76.5953
13.2589 226.772
13.4386 127.336
13.6183 235.387
13.7981 100.04
13.9779 73.3416
14.1577 75.8243
14.3376 67.3403
14.5175 66.338
14.6974 67.2088
14.8774 109.235
15.0574 160.465
15.2374 66.367
15.4175 63.9266
15.5976 63.3545
15.7778 93.7303
15.958 167.847
16.1382 59.9533
16.3185 55.4773
16.4988 53.2744
16.6792 52.4718
16.8596 52.8173
17.04 53.6435
17.2205 64.5019
17.401 71.8661
17.5815 57.2214
17.7622 59.9735
17.9428 73.1058
18.1237 141.76
18.3044 88.7067
18.4852 78.9843
18.666 58.7319
18.8469 56.2904
19.0278 54.8754
19.2088 57.8084
19.3898 75.9295
19.5709 52.7693
19.752 51.7305
19.9332 54.8474
20.1144 70.5038
20.2957 63.4834
20.477 52.7483
20.6586 48.2885
20.84 47.9624
21.0215 47.3606
21.203 49.5286
21.3846 47.9239
21.5662 47.472
21.7479 51.7294
21.9297 65.3613
22.1115 55.8365
22.2933 49.0225
22.4753 47.4551
22.6572 47.4846
22.8393 51.0475
23.0214 57.6144
23.2037 47.7879
23.3859 49.2651
23.5682 57.1085
23.7505 48.3534
23.9329 44.2033
24.1154 43.0648
24.2979 42.306
24.4805 42.0513
24.6631 41.9119
24.8458 41.1462
25.0286 41.8688
25.2114 44.0632
25.3943 44.2221
25.5773 40.2368
25.7605 39.59
25.9436 40.1175
26.1268 41.1526
26.31 39.2639
26.4933 39.8703
26.6767 41.8259
26.8601 40.036
27.0437 38.163
27.2272 37.8082
27.4109 37.6485
27.5946 37.7578
27.7784 37.3868
27.9623 37.9284
28.1462 38.6956
28.3304 36.786
28.5145 35.3425
28.6987 34.8702
28.8829 34.773
29.0673 34.0775
29.2517 33.7324
29.4361 33.7167
29.6207 32.5437
29.8053 32.2019
29.99 31.9689
30.1748 31.7922
30.3597 31.6218
30.5447 31.6793
30.7297 31.9048
30.915 31.1661
31.1002 30.6449
31.2855 30.5067
31.4708 30.344
31.6563 29.8515
31.8418 29.6262
32.0275 29.5385
32.2132 28.915
32.399 28.4313
32.5848 27.943
32.7708 27.7135
32.9569 27.5032
33.143 27.3812
33.3293 26.9896
33.5158 26.5752
33.7022 26.1242
33.8887 25.9086
34.0753 25.5089
34.262 25.2637
34.4488 24.9336
34.6357 24.5541
34.8227 24.1911
35.0098 24.0675
35.1969 23.7538
35.3842 23.6408
35.5716 23.4332
35.759 23.0832
35.9468 22.7543
36.1345 22.5511
36.3222 22.2559
36.5101 22.0758
36.6981 21.7767
36.8861 21.4046
37.0743 21.1029
37.2626 20.9086
37.451 20.6389
37.6395 20.5418
37.8281 20.1286
38.0168 19.8272
38.2056 19.6115
38.3945 19.2897
38.5837 19.1445
38.7728 18.9288
38.9621 18.6406
39.1514 18.3777
39.3409 18.1287
39.5304 17.9061
39.7201 17.7262
39.9099 17.4831
40.0999 17.3413
40.2899 17.1058
40.48 16.8428
40.6703 16.6109
40.8607 16.4892
41.0512 16.2516
41.242 16.0183
41.4327 15.8269
41.6236 15.5353
41.8146 15.3892
42.0057 15.1392
42.1969 14.9412
42.3882 14.8078
42.5797 14.598
42.7713 14.3687
42.963 14.2044
43.1549 14.0034
43.3468 13.782
43.5389 13.6372
43.7312 13.3764
43.9237 13.2671
44.1162 13.0354
44.3088 12.8545
44.5016 12.6775
44.6945 12.5125
44.8875 12.3243
45.0806 12.1367
45.2739 12.0121
45.4673 11.8351
45.6609 11.6724
45.8546 11.5069
46.0484 11.2918
46.2424 11.1668
46.4365 10.9918
46.631 10.8441
46.8254 10.6867
47.0199 10.5197
47.2146 10.3864
47.4095 10.2124
47.6044 10.0543
47.7996 9.888
47.9948 9.7787
48.1902 9.65271
48.3858 9.50568
48.5815 9.37468
48.7774 9.26675
48.9734 9.08627
49.1696 8.946
49.3661 8.80265
49.5626 8.64084
49.7592 8.55808
49.956 8.43241
50.153 8.28403
50.3501 8.18002
50.5474 8.03771
50.7448 7.87665
50.9424 7.79178
51.1402 7.64743
51.3381 7.51765
51.5362 7.45711
51.7344 7.28294
51.9328 7.1628
52.1316 7.06425
52.3304 6.94974
52.5293 6.8377
52.7284 6.76274
52.9276 6.60252
53.1271 6.51588
53.3267 6.35098
53.5265 6.29171
53.7264 6.14424
53.9266 6.08222
54.1269 5.95102
54.3274 5.86819
54.528 5.71799
54.7289 5.58982
54.9301 5.39143
55.1314 5.28875
55.3328 5.04048
55.5344 4.88606
55.7361 4.72433