File: XRD/Ni3Fe_FD0929.xy
TT I
1.27165 7.36271
1.45013 6.71284
1.62863 4.82156
1.80712 4.49681
1.98562 4.86961
2.16411 4.61606
2.34263 6.17218
2.52115 7.66688
2.69965 8.90434
2.87818 9.21013
3.05672 10.9175
3.23527 15.3031
3.4138 18.7955
3.59237 23.306
3.77094 25.7019
3.9495 29.2971
4.12809 34.1045
4.30669 97.6869
4.4853 52.9362
4.6639 55.0563
4.84253 67.5473
5.02118 86.1571
5.19981 368.196
5.37848 193.695
5.55716 100.37
5.73586 91.6462
5.91455 93.7619
6.09328 4678.52
6.27201 78.735
6.45075 69.4541
6.62952 62.4691
6.8083 58.8408
6.98711 55.0851
7.16591 55.9754
7.34475 66.0395
7.5236 53.4858
7.70247 56.2562
7.88135 56.6887
8.06026 61.8974
8.23919 68.4756
8.41812 82.4195
8.59709 1205.55
8.77609 95.8095
8.9551 88.959
9.13412 82.0743
9.31318 84.0124
9.49226 83.5906
9.67134 94.6732
9.85047 100.581
10.0296 327.741
10.2088 326.937
10.388 103.277
10.5672 543.34
10.7465 84.753
10.9257 76.7044
11.105 70.2603
11.2844 67.2823
11.4637 63.8304
11.6431 62.19
11.8225 61.6483
12.002 63.3191
12.1814 160.279
12.3609 65.6044
12.5405 64.1673
12.72 66.8579
12.8996 70.5747
13.0792 79.2594
13.2589 245.436
13.4386 114.566
13.6183 258.384
13.7981 91.9827
13.9779 74.5001
14.1577 70.6289
14.3376 69.1207
14.5175 67.6112
14.6974 69.371
14.8774 110.209
15.0574 137.968
15.2374 68.3288
15.4175 65.312
15.5976 64.8628
15.7778 93.7969
15.958 146.394
16.1382 60.4512
16.3185 56.9877
16.4988 54.49
16.6792 53.4128
16.8596 54.047
17.04 55.0089
17.2205 66.0707
17.401 67.6726
17.5815 58.2153
17.7622 60.2537
17.9428 72.2889
18.1237 140.523
18.3044 90.618
18.4852 72.8577
18.666 59.2018
18.8469 56.8621
19.0278 55.8839
19.2088 58.1596
19.3898 74.8675
19.5709 52.9388
19.752 52.2514
19.9332 55.3367
20.1144 69.7148
20.2957 64.3349
20.477 51.6463
20.6586 48.8187
20.84 47.9888
21.0215 47.7656
21.203 50.2447
21.3846 47.8524
21.5662 48.2334
21.7479 51.7645
21.9297 64.2112
22.1115 55.4603
22.2933 48.5994
22.4753 47.845
22.6572 48.032
22.8393 51.3343
23.0214 56.2566
23.2037 47.9756
23.3859 48.9175
23.5682 57.0141
23.7505 46.964
23.9329 44.547
24.1154 43.3812
24.2979 42.7353
24.4805 42.3716
24.6631 42.0578
24.8458 41.4647
25.0286 42.1106
25.2114 43.9403
25.3943 43.8578
25.5773 40.1534
25.7605 39.7615
25.9436 40.2163
26.1268 41.1597
26.31 39.3282
26.4933 40.0887
26.6767 41.5882
26.8601 39.7452
27.0437 38.2628
27.2272 37.8196
27.4109 37.7111
27.5946 37.7974
27.7784 37.2873
27.9623 37.8706
28.1462 38.1661
28.3304 36.5231
28.5145 35.3016
28.6987 35.0643
28.8829 34.8805
29.0673 34.0957
29.2517 33.76
29.4361 33.536
29.6207 32.5936
29.8053 32.3284
29.99 32.0523
30.1748 31.9305
30.3597 31.7202
30.5447 31.6892
30.7297 31.7138
30.915 31.091
31.1002 30.7157
31.2855 30.458
31.4708 30.3671
31.6563 29.8428
31.8418 29.6665
32.0275 29.4296
32.2132 28.9349
32.399 28.4844
32.5848 27.9943
32.7708 27.7106
32.9569 27.5585
33.143 27.3302
33.3293 26.9367
33.5158 26.5222
33.7022 26.12
33.8887 25.833
34.0753 25.5362
34.262 25.22
34.4488 24.8936
34.6357 24.5194
34.8227 24.2513
35.0098 24.0513
35.1969 23.7734
35.3842 23.6121
35.5716 23.3866
35.759 23.0798
35.9468 22.7487
36.1345 22.4943
36.3222 22.337
36.5101 22.1085
36.6981 21.7655
36.8861 21.4538
37.0743 21.1505
37.2626 20.9054
37.451 20.6098
37.6395 20.5041
37.8281 20.1997
38.0168 19.9396
38.2056 19.6442
38.3945 19.3496
38.5837 19.1909
38.7728 18.8981
38.9621 18.6256
39.1514 18.4267
39.3409 18.1794
39.5304 17.9541
39.7201 17.7201
39.9099 17.5601
40.0999 17.3174
40.2899 17.0619
40.48 16.8721
40.6703 16.6912
40.8607 16.4781
41.0512 16.1966
41.242 15.9747
41.4327 15.7542
41.6236 15.6111
41.8146 15.3758
42.0057 15.1619
42.1969 15.0093
42.3882 14.7857
42.5797 14.5572
42.7713 14.3616
42.963 14.1498
43.1549 13.9986
43.3468 13.7205
43.5389 13.5604
43.7312 13.3991
43.9237 13.1831
44.1162 13.0059
44.3088 12.8282
44.5016 12.6627
44.6945 12.4858
44.8875 12.332
45.0806 12.2238
45.2739 12.0148
45.4673 11.8413
45.6609 11.6264
45.8546 11.5207
46.0484 11.3141
46.2424 11.1285
46.4365 10.9765
46.631 10.831
46.8254 10.6845
47.0199 10.5584
47.2146 10.4175
47.4095 10.1865
47.6044 10.0609
47.7996 9.90711
47.9948 9.7404
48.1902 9.62224
48.3858 9.4894
48.5815 9.3632
48.7774 9.24471
48.9734 9.07304
49.1696 8.94668
49.3661 8.8019
49.5626 8.64387
49.7592 8.56719
49.956 8.4123
50.153 8.24955
50.3501 8.13652
50.5474 8.03647
50.7448 7.9171
50.9424 7.80423
51.1402 7.68664
51.3381 7.53817
51.5362 7.41926
51.7344 7.30578
51.9328 7.18839
52.1316 7.09221
52.3304 6.93406
52.5293 6.84074
52.7284 6.70445
52.9276 6.61008
53.1271 6.5285
53.3267 6.35208
53.5265 6.26308
53.7264 6.18973
53.9266 6.06797
54.1269 5.92689
54.3274 5.81816
54.528 5.70968
54.7289 5.54846
54.9301 5.37973
55.1314 5.27695
55.3328 5.05428
55.5344 4.86805
55.7361 4.73028