File: XRD/Ni3Fe_FD1038.xy
TT I
1.27165 6.85929
1.45013 5.52288
1.62863 4.8432
1.80712 4.27057
1.98562 4.49696
2.16411 4.5448
2.34263 5.5227
2.52115 7.47724
2.69965 8.51431
2.87818 8.46524
3.05672 11.435
3.23527 15.1321
3.4138 18.0675
3.59237 21.1743
3.77094 24.4724
3.9495 28.2247
4.12809 32.4053
4.30669 56.8517
4.4853 46.2805
4.6639 52.903
4.84253 63.8104
5.02118 82.614
5.19981 231.752
5.37848 216.546
5.55716 97.3105
5.73586 87.8474
5.91455 88.5217
6.09328 4604.29
6.27201 75.6034
6.45075 63.349
6.62952 57.7945
6.8083 54.283
6.98711 52.2781
7.16591 51.1494
7.34475 55.772
7.5236 59.8128
7.70247 52.5785
7.88135 54.9908
8.06026 58.8731
8.23919 65.6446
8.41812 77.7529
8.59709 1075.38
8.77609 94.6219
8.9551 82.3627
9.13412 79.1017
9.31318 90.5763
9.49226 81.1371
9.67134 86.7238
9.85047 93.5494
10.0296 343.36
10.2088 438.334
10.388 97.5716
10.5672 505.374
10.7465 86.9047
10.9257 73.1789
11.105 68.2128
11.2844 64.7608
11.4637 61.766
11.6431 60.4529
11.8225 59.4267
12.002 67.2051
12.1814 147.159
12.3609 64.5249
12.5405 61.2787
12.72 64.1611
12.8996 67.5765
13.0792 76.7741
13.2589 226.496
13.4386 126.795
13.6183 235.39
13.7981 100.225
13.9779 73.3931
14.1577 75.9515
14.3376 67.177
14.5175 66.3492
14.6974 67.3487
14.8774 108.71
15.0574 160.479
15.2374 66.4887
15.4175 64.0945
15.5976 62.9967
15.7778 93.4578
15.958 167.087
16.1382 59.7023
16.3185 55.4047
16.4988 53.3054
16.6792 52.3514
16.8596 52.9641
17.04 53.8243
17.2205 64.4707
17.401 71.5366
17.5815 57.2099
17.7622 59.8054
17.9428 72.7432
18.1237 142.062
18.3044 88.5306
18.4852 78.8401
18.666 58.7159
18.8469 56.308
19.0278 54.9136
19.2088 57.8723
19.3898 76.0122
19.5709 52.907
19.752 51.6136
19.9332 54.8314
20.1144 70.1479
20.2957 63.4443
20.477 52.6665
20.6586 48.2569
20.84 47.7194
21.0215 47.1064
21.203 49.4787
21.3846 47.7772
21.5662 47.4057
21.7479 51.6128
21.9297 65.1302
22.1115 55.6115
22.2933 49.0844
22.4753 47.4515
22.6572 47.5763
22.8393 50.9006
23.0214 57.3638
23.2037 47.763
23.3859 49.1517
23.5682 57.1326
23.7505 48.0039
23.9329 44.1803
24.1154 43.0979
24.2979 42.2559
24.4805 41.8248
24.6631 41.8795
24.8458 41.1542
25.0286 41.9808
25.2114 44.0945
25.3943 44.1885
25.5773 40.0231
25.7605 39.5018
25.9436 40.077
26.1268 41.1351
26.31 39.2256
26.4933 39.949
26.6767 41.8521
26.8601 39.8869
27.0437 38.1675
27.2272 37.8052
27.4109 37.6125
27.5946 37.7956
27.7784 37.2136
27.9623 37.9472
28.1462 38.555
28.3304 36.7457
28.5145 35.1767
28.6987 34.974
28.8829 34.768
29.0673 33.9739
29.2517 33.78
29.4361 33.5556
29.6207 32.4957
29.8053 32.1789
29.99 32.0293
30.1748 31.8128
30.3597 31.709
30.5447 31.5485
30.7297 31.7918
30.915 31.1268
31.1002 30.6697
31.2855 30.2675
31.4708 30.4667
31.6563 29.8726
31.8418 29.6598
32.0275 29.4102
32.2132 28.9783
32.399 28.4306
32.5848 27.8668
32.7708 27.6629
32.9569 27.4999
33.143 27.3857
33.3293 26.9815
33.5158 26.5812
33.7022 26.0572
33.8887 25.8794
34.0753 25.5319
34.262 25.1455
34.4488 24.7567
34.6357 24.4123
34.8227 24.2182
35.0098 24.0547
35.1969 23.8259
35.3842 23.5316
35.5716 23.4919
35.759 23.0896
35.9468 22.7584
36.1345 22.5172
36.3222 22.2729
36.5101 22.0027
36.6981 21.7995
36.8861 21.4667
37.0743 21.1785
37.2626 20.8996
37.451 20.6441
37.6395 20.5026
37.8281 20.1825
38.0168 19.8882
38.2056 19.5698
38.3945 19.2762
38.5837 19.1191
38.7728 18.92
38.9621 18.6712
39.1514 18.3965
39.3409 18.071
39.5304 17.9204
39.7201 17.7796
39.9099 17.539
40.0999 17.291
40.2899 17.0032
40.48 16.8905
40.6703 16.646
40.8607 16.5097
41.0512 16.2542
41.242 15.9274
41.4327 15.7456
41.6236 15.5948
41.8146 15.381
42.0057 15.1796
42.1969 14.9778
42.3882 14.768
42.5797 14.5409
42.7713 14.3492
42.963 14.1716
43.1549 14.0104
43.3468 13.7583
43.5389 13.6533
43.7312 13.4036
43.9237 13.2288
44.1162 13.0049
44.3088 12.8134
44.5016 12.6778
44.6945 12.4965
44.8875 12.3286
45.0806 12.1332
45.2739 11.9993
45.4673 11.8437
45.6609 11.6593
45.8546 11.4763
46.0484 11.3284
46.2424 11.1584
46.4365 10.988
46.631 10.8392
46.8254 10.6986
47.0199 10.5404
47.2146 10.3838
47.4095 10.2228
47.6044 10.0738
47.7996 9.9291
47.9948 9.77298
48.1902 9.63584
48.3858 9.50205
48.5815 9.34471
48.7774 9.22697
48.9734 9.0601
49.1696 8.94629
49.3661 8.79338
49.5626 8.65724
49.7592 8.53449
49.956 8.40453
50.153 8.29356
50.3501 8.14307
50.5474 8.06072
50.7448 7.92767
50.9424 7.80934
51.1402 7.70524
51.3381 7.54178
51.5362 7.38745
51.7344 7.31185
51.9328 7.1258
52.1316 7.05152
52.3304 6.98147
52.5293 6.81048
52.7284 6.69613
52.9276 6.57083
53.1271 6.52278
53.3267 6.39554
53.5265 6.22904
53.7264 6.17877
53.9266 6.08166
54.1269 5.98412
54.3274 5.78266
54.528 5.69335
54.7289 5.58146
54.9301 5.40555
55.1314 5.23888
55.3328 5.06837
55.5344 4.84028
55.7361 4.7093