File: XRD/Ni3Fe_FD0943.xy
TT I
1.27165 7.37679
1.45013 6.48075
1.62863 5.0952
1.80712 4.73732
1.98562 4.82146
2.16411 5.19988
2.34263 5.93382
2.52115 7.72531
2.69965 8.30103
2.87818 8.97411
3.05672 11.2839
3.23527 15.3554
3.4138 18.7135
3.59237 23.1761
3.77094 25.5533
3.9495 29.1454
4.12809 33.8266
4.30669 85.5286
4.4853 51.5425
4.6639 54.9866
4.84253 68.3977
5.02118 86.6801
5.19981 373.267
5.37848 197.48
5.55716 101.569
5.73586 91.9194
5.91455 93.6282
6.09328 4685.79
6.27201 78.4506
6.45075 70.4338
6.62952 62.7195
6.8083 59.624
6.98711 55.0233
7.16591 56.4846
7.34475 63.2628
7.5236 53.5034
7.70247 56.511
7.88135 56.8963
8.06026 62.0555
8.23919 68.4772
8.41812 82.4934
8.59709 1209.7
8.77609 95.9945
8.9551 88.9709
9.13412 82.6303
9.31318 84.997
9.49226 83.9362
9.67134 94.2019
9.85047 101.38
10.0296 332.305
10.2088 320.347
10.388 103.435
10.5672 556.205
10.7465 84.8641
10.9257 77.0047
11.105 70.5945
11.2844 67.1868
11.4637 63.8347
11.6431 62.6336
11.8225 61.9353
12.002 63.688
12.1814 160.424
12.3609 65.0778
12.5405 64.3202
12.72 67.073
12.8996 70.7838
13.0792 79.4616
13.2589 248.472
13.4386 113.71
13.6183 260.469
13.7981 91.3423
13.9779 74.6629
14.1577 70.7494
14.3376 68.805
14.5175 67.9286
14.6974 69.5482
14.8774 110.98
15.0574 134.562
15.2374 68.1092
15.4175 65.2739
15.5976 65.0897
15.7778 94.3189
15.958 143.505
16.1382 60.213
16.3185 56.9562
16.4988 54.5395
16.6792 53.6831
16.8596 54.1053
17.04 55.0145
17.2205 66.1094
17.401 67.5183
17.5815 58.2843
17.7622 60.2028
17.9428 72.3513
18.1237 140.388
18.3044 91.2768
18.4852 72.5252
18.666 59.3884
18.8469 57.0455
19.0278 55.8953
19.2088 58.0692
19.3898 74.709
19.5709 53.036
19.752 52.4442
19.9332 55.3377
20.1144 69.5673
20.2957 64.2096
20.477 51.7711
20.6586 48.8242
20.84 48.0019
21.0215 47.6726
21.203 50.2376
21.3846 48.1618
21.5662 48.1817
21.7479 51.9559
21.9297 63.9674
22.1115 55.339
22.2933 48.8406
22.4753 47.8108
22.6572 48.1467
22.8393 51.2123
23.0214 55.9378
23.2037 47.7512
23.3859 49.0616
23.5682 57.0418
23.7505 47.0803
23.9329 44.4488
24.1154 43.2366
24.2979 42.657
24.4805 42.3395
24.6631 42.1197
24.8458 41.4323
25.0286 42.2432
25.2114 43.9822
25.3943 43.7478
25.5773 40.1866
25.7605 39.7486
25.9436 40.212
26.1268 41.1619
26.31 39.481
26.4933 40.0995
26.6767 41.4921
26.8601 39.7784
27.0437 38.1964
27.2272 37.9578
27.4109 37.7722
27.5946 37.7967
27.7784 37.2129
27.9623 37.9296
28.1462 38.2559
28.3304 36.4731
28.5145 35.3613
28.6987 34.9072
28.8829 34.8243
29.0673 34.0475
29.2517 33.7754
29.4361 33.5615
29.6207 32.5145
29.8053 32.2917
29.99 32.0065
30.1748 31.9268
30.3597 31.7383
30.5447 31.6883
30.7297 31.6598
30.915 31.0742
31.1002 30.6071
31.2855 30.318
31.4708 30.2063
31.6563 29.9351
31.8418 29.6597
32.0275 29.4176
32.2132 28.8561
32.399 28.4805
32.5848 28.0553
32.7708 27.6994
32.9569 27.5488
33.143 27.3302
33.3293 27.1006
33.5158 26.5736
33.7022 26.1904
33.8887 25.9746
34.0753 25.4942
34.262 25.2518
34.4488 24.8544
34.6357 24.5509
34.8227 24.2525
35.0098 24.1009
35.1969 23.7502
35.3842 23.5422
35.5716 23.4032
35.759 23.1241
35.9468 22.7203
36.1345 22.3717
36.3222 22.2684
36.5101 22.0965
36.6981 21.7319
36.8861 21.5171
37.0743 21.1591
37.2626 20.9253
37.451 20.6015
37.6395 20.4904
37.8281 20.0965
38.0168 19.9158
38.2056 19.6053
38.3945 19.3208
38.5837 19.0665
38.7728 18.8501
38.9621 18.6542
39.1514 18.3418
39.3409 18.1593
39.5304 17.937
39.7201 17.733
39.9099 17.569
40.0999 17.3074
40.2899 17.1427
40.48 16.8302
40.6703 16.6437
40.8607 16.4447
41.0512 16.2697
41.242 16.0308
41.4327 15.801
41.6236 15.5325
41.8146 15.3801
42.0057 15.1713
42.1969 14.9174
42.3882 14.7472
42.5797 14.5573
42.7713 14.3312
42.963 14.1584
43.1549 14.0364
43.3468 13.737
43.5389 13.5744
43.7312 13.4021
43.9237 13.2376
44.1162 13.0386
44.3088 12.8078
44.5016 12.6663
44.6945 12.5218
44.8875 12.3534
45.0806 12.1419
45.2739 11.9992
45.4673 11.8716
45.6609 11.6591
45.8546 11.4906
46.0484 11.3199
46.2424 11.1651
46.4365 11.0525
46.631 10.8374
46.8254 10.6377
47.0199 10.5022
47.2146 10.3783
47.4095 10.1894
47.6044 10.0875
47.7996 9.87124
47.9948 9.76799
48.1902 9.65577
48.3858 9.46639
48.5815 9.36245
48.7774 9.22156
48.9734 9.07792
49.1696 8.97922
49.3661 8.80029
49.5626 8.68184
49.7592 8.54264
49.956 8.4217
50.153 8.29164
50.3501 8.16457
50.5474 8.04714
50.7448 7.90688
50.9424 7.78519
51.1402 7.67363
51.3381 7.53579
51.5362 7.45194
51.7344 7.3033
51.9328 7.19387
52.1316 7.04838
52.3304 6.93759
52.5293 6.82853
52.7284 6.73436
52.9276 6.62806
53.1271 6.5274
53.3267 6.37092
53.5265 6.24738
53.7264 6.14843
53.9266 6.07474
54.1269 5.92659
54.3274 5.8168
54.528 5.7057
54.7289 5.54892
54.9301 5.36709
55.1314 5.26223
55.3328 5.06535
55.5344 4.8545
55.7361 4.73854