File: XRD/Ni3Fe_FD0940.xy
TT I
1.27165 7.21916
1.45013 5.82943
1.62863 5.7506
1.80712 4.6756
1.98562 4.39906
2.16411 4.36541
2.34263 5.01522
2.52115 7.55552
2.69965 8.14158
2.87818 10.0299
3.05672 10.788
3.23527 15.3588
3.4138 18.5921
3.59237 22.7772
3.77094 25.5312
3.9495 28.8431
4.12809 33.524
4.30669 88.3436
4.4853 51.695
4.6639 54.7681
4.84253 68.4705
5.02118 86.0515
5.19981 372.054
5.37848 197.888
5.55716 101.212
5.73586 92.0822
5.91455 94.3442
6.09328 4689.62
6.27201 78.4559
6.45075 69.8357
6.62952 62.3381
6.8083 59.0041
6.98711 54.8823
7.16591 55.7503
7.34475 63.7733
7.5236 53.3653
7.70247 56.3315
7.88135 57.1482
8.06026 61.9276
8.23919 68.4451
8.41812 82.3294
8.59709 1200.62
8.77609 95.5056
8.9551 89.2481
9.13412 82.3337
9.31318 84.5545
9.49226 83.8426
9.67134 94.7361
9.85047 100.695
10.0296 330.575
10.2088 325.789
10.388 103.367
10.5672 549.712
10.7465 84.3985
10.9257 76.9943
11.105 70.4656
11.2844 67.2612
11.4637 63.6263
11.6431 62.639
11.8225 62.0516
12.002 63.4712
12.1814 159.968
12.3609 65.1363
12.5405 64.2746
12.72 66.7386
12.8996 70.38
13.0792 79.2628
13.2589 246.919
13.4386 114.082
13.6183 260.192
13.7981 91.6535
13.9779 74.5222
14.1577 70.6578
14.3376 68.8845
14.5175 67.5555
14.6974 69.6991
14.8774 110.553
15.0574 136.384
15.2374 68.2492
15.4175 65.2263
15.5976 64.8591
15.7778 93.8625
15.958 145.162
16.1382 60.3067
16.3185 56.8293
16.4988 54.3984
16.6792 53.4908
16.8596 53.6666
17.04 55.1031
17.2205 66.0449
17.401 67.7614
17.5815 58.1949
17.7622 60.215
17.9428 72.4692
18.1237 141.015
18.3044 90.8042
18.4852 73.0374
18.666 59.2949
18.8469 57.1084
19.0278 55.6236
19.2088 58.0373
19.3898 74.9917
19.5709 53.0826
19.752 52.4693
19.9332 55.446
20.1144 69.211
20.2957 64.2436
20.477 51.836
20.6586 48.7705
20.84 47.9875
21.0215 47.6972
21.203 50.27
21.3846 47.9691
21.5662 48.3056
21.7479 51.9296
21.9297 64.0603
22.1115 55.531
22.2933 48.6681
22.4753 47.904
22.6572 48.0622
22.8393 51.2762
23.0214 56.1448
23.2037 47.9626
23.3859 48.7754
23.5682 57.1237
23.7505 46.955
23.9329 44.5287
24.1154 43.3184
24.2979 42.711
24.4805 42.2228
24.6631 42.1446
24.8458 41.5243
25.0286 42.0973
25.2114 43.9273
25.3943 43.7766
25.5773 40.255
25.7605 39.7193
25.9436 40.2249
26.1268 41.1292
26.31 39.3025
26.4933 40.166
26.6767 41.6079
26.8601 39.8296
27.0437 38.1977
27.2272 37.8432
27.4109 37.6666
27.5946 37.7568
27.7784 37.1399
27.9623 37.9176
28.1462 38.0615
28.3304 36.5213
28.5145 35.3065
28.6987 34.9168
28.8829 34.8371
29.0673 34.0982
29.2517 33.8362
29.4361 33.5568
29.6207 32.5695
29.8053 32.3192
29.99 31.9731
30.1748 32.0014
30.3597 31.7194
30.5447 31.6414
30.7297 31.7212
30.915 31.1375
31.1002 30.5595
31.2855 30.3664
31.4708 30.3613
31.6563 29.816
31.8418 29.6651
32.0275 29.4634
32.2132 28.8231
32.399 28.4057
32.5848 27.9677
32.7708 27.609
32.9569 27.5245
33.143 27.3281
33.3293 26.9032
33.5158 26.5452
33.7022 26.12
33.8887 25.8455
34.0753 25.5434
34.262 25.1631
34.4488 24.7841
34.6357 24.566
34.8227 24.2741
35.0098 24.0647
35.1969 23.7947
35.3842 23.6149
35.5716 23.3935
35.759 23.1369
35.9468 22.6997
36.1345 22.4922
36.3222 22.3372
36.5101 22.0264
36.6981 21.766
36.8861 21.4021
37.0743 21.1148
37.2626 20.9336
37.451 20.6379
37.6395 20.4329
37.8281 20.0751
38.0168 19.9129
38.2056 19.5876
38.3945 19.371
38.5837 19.1416
38.7728 18.841
38.9621 18.6334
39.1514 18.358
39.3409 18.1074
39.5304 17.933
39.7201 17.7892
39.9099 17.5629
40.0999 17.3198
40.2899 17.0778
40.48 16.7743
40.6703 16.5974
40.8607 16.459
41.0512 16.2787
41.242 15.9606
41.4327 15.792
41.6236 15.5073
41.8146 15.3336
42.0057 15.1581
42.1969 14.9424
42.3882 14.7796
42.5797 14.5874
42.7713 14.3834
42.963 14.1505
43.1549 13.9774
43.3468 13.8072
43.5389 13.6153
43.7312 13.4158
43.9237 13.2793
44.1162 13.0482
44.3088 12.8507
44.5016 12.6347
44.6945 12.548
44.8875 12.3752
45.0806 12.1772
45.2739 12.0321
45.4673 11.8496
45.6609 11.6257
45.8546 11.493
46.0484 11.3231
46.2424 11.193
46.4365 11.0029
46.631 10.8631
46.8254 10.6733
47.0199 10.5294
47.2146 10.4054
47.4095 10.1899
47.6044 10.044
47.7996 9.92407
47.9948 9.78483
48.1902 9.65665
48.3858 9.48228
48.5815 9.35331
48.7774 9.22579
48.9734 9.0831
49.1696 8.96901
49.3661 8.80285
49.5626 8.65856
49.7592 8.5644
49.956 8.42321
50.153 8.26043
50.3501 8.14537
50.5474 7.99877
50.7448 7.92477
50.9424 7.80352
51.1402 7.65866
51.3381 7.57371
51.5362 7.42486
51.7344 7.32332
51.9328 7.20511
52.1316 7.00432
52.3304 6.95181
52.5293 6.83767
52.7284 6.74006
52.9276 6.612
53.1271 6.48435
53.3267 6.39499
53.5265 6.28213
53.7264 6.21363
53.9266 6.04283
54.1269 5.98075
54.3274 5.86219
54.528 5.75158
54.7289 5.58964
54.9301 5.41878
55.1314 5.28294
55.3328 5.04877
55.5344 4.86716
55.7361 4.7691