File: XRD/Ni3Fe_FD0343.xy
TT I
1.27165 8.04941
1.45013 6.69493
1.62863 5.18848
1.80712 5.20928
1.98562 4.96397
2.16411 4.95038
2.34263 5.12505
2.52115 5.8765
2.69965 7.77821
2.87818 9.18778
3.05672 11.0131
3.23527 14.7893
3.4138 19.2869
3.59237 23.5328
3.77094 26.1853
3.9495 30.2902
4.12809 35.5863
4.30669 142.987
4.4853 59.0826
4.6639 57.2998
4.84253 69.6536
5.02118 91.9261
5.19981 589.709
5.37848 227.325
5.55716 106.706
5.73586 96.7326
5.91455 101.639
6.09328 4044.11
6.27201 85.949
6.45075 69.5519
6.62952 63.8472
6.8083 59.527
6.98711 56.7818
7.16591 56.6077
7.34475 77.2666
7.5236 55.5863
7.70247 57.3855
7.88135 59.4494
8.06026 64.1876
8.23919 72.0877
8.41812 88.3524
8.59709 1174.06
8.77609 104.349
8.9551 91.7806
9.13412 84.568
9.31318 86.0102
9.49226 87.3667
9.67134 98.2566
9.85047 103.809
10.0296 437.74
10.2088 478.731
10.388 110.241
10.5672 486.949
10.7465 89.4852
10.9257 80.2011
11.105 73.5701
11.2844 71.2188
11.4637 66.5359
11.6431 65.2211
11.8225 64.257
12.002 66.3205
12.1814 149.978
12.3609 70.8451
12.5405 66.0878
12.72 70.6264
12.8996 73.0616
13.0792 82.9091
13.2589 246.65
13.4386 132.966
13.6183 244.133
13.7981 102.557
13.9779 78.0604
14.1577 74.2191
14.3376 72.9024
14.5175 71.1358
14.6974 72.8539
14.8774 119.693
15.0574 155.242
15.2374 72.1607
15.4175 68.373
15.5976 68.1928
15.7778 102.842
15.958 163.821
16.1382 63.8539
16.3185 59.9373
16.4988 57.0844
16.6792 56.0943
16.8596 56.6644
17.04 57.9999
17.2205 69.0634
17.401 73.912
17.5815 61.2128
17.7622 63.3141
17.9428 78.8953
18.1237 139.669
18.3044 91.9635
18.4852 80.113
18.666 62.1934
18.8469 59.7375
19.0278 58.5734
19.2088 61.9393
19.3898 76.8396
19.5709 55.9162
19.752 55.0158
19.9332 58.5179
20.1144 71.32
20.2957 64.3952
20.477 55.1749
20.6586 51.1134
20.84 50.2586
21.0215 50.1592
21.203 51.8534
21.3846 50.5897
21.5662 50.6724
21.7479 54.6728
21.9297 66.1936
22.1115 57.1567
22.2933 51.4998
22.4753 50.1729
22.6572 50.5894
22.8393 53.6964
23.0214 58.934
23.2037 50.46
23.3859 51.5051
23.5682 57.6999
23.7505 49.8092
23.9329 46.618
24.1154 45.5063
24.2979 44.8002
24.4805 44.2106
24.6631 44.0483
24.8458 43.6127
25.0286 44.2999
25.2114 46.0386
25.3943 45.8855
25.5773 42.144
25.7605 41.752
25.9436 42.176
26.1268 42.858
26.31 41.3408
26.4933 41.985
26.6767 43.3138
26.8601 41.4715
27.0437 40.0079
27.2272 39.7107
27.4109 39.6136
27.5946 39.5523
27.7784 39.0854
27.9623 39.4024
28.1462 39.9595
28.3304 38.3284
28.5145 36.9504
28.6987 36.5488
28.8829 36.4471
29.0673 35.7124
29.2517 35.3759
29.4361 35.0818
29.6207 34.1195
29.8053 33.8436
29.99 33.5117
30.1748 33.3352
30.3597 33.2387
30.5447 33.0903
30.7297 33.1838
30.915 32.5975
31.1002 32.0323
31.2855 31.7589
31.4708 31.7939
31.6563 31.23
31.8418 31.0418
32.0275 30.7758
32.2132 30.1963
32.399 29.8114
32.5848 29.3704
32.7708 28.8683
32.9569 28.8294
33.143 28.6053
33.3293 28.1473
33.5158 27.7566
33.7022 27.2874
33.8887 27.037
34.0753 26.7429
34.262 26.3917
34.4488 26.1464
34.6357 25.7147
34.8227 25.3347
35.0098 25.173
35.1969 24.8308
35.3842 24.7177
35.5716 24.39
35.759 24.1633
35.9468 23.7714
36.1345 23.6052
36.3222 23.2954
36.5101 23.0347
36.6981 22.7213
36.8861 22.4226
37.0743 22.1472
37.2626 21.8749
37.451 21.6243
37.6395 21.4968
37.8281 21.06
38.0168 20.7927
38.2056 20.5123
38.3945 20.2929
38.5837 20.0275
38.7728 19.7727
38.9621 19.5329
39.1514 19.2541
39.3409 19.0169
39.5304 18.8126
39.7201 18.6284
39.9099 18.3239
40.0999 18.1267
40.2899 17.837
40.48 17.6608
40.6703 17.4449
40.8607 17.1845
41.0512 17.0099
41.242 16.7736
41.4327 16.5115
41.6236 16.2657
41.8146 16.075
42.0057 15.8304
42.1969 15.6634
42.3882 15.4703
42.5797 15.2368
42.7713 15.0232
42.963 14.8082
43.1549 14.6017
43.3468 14.3868
43.5389 14.2275
43.7312 14.0136
43.9237 13.7854
44.1162 13.6016
44.3088 13.4708
44.5016 13.2487
44.6945 13.1047
44.8875 12.8719
45.0806 12.7189
45.2739 12.5366
45.4673 12.3725
45.6609 12.1687
45.8546 12.022
46.0484 11.886
46.2424 11.6798
46.4365 11.5377
46.631 11.327
46.8254 11.1375
47.0199 10.9962
47.2146 10.8398
47.4095 10.6519
47.6044 10.4897
47.7996 10.3399
47.9948 10.1997
48.1902 10.0937
48.3858 9.90428
48.5815 9.77231
48.7774 9.61127
48.9734 9.48879
49.1696 9.33787
49.3661 9.19583
49.5626 9.08732
49.7592 8.92479
49.956 8.8286
50.153 8.6522
50.3501 8.52573
50.5474 8.40461
50.7448 8.2879
50.9424 8.13739
51.1402 8.02555
51.3381 7.91815
51.5362 7.77603
51.7344 7.64971
51.9328 7.45084
52.1316 7.36965
52.3304 7.30078
52.5293 7.16458
52.7284 7.01944
52.9276 6.90113
53.1271 6.84083
53.3267 6.6707
53.5265 6.59565
53.7264 6.45172
53.9266 6.31031
54.1269 6.19208
54.3274 6.06035
54.528 5.8971
54.7289 5.76972
54.9301 5.64128
55.1314 5.51133
55.3328 5.29481
55.5344 5.08335
55.7361 4.96307