File: XRD/Ni3Fe_FD0979.xy
TT I
1.27165 7.24715
1.45013 5.877
1.62863 5.12519
1.80712 5.26044
1.98562 4.74331
2.16411 4.81368
2.34263 5.70592
2.52115 7.80982
2.69965 8.49531
2.87818 9.20309
3.05672 11.1998
3.23527 14.9346
3.4138 18.9989
3.59237 23.9276
3.77094 25.7148
3.9495 29.7665
4.12809 34.6271
4.30669 224.41
4.4853 65.747
4.6639 54.6713
4.84253 65.7454
5.02118 83.8245
5.19981 273.869
5.37848 172.836
5.55716 100.077
5.73586 90.1145
5.91455 90.5249
6.09328 4602.52
6.27201 80.6093
6.45075 66.042
6.62952 61.7776
6.8083 58.1697
6.98711 55.242
7.16591 54.8385
7.34475 92.0043
7.5236 54.1024
7.70247 55.3468
7.88135 57.1187
8.06026 61.124
8.23919 68.2244
8.41812 83.1125
8.59709 1127.0
8.77609 96.5735
8.9551 90.1773
9.13412 80.5474
9.31318 81.049
9.49226 83.0739
9.67134 96.8845
9.85047 98.0378
10.0296 295.283
10.2088 364.591
10.388 101.913
10.5672 525.863
10.7465 85.0448
10.9257 76.8973
11.105 70.6807
11.2844 69.3175
11.4637 63.6917
11.6431 62.447
11.8225 61.0185
12.002 61.9447
12.1814 155.016
12.3609 69.5753
12.5405 63.5001
12.72 68.9289
12.8996 69.374
13.0792 76.8302
13.2589 231.403
13.4386 119.408
13.6183 244.041
13.7981 94.7548
13.9779 74.5199
14.1577 71.0559
14.3376 70.398
14.5175 67.3095
14.6974 68.9088
14.8774 104.791
15.0574 147.143
15.2374 69.8002
15.4175 65.0063
15.5976 64.1571
15.7778 89.9578
15.958 151.42
16.1382 61.589
16.3185 57.591
16.4988 54.3984
16.6792 53.5939
16.8596 54.1015
17.04 54.529
17.2205 64.8196
17.401 68.7352
17.5815 57.6781
17.7622 59.6775
17.9428 70.633
18.1237 138.501
18.3044 88.9332
18.4852 75.5267
18.666 59.2387
18.8469 56.8135
19.0278 55.7764
19.2088 57.7979
19.3898 75.5743
19.5709 52.8996
19.752 52.1026
19.9332 54.8525
20.1144 68.8019
20.2957 63.2506
20.477 52.4243
20.6586 48.7166
20.84 47.951
21.0215 47.5179
21.203 49.9216
21.3846 47.8531
21.5662 47.7806
21.7479 51.1535
21.9297 63.5199
22.1115 55.0735
22.2933 48.8922
22.4753 47.969
22.6572 47.7894
22.8393 50.5787
23.0214 56.1059
23.2037 47.6647
23.3859 48.5244
23.5682 56.3574
23.7505 47.4642
23.9329 44.2336
24.1154 43.3163
24.2979 42.594
24.4805 42.0887
24.6631 42.0678
24.8458 41.3322
25.0286 42.0297
25.2114 43.7573
25.3943 43.6486
25.5773 40.0355
25.7605 39.6182
25.9436 39.9211
26.1268 40.9469
26.31 39.27
26.4933 39.8926
26.6767 41.4393
26.8601 39.6649
27.0437 38.1115
27.2272 37.8283
27.4109 37.6351
27.5946 37.5612
27.7784 37.1177
27.9623 37.7059
28.1462 38.0765
28.3304 36.3639
28.5145 35.312
28.6987 34.9466
28.8829 34.7896
29.0673 33.9192
29.2517 33.59
29.4361 33.4047
29.6207 32.416
29.8053 32.2699
29.99 32.0216
30.1748 31.8581
30.3597 31.5783
30.5447 31.4696
30.7297 31.6563
30.915 31.0468
31.1002 30.5752
31.2855 30.2874
31.4708 30.2726
31.6563 29.7991
31.8418 29.5916
32.0275 29.2707
32.2132 28.8345
32.399 28.3516
32.5848 27.8603
32.7708 27.624
32.9569 27.5711
33.143 27.2745
33.3293 26.8157
33.5158 26.5997
33.7022 26.1222
33.8887 25.8191
34.0753 25.4465
34.262 25.1601
34.4488 24.8579
34.6357 24.4618
34.8227 24.1302
35.0098 24.077
35.1969 23.7296
35.3842 23.5285
35.5716 23.3088
35.759 23.0026
35.9468 22.6526
36.1345 22.5026
36.3222 22.2304
36.5101 22.0167
36.6981 21.6838
36.8861 21.4019
37.0743 21.0263
37.2626 20.8343
37.451 20.6145
37.6395 20.4941
37.8281 20.0756
38.0168 19.7997
38.2056 19.5867
38.3945 19.3475
38.5837 19.0802
38.7728 18.8302
38.9621 18.5811
39.1514 18.3235
39.3409 18.1208
39.5304 17.8246
39.7201 17.7245
39.9099 17.5616
40.0999 17.2204
40.2899 17.054
40.48 16.844
40.6703 16.592
40.8607 16.4536
41.0512 16.2209
41.242 15.9549
41.4327 15.7915
41.6236 15.5563
41.8146 15.3994
42.0057 15.171
42.1969 14.9725
42.3882 14.7627
42.5797 14.5644
42.7713 14.3691
42.963 14.1549
43.1549 13.9775
43.3468 13.776
43.5389 13.5618
43.7312 13.3815
43.9237 13.2168
44.1162 13.0445
44.3088 12.8866
44.5016 12.673
44.6945 12.4541
44.8875 12.3709
45.0806 12.1216
45.2739 12.023
45.4673 11.8178
45.6609 11.6048
45.8546 11.5245
46.0484 11.2913
46.2424 11.1425
46.4365 11.0037
46.631 10.8026
46.8254 10.668
47.0199 10.471
47.2146 10.3904
47.4095 10.2174
47.6044 10.0353
47.7996 9.92269
47.9948 9.73288
48.1902 9.64045
48.3858 9.46645
48.5815 9.34475
48.7774 9.2244
48.9734 9.08512
49.1696 8.93726
49.3661 8.80409
49.5626 8.63057
49.7592 8.54298
49.956 8.40618
50.153 8.30692
50.3501 8.15356
50.5474 8.04276
50.7448 7.90265
50.9424 7.78569
51.1402 7.66792
51.3381 7.56854
51.5362 7.39017
51.7344 7.28898
51.9328 7.16167
52.1316 7.0759
52.3304 6.94831
52.5293 6.80605
52.7284 6.73725
52.9276 6.62603
53.1271 6.53174
53.3267 6.38348
53.5265 6.28487
53.7264 6.18011
53.9266 6.07241
54.1269 5.96132
54.3274 5.87267
54.528 5.69652
54.7289 5.54354
54.9301 5.37654
55.1314 5.23003
55.3328 5.07191
55.5344 4.90509
55.7361 4.7275