File: XRD/Ni3Fe_FD0606.xy
TT I
1.27165 7.03096
1.45013 6.22141
1.62863 5.43282
1.80712 5.07337
1.98562 5.12375
2.16411 4.89802
2.34263 5.32682
2.52115 6.84584
2.69965 8.44983
2.87818 8.94706
3.05672 11.0286
3.23527 14.7577
3.4138 19.011
3.59237 23.5362
3.77094 26.2475
3.9495 29.7988
4.12809 35.1029
4.30669 164.592
4.4853 60.6993
4.6639 55.633
4.84253 67.9641
5.02118 87.8756
5.19981 386.784
5.37848 196.891
5.55716 103.589
5.73586 93.0188
5.91455 95.649
6.09328 4272.49
6.27201 83.1128
6.45075 68.0737
6.62952 62.7683
6.8083 59.1102
6.98711 56.1202
7.16591 55.4157
7.34475 81.771
7.5236 54.7544
7.70247 56.4318
7.88135 58.1306
8.06026 62.9924
8.23919 70.4405
8.41812 85.5588
8.59709 1217.73
8.77609 100.902
8.9551 90.8786
9.13412 82.7683
9.31318 83.5423
9.49226 85.3429
9.67134 97.4692
9.85047 100.948
10.0296 363.332
10.2088 419.707
10.388 105.528
10.5672 506.04
10.7465 87.2062
10.9257 78.3373
11.105 72.0558
11.2844 70.2139
11.4637 65.3023
11.6431 64.0516
11.8225 62.8615
12.002 64.2369
12.1814 155.496
12.3609 69.6607
12.5405 65.2118
12.72 69.6282
12.8996 71.7818
13.0792 79.6759
13.2589 249.079
13.4386 129.472
13.6183 251.843
13.7981 100.989
13.9779 76.1002
14.1577 72.8053
14.3376 71.3635
14.5175 69.5478
14.6974 71.0609
14.8774 114.559
15.0574 152.388
15.2374 70.9655
15.4175 66.9997
15.5976 66.214
15.7778 97.6483
15.958 154.685
16.1382 62.7652
16.3185 58.8193
16.4988 55.7998
16.6792 54.9774
16.8596 55.398
17.04 56.2492
17.2205 67.636
17.401 72.8357
17.5815 59.7073
17.7622 61.7718
17.9428 74.997
18.1237 138.154
18.3044 91.8265
18.4852 79.4487
18.666 60.8915
18.8469 58.3672
19.0278 57.287
19.2088 60.0246
19.3898 75.7416
19.5709 54.7708
19.752 53.6283
19.9332 56.8125
20.1144 69.7879
20.2957 63.9383
20.477 54.2934
20.6586 50.0718
20.84 49.3388
21.0215 48.981
21.203 51.085
21.3846 49.3304
21.5662 49.1467
21.7479 53.1891
21.9297 64.6366
22.1115 56.3817
22.2933 50.1389
22.4753 49.2116
22.6572 49.4017
22.8393 52.4905
23.0214 57.4844
23.2037 49.1599
23.3859 50.1085
23.5682 56.9945
23.7505 48.9159
23.9329 45.7265
24.1154 44.2851
24.2979 43.7736
24.4805 43.2854
24.6631 43.1211
24.8458 42.4607
25.0286 43.187
25.2114 44.9456
25.3943 44.8042
25.5773 41.2699
25.7605 40.7413
25.9436 41.2323
26.1268 41.9891
26.31 40.5509
26.4933 41.031
26.6767 42.452
26.8601 40.6648
27.0437 39.2243
27.2272 38.8178
27.4109 38.6778
27.5946 38.6729
27.7784 38.2134
27.9623 38.8029
28.1462 39.1615
28.3304 37.5021
28.5145 36.3368
28.6987 35.8673
28.8829 35.6987
29.0673 34.9129
29.2517 34.6502
29.4361 34.273
29.6207 33.2617
29.8053 33.1892
29.99 32.8382
30.1748 32.6218
30.3597 32.5062
30.5447 32.3736
30.7297 32.4097
30.915 31.902
31.1002 31.4433
31.2855 31.1421
31.4708 31.018
31.6563 30.5795
31.8418 30.2685
32.0275 30.1092
32.2132 29.5881
32.399 29.1817
32.5848 28.6295
32.7708 28.3786
32.9569 28.2161
33.143 28.0656
33.3293 27.6852
33.5158 27.246
33.7022 26.8197
33.8887 26.4566
34.0753 26.177
34.262 25.7465
34.4488 25.5428
34.6357 25.1709
34.8227 24.8213
35.0098 24.6784
35.1969 24.4272
35.3842 24.1438
35.5716 23.898
35.759 23.6077
35.9468 23.3341
36.1345 23.0888
36.3222 22.8232
36.5101 22.5837
36.6981 22.2194
36.8861 21.9316
37.0743 21.6242
37.2626 21.3736
37.451 21.1542
37.6395 20.9424
37.8281 20.5974
38.0168 20.3691
38.2056 20.0628
38.3945 19.8696
38.5837 19.5353
38.7728 19.403
38.9621 19.1727
39.1514 18.8515
39.3409 18.5832
39.5304 18.4048
39.7201 18.2327
39.9099 17.9828
40.0999 17.6605
40.2899 17.4628
40.48 17.2421
40.6703 17.0577
40.8607 16.8385
41.0512 16.6309
41.242 16.3836
41.4327 16.1846
41.6236 15.9364
41.8146 15.7743
42.0057 15.5416
42.1969 15.2796
42.3882 15.16
42.5797 14.9563
42.7713 14.7086
42.963 14.5166
43.1549 14.351
43.3468 14.0627
43.5389 13.9404
43.7312 13.7427
43.9237 13.564
44.1162 13.3459
44.3088 13.1712
44.5016 12.9696
44.6945 12.8193
44.8875 12.6237
45.0806 12.4485
45.2739 12.2615
45.4673 12.0995
45.6609 11.9349
45.8546 11.7656
46.0484 11.5928
46.2424 11.4386
46.4365 11.2899
46.631 11.08
46.8254 10.9378
47.0199 10.809
47.2146 10.6488
47.4095 10.4945
47.6044 10.2996
47.7996 10.1155
47.9948 10.0046
48.1902 9.87449
48.3858 9.73312
48.5815 9.62986
48.7774 9.44833
48.9734 9.31942
49.1696 9.19055
49.3661 9.01214
49.5626 8.86734
49.7592 8.76441
49.956 8.63169
50.153 8.50055
50.3501 8.37958
50.5474 8.24226
50.7448 8.11692
50.9424 7.96869
51.1402 7.85592
51.3381 7.71698
51.5362 7.6128
51.7344 7.44895
51.9328 7.33651
52.1316 7.19531
52.3304 7.11434
52.5293 6.96394
52.7284 6.86483
52.9276 6.77712
53.1271 6.6607
53.3267 6.51572
53.5265 6.42341
53.7264 6.32108
53.9266 6.16957
54.1269 6.13505
54.3274 5.97743
54.528 5.8625
54.7289 5.67248
54.9301 5.49807
55.1314 5.38587
55.3328 5.18555
55.5344 5.00885
55.7361 4.84373