File: XRD/Ni3Fe_FD0173.xy
TT I
1.27165 7.8414
1.45013 6.4914
1.62863 6.31209
1.80712 4.70547
1.98562 4.90467
2.16411 4.77023
2.34263 4.8675
2.52115 4.97018
2.69965 6.22281
2.87818 8.21489
3.05672 11.2389
3.23527 15.755
3.4138 18.6751
3.59237 22.3007
3.77094 25.0357
3.9495 28.5849
4.12809 33.0436
4.30669 38.1228
4.4853 45.4401
4.6639 53.7832
4.84253 66.6818
5.02118 90.5058
5.19981 527.166
5.37848 414.545
5.55716 107.978
5.73586 95.848
5.91455 105.244
6.09328 2867.51
6.27201 88.4263
6.45075 66.4856
6.62952 60.128
6.8083 56.2471
6.98711 53.8516
7.16591 53.0658
7.34475 52.506
7.5236 56.112
7.70247 54.3269
7.88135 56.5813
8.06026 60.9793
8.23919 68.6504
8.41812 84.2781
8.59709 913.403
8.77609 115.94
8.9551 85.5598
9.13412 81.7982
9.31318 86.0667
9.49226 83.7
9.67134 88.9954
9.85047 99.4909
10.0296 537.468
10.2088 943.86
10.388 105.314
10.5672 342.682
10.7465 90.8266
10.9257 76.2251
11.105 70.5108
11.2844 66.4019
11.4637 63.7755
11.6431 62.5415
11.8225 61.5598
12.002 65.3748
12.1814 120.589
12.3609 74.5321
12.5405 63.5616
12.72 65.582
12.8996 70.0812
13.0792 79.5099
13.2589 209.054
13.4386 203.413
13.6183 198.303
13.7981 148.584
13.9779 76.4271
14.1577 74.0597
14.3376 69.4205
14.5175 68.6122
14.6974 70.1014
14.8774 121.91
15.0574 205.232
15.2374 69.2279
15.4175 66.577
15.5976 65.825
15.7778 107.62
15.958 187.026
16.1382 61.8876
16.3185 57.6712
16.4988 55.3063
16.6792 54.2894
16.8596 54.4692
17.04 55.5091
17.2205 65.9991
17.401 81.5115
17.5815 59.2947
17.7622 61.8154
17.9428 83.6871
18.1237 118.052
18.3044 89.0407
18.4852 94.6234
18.666 61.2768
18.8469 58.597
19.0278 57.1227
19.2088 62.0153
19.3898 70.161
19.5709 56.3631
19.752 53.784
19.9332 58.3936
20.1144 67.8058
20.2957 61.751
20.477 59.1341
20.6586 50.0594
20.84 49.382
21.0215 49.4203
21.203 50.1798
21.3846 50.6677
21.5662 49.3213
21.7479 54.435
21.9297 63.0485
22.1115 56.6361
22.2933 52.5628
22.4753 49.1845
22.6572 49.4668
22.8393 52.5867
23.0214 57.8979
23.2037 50.2202
23.3859 52.212
23.5682 54.4108
23.7505 53.4645
23.9329 45.8628
24.1154 44.7249
24.2979 44.0229
24.4805 43.48
24.6631 43.4003
24.8458 42.7485
25.0286 43.4036
25.2114 45.206
25.3943 45.4063
25.5773 42.0672
25.7605 40.9142
25.9436 41.3264
26.1268 42.0966
26.31 41.1583
26.4933 41.2431
26.6767 42.4364
26.8601 41.7111
27.0437 39.8344
27.2272 39.2352
27.4109 39.025
27.5946 39.0591
27.7784 38.8213
27.9623 38.8899
28.1462 39.7667
28.3304 38.2357
28.5145 36.6716
28.6987 36.3278
28.8829 35.9521
29.0673 35.388
29.2517 34.8819
29.4361 34.6233
29.6207 33.8158
29.8053 33.3848
29.99 33.0319
30.1748 32.9032
30.3597 32.8797
30.5447 32.6338
30.7297 32.5864
30.915 32.368
31.1002 31.7183
31.2855 31.3666
31.4708 31.1724
31.6563 31.0892
31.8418 30.6327
32.0275 30.5145
32.2132 30.0406
32.399 29.3836
32.5848 28.9435
32.7708 28.5404
32.9569 28.484
33.143 28.1681
33.3293 27.8618
33.5158 27.5306
33.7022 27.0405
33.8887 26.6306
34.0753 26.5091
34.262 25.9409
34.4488 25.6883
34.6357 25.3533
34.8227 25.0411
35.0098 24.9105
35.1969 24.5307
35.3842 24.3207
35.5716 24.2056
35.759 23.8238
35.9468 23.4344
36.1345 23.2105
36.3222 23.0796
36.5101 22.8036
36.6981 22.4963
36.8861 22.1583
37.0743 21.8674
37.2626 21.5801
37.451 21.313
37.6395 21.1731
37.8281 20.7952
38.0168 20.5522
38.2056 20.2499
38.3945 20.0393
38.5837 19.7779
38.7728 19.519
38.9621 19.196
39.1514 18.9462
39.3409 18.7795
39.5304 18.5542
39.7201 18.4053
39.9099 18.0641
40.0999 17.8117
40.2899 17.6653
40.48 17.447
40.6703 17.2278
40.8607 16.9779
41.0512 16.8088
41.242 16.5017
41.4327 16.3373
41.6236 16.0994
41.8146 15.8558
42.0057 15.6626
42.1969 15.4333
42.3882 15.2577
42.5797 15.0289
42.7713 14.8316
42.963 14.6721
43.1549 14.4119
43.3468 14.2204
43.5389 14.0926
43.7312 13.8891
43.9237 13.6622
44.1162 13.491
44.3088 13.2539
44.5016 13.0822
44.6945 12.9314
44.8875 12.7413
45.0806 12.5249
45.2739 12.3394
45.4673 12.224
45.6609 12.0323
45.8546 11.8775
46.0484 11.7168
46.2424 11.5455
46.4365 11.3304
46.631 11.1568
46.8254 11.0299
47.0199 10.8829
47.2146 10.7378
47.4095 10.5467
47.6044 10.3941
47.7996 10.2172
47.9948 10.0722
48.1902 9.94218
48.3858 9.80642
48.5815 9.67544
48.7774 9.55133
48.9734 9.38448
49.1696 9.21013
49.3661 9.1005
49.5626 8.96072
49.7592 8.82896
49.956 8.70898
50.153 8.55573
50.3501 8.43331
50.5474 8.3137
50.7448 8.22591
50.9424 8.0736
51.1402 7.89406
51.3381 7.78166
51.5362 7.65985
51.7344 7.54028
51.9328 7.44503
52.1316 7.27213
52.3304 7.17017
52.5293 7.0522
52.7284 6.92472
52.9276 6.815
53.1271 6.73635
53.3267 6.57573
53.5265 6.46532
53.7264 6.38901
53.9266 6.28141
54.1269 6.13221
54.3274 6.01256
54.528 5.84569
54.7289 5.6813
54.9301 5.50117
55.1314 5.36105
55.3328 5.13589
55.5344 4.94817
55.7361 4.86295