File: XRD/Ni3Fe_FD0629.xy
TT I
1.27165 7.51182
1.45013 6.64134
1.62863 5.8112
1.80712 4.80196
1.98562 5.17388
2.16411 5.41297
2.34263 4.91341
2.52115 6.42389
2.69965 7.28811
2.87818 8.69245
3.05672 11.0029
3.23527 15.166
3.4138 18.7824
3.59237 24.3513
3.77094 26.0804
3.9495 30.3052
4.12809 34.3483
4.30669 234.635
4.4853 67.5824
4.6639 55.3492
4.84253 66.9977
5.02118 87.171
5.19981 344.452
5.37848 195.25
5.55716 102.465
5.73586 92.3008
5.91455 93.8543
6.09328 4352.88
6.27201 84.1292
6.45075 67.7375
6.62952 63.338
6.8083 58.9307
6.98711 56.0288
7.16591 55.9164
7.34475 96.5447
7.5236 54.9709
7.70247 56.5869
7.88135 58.3883
8.06026 62.366
8.23919 69.7263
8.41812 85.2471
8.59709 1137.63
8.77609 100.177
8.9551 92.5022
9.13412 82.1567
9.31318 82.5066
9.49226 84.3001
9.67134 99.7546
9.85047 99.597
10.0296 332.04
10.2088 428.036
10.388 105.395
10.5672 504.16
10.7465 87.0728
10.9257 79.0627
11.105 71.961
11.2844 71.0061
11.4637 65.2096
11.6431 63.9499
11.8225 62.89
12.002 63.7337
12.1814 150.452
12.3609 72.1046
12.5405 64.8542
12.72 70.6471
12.8996 71.1709
13.0792 78.7808
13.2589 232.593
13.4386 128.025
13.6183 243.089
13.7981 100.624
13.9779 76.0876
14.1577 72.9029
14.3376 72.1899
14.5175 69.0617
14.6974 70.8692
14.8774 109.271
15.0574 152.087
15.2374 71.5804
15.4175 66.5086
15.5976 66.0348
15.7778 94.0509
15.958 158.491
16.1382 63.2923
16.3185 59.2786
16.4988 55.8705
16.6792 54.8478
16.8596 55.2924
17.04 55.8614
17.2205 66.6467
17.401 72.734
17.5815 59.4749
17.7622 61.4355
17.9428 73.4088
18.1237 138.602
18.3044 90.3329
18.4852 78.9439
18.666 60.7643
18.8469 58.3857
19.0278 57.4014
19.2088 59.6833
19.3898 76.7308
19.5709 54.6099
19.752 53.6214
19.9332 56.3285
20.1144 69.8314
20.2957 64.1203
20.477 54.1753
20.6586 49.9787
20.84 49.0113
21.0215 48.7783
21.203 50.9137
21.3846 49.1555
21.5662 48.8887
21.7479 52.6735
21.9297 64.7396
22.1115 56.4021
22.2933 50.2703
22.4753 49.0529
22.6572 48.9215
22.8393 52.0558
23.0214 57.8555
23.2037 48.8883
23.3859 49.9637
23.5682 56.8049
23.7505 48.9063
23.9329 45.5633
24.1154 44.3733
24.2979 43.5962
24.4805 43.0362
24.6631 43.0882
24.8458 42.3821
25.0286 43.0674
25.2114 44.8992
25.3943 44.883
25.5773 41.0293
25.7605 40.6367
25.9436 40.9868
26.1268 41.933
26.31 40.3187
26.4933 40.8101
26.6767 42.3717
26.8601 40.8072
27.0437 39.102
27.2272 38.6106
27.4109 38.5357
27.5946 38.5644
27.7784 38.0091
27.9623 38.6092
28.1462 38.916
28.3304 37.4457
28.5145 36.0984
28.6987 35.6759
28.8829 35.5876
29.0673 34.922
29.2517 34.5244
29.4361 34.3213
29.6207 33.3721
29.8053 33.0649
29.99 32.6715
30.1748 32.553
30.3597 32.4077
30.5447 32.2997
30.7297 32.3689
30.915 31.7722
31.1002 31.3038
31.2855 30.9993
31.4708 30.9182
31.6563 30.4848
31.8418 30.3174
32.0275 30.0746
32.2132 29.6302
32.399 29.0851
32.5848 28.6006
32.7708 28.295
32.9569 28.1588
33.143 27.8935
33.3293 27.5812
33.5158 27.2725
33.7022 26.7239
33.8887 26.4728
34.0753 26.1546
34.262 25.7264
34.4488 25.3922
34.6357 25.0549
34.8227 24.8516
35.0098 24.6239
35.1969 24.3655
35.3842 24.053
35.5716 23.8954
35.759 23.5914
35.9468 23.2409
36.1345 23.0164
36.3222 22.7244
36.5101 22.4841
36.6981 22.2915
36.8861 21.8642
37.0743 21.6611
37.2626 21.3861
37.451 21.1556
37.6395 20.8697
37.8281 20.5732
38.0168 20.3468
38.2056 20.1434
38.3945 19.7319
38.5837 19.5205
38.7728 19.352
38.9621 19.0348
39.1514 18.7961
39.3409 18.5942
39.5304 18.3409
39.7201 18.2073
39.9099 17.9793
40.0999 17.6479
40.2899 17.4522
40.48 17.1786
40.6703 17.0638
40.8607 16.8982
41.0512 16.6074
41.242 16.2649
41.4327 16.1765
41.6236 15.9592
41.8146 15.7263
42.0057 15.4768
42.1969 15.2837
42.3882 15.1518
42.5797 14.9188
42.7713 14.6679
42.963 14.5072
43.1549 14.2994
43.3468 14.0461
43.5389 13.9294
43.7312 13.7296
43.9237 13.5614
44.1162 13.3494
44.3088 13.1705
44.5016 12.9664
44.6945 12.8208
44.8875 12.6342
45.0806 12.4263
45.2739 12.2317
45.4673 12.0945
45.6609 11.9043
45.8546 11.7673
46.0484 11.5852
46.2424 11.4436
46.4365 11.2892
46.631 11.1011
46.8254 10.9012
47.0199 10.7962
47.2146 10.645
47.4095 10.4434
47.6044 10.2805
47.7996 10.1313
47.9948 10.0118
48.1902 9.86472
48.3858 9.73351
48.5815 9.62051
48.7774 9.42019
48.9734 9.2964
49.1696 9.11822
49.3661 9.02811
49.5626 8.85596
49.7592 8.76332
49.956 8.61022
50.153 8.5231
50.3501 8.33434
50.5474 8.22797
50.7448 8.13079
50.9424 7.9734
51.1402 7.87157
51.3381 7.7167
51.5362 7.61968
51.7344 7.46932
51.9328 7.34419
52.1316 7.22941
52.3304 7.11423
52.5293 7.01653
52.7284 6.86903
52.9276 6.747
53.1271 6.6821
53.3267 6.52494
53.5265 6.37787
53.7264 6.32616
53.9266 6.23199
54.1269 6.07319
54.3274 5.98821
54.528 5.83776
54.7289 5.67031
54.9301 5.51926
55.1314 5.40678
55.3328 5.1738
55.5344 5.0218
55.7361 4.80848