File: XRD/Ni3Fe_FD0575.xy
TT I
1.27165 7.52232
1.45013 6.00913
1.62863 5.26971
1.80712 4.68688
1.98562 4.72493
2.16411 4.66484
2.34263 5.40036
2.52115 6.75754
2.69965 7.84755
2.87818 8.76108
3.05672 11.0649
3.23527 14.9764
3.4138 18.771
3.59237 23.0589
3.77094 25.8393
3.9495 29.6967
4.12809 34.4206
4.30669 130.227
4.4853 56.8817
4.6639 55.8791
4.84253 68.0683
5.02118 88.5263
5.19981 459.634
5.37848 197.23
5.55716 103.163
5.73586 93.5351
5.91455 96.9277
6.09328 4434.74
6.27201 82.7006
6.45075 68.2231
6.62952 62.6945
6.8083 58.9398
6.98711 55.7833
7.16591 55.2485
7.34475 74.4284
7.5236 54.5202
7.70247 56.8527
7.88135 58.0005
8.06026 62.8291
8.23919 69.6777
8.41812 85.5282
8.59709 1251.58
8.77609 100.033
8.9551 89.4372
9.13412 82.966
9.31318 84.0119
9.49226 85.3046
9.67134 96.0318
9.85047 101.249
10.0296 380.26
10.2088 374.916
10.388 106.304
10.5672 524.052
10.7465 87.1975
10.9257 78.0227
11.105 72.0048
11.2844 69.4496
11.4637 65.2235
11.6431 63.8843
11.8225 62.8832
12.002 64.6522
12.1814 155.282
12.3609 68.1599
12.5405 64.8977
12.72 68.9042
12.8996 71.5799
13.0792 80.748
13.2589 251.504
13.4386 122.157
13.6183 254.328
13.7981 96.3967
13.9779 76.2575
14.1577 72.2813
14.3376 71.0041
14.5175 69.3686
14.6974 71.1589
14.8774 115.749
15.0574 144.381
15.2374 70.4266
15.4175 66.9287
15.5976 66.3742
15.7778 99.1207
15.958 151.21
16.1382 62.21
16.3185 58.265
16.4988 55.6532
16.6792 54.7999
16.8596 55.3859
17.04 56.3369
17.2205 67.8036
17.401 70.7849
17.5815 59.6412
17.7622 61.618
17.9428 75.6671
18.1237 141.156
18.3044 91.9999
18.4852 76.8892
18.666 60.752
18.8469 58.3795
19.0278 57.1091
19.2088 59.9899
19.3898 76.3024
19.5709 54.4577
19.752 53.7221
19.9332 56.9716
20.1144 70.308
20.2957 64.3194
20.477 53.4861
20.6586 49.7864
20.84 49.1443
21.0215 48.9037
21.203 51.1376
21.3846 49.4028
21.5662 49.3769
21.7479 53.3329
21.9297 64.9674
22.1115 56.5357
22.2933 50.0629
22.4753 48.9172
22.6572 49.3236
22.8393 52.5006
23.0214 57.5073
23.2037 49.1795
23.3859 50.2779
23.5682 57.366
23.7505 48.4165
23.9329 45.4486
24.1154 44.4294
24.2979 43.7238
24.4805 43.2378
24.6631 43.1286
24.8458 42.4962
25.0286 43.2059
25.2114 44.8764
25.3943 44.7924
25.5773 41.1157
25.7605 40.6996
25.9436 41.1479
26.1268 42.0249
26.31 40.444
26.4933 41.0416
26.6767 42.5461
26.8601 40.6659
27.0437 39.2043
27.2272 38.843
27.4109 38.6058
27.5946 38.574
27.7784 38.0594
27.9623 38.7045
28.1462 38.958
28.3304 37.3094
28.5145 36.2151
28.6987 35.7872
28.8829 35.6632
29.0673 34.9893
29.2517 34.5935
29.4361 34.3409
29.6207 33.3457
29.8053 33.0715
29.99 32.7872
30.1748 32.7117
30.3597 32.4008
30.5447 32.3949
30.7297 32.4996
30.915 31.7955
31.1002 31.4067
31.2855 31.0815
31.4708 30.9849
31.6563 30.5631
31.8418 30.2004
32.0275 30.0634
32.2132 29.5397
32.399 29.1265
32.5848 28.7447
32.7708 28.3289
32.9569 28.1159
33.143 27.8456
33.3293 27.6422
33.5158 27.2186
33.7022 26.8337
33.8887 26.4934
34.0753 26.1965
34.262 25.8672
34.4488 25.5202
34.6357 25.1445
34.8227 24.8008
35.0098 24.6835
35.1969 24.382
35.3842 24.1745
35.5716 23.9137
35.759 23.5702
35.9468 23.2838
36.1345 23.0329
36.3222 22.7822
36.5101 22.5288
36.6981 22.2248
36.8861 21.9063
37.0743 21.6493
37.2626 21.4072
37.451 21.1312
37.6395 20.9297
37.8281 20.5679
38.0168 20.3233
38.2056 20.0091
38.3945 19.7948
38.5837 19.6258
38.7728 19.3715
38.9621 19.0993
39.1514 18.8357
39.3409 18.5335
39.5304 18.3342
39.7201 18.1339
39.9099 17.9588
40.0999 17.729
40.2899 17.485
40.48 17.202
40.6703 17.0269
40.8607 16.7965
41.0512 16.5974
41.242 16.3476
41.4327 16.087
41.6236 15.9092
41.8146 15.7845
42.0057 15.5155
42.1969 15.2769
42.3882 15.0782
42.5797 14.9137
42.7713 14.6916
42.963 14.4836
43.1549 14.2991
43.3468 14.0799
43.5389 13.8956
43.7312 13.704
43.9237 13.49
44.1162 13.3603
44.3088 13.1035
44.5016 12.9718
44.6945 12.7942
44.8875 12.666
45.0806 12.4176
45.2739 12.2559
45.4673 12.0631
45.6609 11.9099
45.8546 11.7938
46.0484 11.5868
46.2424 11.4069
46.4365 11.2598
46.631 11.0763
46.8254 10.9242
47.0199 10.7769
47.2146 10.6334
47.4095 10.4042
47.6044 10.3078
47.7996 10.1326
47.9948 9.98369
48.1902 9.87864
48.3858 9.74677
48.5815 9.54259
48.7774 9.45512
48.9734 9.29112
49.1696 9.17396
49.3661 8.99547
49.5626 8.86815
49.7592 8.74266
49.956 8.61897
50.153 8.49804
50.3501 8.33063
50.5474 8.22626
50.7448 8.07961
50.9424 7.9698
51.1402 7.83789
51.3381 7.7254
51.5362 7.6247
51.7344 7.45349
51.9328 7.30624
52.1316 7.25021
52.3304 7.10863
52.5293 6.96123
52.7284 6.89476
52.9276 6.74488
53.1271 6.65829
53.3267 6.51584
53.5265 6.41275
53.7264 6.32285
53.9266 6.23877
54.1269 6.08785
54.3274 5.98046
54.528 5.81813
54.7289 5.71703
54.9301 5.51369
55.1314 5.40765
55.3328 5.25981
55.5344 5.00547
55.7361 4.81843