File: XRD/Ni3Fe_FD0720.xy
TT I
1.27165 7.60657
1.45013 6.35215
1.62863 5.77266
1.80712 5.01496
1.98562 5.14983
2.16411 5.21166
2.34263 5.60084
2.52115 6.3119
2.69965 7.89292
2.87818 8.77344
3.05672 11.0323
3.23527 15.3758
3.4138 18.5188
3.59237 23.682
3.77094 26.1974
3.9495 29.588
4.12809 34.5557
4.30669 151.076
4.4853 58.2279
4.6639 55.4422
4.84253 68.0213
5.02118 87.7025
5.19981 362.202
5.37848 191.378
5.55716 102.657
5.73586 92.7701
5.91455 94.6968
6.09328 4428.0
6.27201 81.8104
6.45075 68.0761
6.62952 62.6365
6.8083 58.8835
6.98711 55.8945
7.16591 55.6162
7.34475 77.3162
7.5236 54.6303
7.70247 56.3723
7.88135 57.595
8.06026 62.0485
8.23919 69.155
8.41812 84.6652
8.59709 1217.28
8.77609 98.9733
8.9551 89.8167
9.13412 82.4783
9.31318 83.1148
9.49226 84.6633
9.67134 96.3107
9.85047 100.664
10.0296 353.434
10.2088 408.92
10.388 104.47
10.5672 504.805
10.7465 86.4573
10.9257 77.9212
11.105 71.2661
11.2844 69.4778
11.4637 64.6087
11.6431 63.3068
11.8225 62.1054
12.002 63.5977
12.1814 154.805
12.3609 68.6214
12.5405 64.5497
12.72 68.6664
12.8996 71.1446
13.0792 78.9729
13.2589 246.911
13.4386 126.216
13.6183 254.542
13.7981 97.7002
13.9779 75.8703
14.1577 72.0333
14.3376 70.8401
14.5175 68.7409
14.6974 70.3859
14.8774 113.208
15.0574 146.884
15.2374 70.2515
15.4175 66.259
15.5976 65.7423
15.7778 96.543
15.958 153.919
16.1382 61.9466
16.3185 58.182
16.4988 55.2584
16.6792 54.2191
16.8596 54.8587
17.04 55.661
17.2205 67.1805
17.401 71.0503
17.5815 59.145
17.7622 61.2726
17.9428 73.7866
18.1237 137.503
18.3044 91.3576
18.4852 77.2302
18.666 60.2057
18.8469 58.003
19.0278 56.7129
19.2088 59.3365
19.3898 75.3578
19.5709 54.2448
19.752 53.386
19.9332 56.1384
20.1144 69.1342
20.2957 63.633
20.477 53.5657
20.6586 49.7144
20.84 48.6702
21.0215 48.5201
21.203 50.708
21.3846 48.8582
21.5662 48.8382
21.7479 52.6705
21.9297 64.3311
22.1115 55.7874
22.2933 49.7195
22.4753 48.6558
22.6572 48.8996
22.8393 52.2312
23.0214 57.0246
23.2037 48.6121
23.3859 49.7538
23.5682 56.851
23.7505 48.1471
23.9329 45.2372
24.1154 43.9918
24.2979 43.4957
24.4805 42.7881
24.6631 42.7336
24.8458 42.1327
25.0286 42.845
25.2114 44.5996
25.3943 44.4076
25.5773 41.0153
25.7605 40.4142
25.9436 40.8336
26.1268 41.5988
26.31 40.1203
26.4933 40.7788
26.6767 42.0329
26.8601 40.5043
27.0437 38.7561
27.2272 38.4802
27.4109 38.4533
27.5946 38.3308
27.7784 37.8972
27.9623 38.4635
28.1462 38.8715
28.3304 37.0007
28.5145 35.8599
28.6987 35.5726
28.8829 35.4384
29.0673 34.6522
29.2517 34.2908
29.4361 34.0406
29.6207 33.1001
29.8053 32.8861
29.99 32.5264
30.1748 32.3898
30.3597 32.2278
30.5447 32.0612
30.7297 32.1069
30.915 31.6141
31.1002 31.1345
31.2855 30.8446
31.4708 30.6636
31.6563 30.3407
31.8418 30.1002
32.0275 29.8755
32.2132 29.3357
32.399 28.8629
32.5848 28.4261
32.7708 28.0599
32.9569 28.001
33.143 27.7402
33.3293 27.2206
33.5158 26.9683
33.7022 26.5532
33.8887 26.2255
34.0753 25.9833
34.262 25.5799
34.4488 25.2465
34.6357 24.9318
34.8227 24.6677
35.0098 24.4241
35.1969 24.2332
35.3842 23.9152
35.5716 23.7256
35.759 23.4658
35.9468 23.1182
36.1345 22.882
36.3222 22.5973
36.5101 22.3748
36.6981 22.0292
36.8861 21.8024
37.0743 21.4597
37.2626 21.2286
37.451 20.9737
37.6395 20.7453
37.8281 20.4744
38.0168 20.1213
38.2056 19.9409
38.3945 19.6317
38.5837 19.4171
38.7728 19.1573
38.9621 18.9664
39.1514 18.6671
39.3409 18.4199
39.5304 18.1779
39.7201 18.0006
39.9099 17.8506
40.0999 17.5311
40.2899 17.3176
40.48 17.0675
40.6703 16.864
40.8607 16.7117
41.0512 16.4888
41.242 16.2208
41.4327 16.0465
41.6236 15.8048
41.8146 15.6022
42.0057 15.347
42.1969 15.1507
42.3882 15.0276
42.5797 14.8044
42.7713 14.6767
42.963 14.3908
43.1549 14.1983
43.3468 14.0207
43.5389 13.7882
43.7312 13.5902
43.9237 13.4306
44.1162 13.2421
44.3088 13.0636
44.5016 12.8663
44.6945 12.6877
44.8875 12.5701
45.0806 12.3399
45.2739 12.1648
45.4673 12.0222
45.6609 11.8326
45.8546 11.6654
46.0484 11.4884
46.2424 11.3598
46.4365 11.2158
46.631 10.9872
46.8254 10.8411
47.0199 10.6646
47.2146 10.5343
47.4095 10.4289
47.6044 10.2135
47.7996 10.029
47.9948 9.9152
48.1902 9.76058
48.3858 9.61142
48.5815 9.50489
48.7774 9.35985
48.9734 9.23334
49.1696 9.0746
49.3661 8.92474
49.5626 8.77264
49.7592 8.65717
49.956 8.56261
50.153 8.41711
50.3501 8.27896
50.5474 8.16929
50.7448 8.02741
50.9424 7.91076
51.1402 7.77974
51.3381 7.6201
51.5362 7.51479
51.7344 7.40962
51.9328 7.28302
52.1316 7.13425
52.3304 7.05057
52.5293 6.96506
52.7284 6.85727
52.9276 6.73651
53.1271 6.58662
53.3267 6.49365
53.5265 6.35974
53.7264 6.23767
53.9266 6.15982
54.1269 6.04064
54.3274 5.92316
54.528 5.86485
54.7289 5.62114
54.9301 5.52991
55.1314 5.31759
55.3328 5.15844
55.5344 4.9379
55.7361 4.79858