File: XRD/Ni3Fe_FD1072.xy
TT I
1.27165 6.81884
1.45013 5.88278
1.62863 4.4295
1.80712 4.1028
1.98562 4.04452
2.16411 4.36862
2.34263 5.60769
2.52115 7.40271
2.69965 8.5133
2.87818 9.28752
3.05672 11.4955
3.23527 14.8418
3.4138 17.9416
3.59237 21.1731
3.77094 24.6693
3.9495 28.5055
4.12809 32.6683
4.30669 56.4289
4.4853 46.8296
4.6639 52.918
4.84253 64.4119
5.02118 83.179
5.19981 233.039
5.37848 205.565
5.55716 97.6332
5.73586 87.9763
5.91455 89.5568
6.09328 4509.32
6.27201 75.8778
6.45075 63.5554
6.62952 58.3111
6.8083 54.811
6.98711 52.4938
7.16591 51.555
7.34475 55.9555
7.5236 58.2358
7.70247 53.1786
7.88135 54.7707
8.06026 59.0739
8.23919 66.0642
8.41812 78.1171
8.59709 1115.34
8.77609 94.7927
8.9551 82.3514
9.13412 79.2878
9.31318 88.5224
9.49226 81.3109
9.67134 86.6397
9.85047 94.49
10.0296 351.339
10.2088 441.885
10.388 97.9238
10.5672 513.247
10.7465 86.3451
10.9257 73.984
11.105 68.3982
11.2844 65.1117
11.4637 61.9962
11.6431 60.7625
11.8225 59.8474
12.002 66.158
12.1814 147.703
12.3609 64.7835
12.5405 61.406
12.72 64.1691
12.8996 68.2296
13.0792 76.8293
13.2589 231.416
13.4386 125.601
13.6183 237.718
13.7981 99.998
13.9779 73.6023
14.1577 75.1415
14.3376 67.3441
14.5175 66.692
14.6974 67.7975
14.8774 110.629
15.0574 157.784
15.2374 66.4919
15.4175 64.4631
15.5976 63.5102
15.7778 95.3572
15.958 167.926
16.1382 59.6818
16.3185 55.9175
16.4988 53.4448
16.6792 52.7453
16.8596 52.9185
17.04 53.9351
17.2205 65.0133
17.401 72.0097
17.5815 57.2694
17.7622 60.0575
17.9428 73.6104
18.1237 142.464
18.3044 88.758
18.4852 78.651
18.666 58.7991
18.8469 56.5081
19.0278 55.2476
19.2088 57.9332
19.3898 76.3292
19.5709 53.0964
19.752 52.0096
19.9332 55.3739
20.1144 70.5525
20.2957 63.4948
20.477 52.848
20.6586 48.3712
20.84 47.8654
21.0215 47.3938
21.203 49.6813
21.3846 48.0464
21.5662 47.6439
21.7479 52.1097
21.9297 65.2385
22.1115 55.9791
22.2933 49.1417
22.4753 47.6839
22.6572 47.7481
22.8393 51.1982
23.0214 57.4478
23.2037 47.905
23.3859 49.3922
23.5682 57.3057
23.7505 48.3032
23.9329 44.3756
24.1154 43.127
24.2979 42.5456
24.4805 42.0623
24.6631 42.0644
24.8458 41.3827
25.0286 42.0352
25.2114 44.2907
25.3943 44.5539
25.5773 40.1647
25.7605 39.7972
25.9436 40.1424
26.1268 41.3346
26.31 39.3692
26.4933 40.1056
26.6767 42.0204
26.8601 40.1414
27.0437 38.4348
27.2272 37.9157
27.4109 37.7231
27.5946 38.095
27.7784 37.3862
27.9623 38.1593
28.1462 38.6307
28.3304 36.9511
28.5145 35.5125
28.6987 34.8929
28.8829 34.8818
29.0673 34.1974
29.2517 33.7893
29.4361 33.7139
29.6207 32.6145
29.8053 32.4341
29.99 32.0356
30.1748 31.948
30.3597 31.8461
30.5447 31.7818
30.7297 31.9258
30.915 31.1795
31.1002 30.7128
31.2855 30.3321
31.4708 30.462
31.6563 30.0106
31.8418 29.8542
32.0275 29.6788
32.2132 28.9689
32.399 28.5531
32.5848 28.0619
32.7708 27.7536
32.9569 27.5748
33.143 27.3785
33.3293 27.1139
33.5158 26.6678
33.7022 26.2067
33.8887 25.9351
34.0753 25.6585
34.262 25.3183
34.4488 24.9427
34.6357 24.6967
34.8227 24.3572
35.0098 24.1109
35.1969 23.8376
35.3842 23.7385
35.5716 23.5407
35.759 23.114
35.9468 22.7449
36.1345 22.6915
36.3222 22.4249
36.5101 22.1355
36.6981 21.7539
36.8861 21.4399
37.0743 21.1918
37.2626 21.011
37.451 20.6534
37.6395 20.5207
37.8281 20.249
38.0168 19.9276
38.2056 19.7028
38.3945 19.3497
38.5837 19.2351
38.7728 18.9117
38.9621 18.739
39.1514 18.4543
39.3409 18.2435
39.5304 17.9557
39.7201 17.8476
39.9099 17.5508
40.0999 17.3195
40.2899 17.1243
40.48 16.8234
40.6703 16.6994
40.8607 16.5194
41.0512 16.2903
41.242 16.0492
41.4327 15.918
41.6236 15.5524
41.8146 15.4768
42.0057 15.204
42.1969 14.9995
42.3882 14.8486
42.5797 14.6196
42.7713 14.382
42.963 14.2159
43.1549 14.0757
43.3468 13.7915
43.5389 13.6324
43.7312 13.4356
43.9237 13.2732
44.1162 13.0702
44.3088 12.8834
44.5016 12.7248
44.6945 12.5652
44.8875 12.372
45.0806 12.1621
45.2739 12.0452
45.4673 11.8813
45.6609 11.6978
45.8546 11.5543
46.0484 11.3988
46.2424 11.1781
46.4365 11.0365
46.631 10.856
46.8254 10.6783
47.0199 10.5588
47.2146 10.4584
47.4095 10.2551
47.6044 10.0775
47.7996 9.97036
47.9948 9.78288
48.1902 9.64832
48.3858 9.52866
48.5815 9.41072
48.7774 9.2805
48.9734 9.09742
49.1696 8.96057
49.3661 8.83449
49.5626 8.68318
49.7592 8.60445
49.956 8.47458
50.153 8.28899
50.3501 8.19551
50.5474 8.03278
50.7448 7.92685
50.9424 7.80815
51.1402 7.7099
51.3381 7.54777
51.5362 7.47226
51.7344 7.31028
51.9328 7.17266
52.1316 7.05953
52.3304 6.96173
52.5293 6.82247
52.7284 6.76379
52.9276 6.64113
53.1271 6.52212
53.3267 6.42086
53.5265 6.28671
53.7264 6.12489
53.9266 6.09589
54.1269 5.99752
54.3274 5.86995
54.528 5.7729
54.7289 5.54099
54.9301 5.39012
55.1314 5.27189
55.3328 5.11333
55.5344 4.88579
55.7361 4.75251