File: XRD/Ni3Fe_FD0299.xy
TT I
1.27165 7.47502
1.45013 6.32242
1.62863 5.22379
1.80712 5.14426
1.98562 5.42164
2.16411 5.22022
2.34263 5.10539
2.52115 6.10318
2.69965 6.77529
2.87818 8.19359
3.05672 11.4318
3.23527 15.568
3.4138 19.2398
3.59237 25.4584
3.77094 26.7947
3.9495 30.7242
4.12809 36.3751
4.30669 304.403
4.4853 75.6049
4.6639 56.9684
4.84253 68.9581
5.02118 90.8259
5.19981 493.465
5.37848 258.226
5.55716 107.108
5.73586 96.1792
5.91455 100.383
6.09328 3609.49
6.27201 90.1129
6.45075 70.6231
6.62952 65.763
6.8083 61.2432
6.98711 58.0575
7.16591 58.4962
7.34475 111.87
7.5236 56.9106
7.70247 58.233
7.88135 59.6845
8.06026 64.7988
8.23919 72.1016
8.41812 89.4677
8.59709 985.579
8.77609 107.861
8.9551 98.0636
9.13412 84.3908
9.31318 85.5114
9.49226 87.3035
9.67134 105.803
9.85047 103.608
10.0296 376.02
10.2088 578.525
10.388 110.51
10.5672 447.528
10.7465 90.5447
10.9257 81.9854
11.105 74.4427
11.2844 74.5592
11.4637 67.2333
11.6431 66.0916
11.8225 64.8167
12.002 66.0365
12.1814 137.217
12.3609 77.3807
12.5405 67.164
12.72 74.3163
12.8996 73.4958
13.0792 81.4545
13.2589 210.64
13.4386 150.188
13.6183 213.412
13.7981 112.986
13.9779 78.5165
14.1577 75.4646
14.3376 75.0046
14.5175 71.173
14.6974 73.1588
14.8774 108.661
15.0574 177.032
15.2374 74.8494
15.4175 68.7341
15.5976 68.101
15.7778 95.1699
15.958 181.912
16.1382 66.3053
16.3185 61.4909
16.4988 57.8311
16.6792 56.5995
16.8596 57.4648
17.04 57.8711
17.2205 67.0001
17.401 77.4867
17.5815 61.4702
17.7622 63.3892
17.9428 77.0443
18.1237 137.403
18.3044 88.5902
18.4852 86.1155
18.666 62.8587
18.8469 60.2033
19.0278 59.1106
19.2088 61.9787
19.3898 78.4775
19.5709 56.5487
19.752 55.2874
19.9332 58.3412
20.1144 71.1193
20.2957 63.741
20.477 57.1414
20.6586 51.635
20.84 50.5986
21.0215 50.5646
21.203 52.106
21.3846 51.235
21.5662 50.6308
21.7479 53.8043
21.9297 66.349
22.1115 57.4767
22.2933 52.1481
22.4753 50.901
22.6572 50.6683
22.8393 53.1418
23.0214 60.05
23.2037 50.6469
23.3859 51.5501
23.5682 57.3799
23.7505 51.1113
23.9329 47.0904
24.1154 45.7616
24.2979 45.0159
24.4805 44.4607
24.6631 44.5368
24.8458 43.8786
25.0286 44.0518
25.2114 45.99
25.3943 46.4823
25.5773 42.605
25.7605 41.9147
25.9436 42.1589
26.1268 43.0788
26.31 41.605
26.4933 42.1569
26.6767 43.6772
26.8601 41.9978
27.0437 40.3237
27.2272 40.1059
27.4109 39.694
27.5946 39.7719
27.7784 39.2058
27.9623 39.5304
28.1462 40.272
28.3304 38.5873
28.5145 37.3506
28.6987 36.8495
28.8829 36.6864
29.0673 36.0625
29.2517 35.6008
29.4361 35.3938
29.6207 34.4217
29.8053 34.1314
29.99 33.7719
30.1748 33.4926
30.3597 33.4886
30.5447 33.3498
30.7297 33.3754
30.915 32.8208
31.1002 32.1973
31.2855 31.9326
31.4708 31.8511
31.6563 31.4646
31.8418 31.2577
32.0275 30.8845
32.2132 30.4619
32.399 30.0009
32.5848 29.464
32.7708 29.1578
32.9569 29.027
33.143 28.7192
33.3293 28.3894
33.5158 28.0382
33.7022 27.5861
33.8887 27.3113
34.0753 26.918
34.262 26.5299
34.4488 26.2561
34.6357 25.9351
34.8227 25.6002
35.0098 25.3929
35.1969 24.9971
35.3842 24.8453
35.5716 24.6019
35.759 24.2875
35.9468 23.9442
36.1345 23.6937
36.3222 23.5197
36.5101 23.2396
36.6981 22.948
36.8861 22.6243
37.0743 22.2991
37.2626 21.9622
37.451 21.7957
37.6395 21.5491
37.8281 21.2266
38.0168 20.9965
38.2056 20.7736
38.3945 20.3889
38.5837 20.1533
38.7728 19.9522
38.9621 19.6281
39.1514 19.4319
39.3409 19.182
39.5304 18.9306
39.7201 18.733
39.9099 18.5156
40.0999 18.2259
40.2899 17.9513
40.48 17.7802
40.6703 17.5385
40.8607 17.3899
41.0512 17.0862
41.242 16.8667
41.4327 16.6777
41.6236 16.4015
41.8146 16.278
42.0057 16.0118
42.1969 15.7867
42.3882 15.6161
42.5797 15.3363
42.7713 15.1719
42.963 14.9937
43.1549 14.7594
43.3468 14.5158
43.5389 14.3197
43.7312 14.1796
43.9237 13.9702
44.1162 13.7588
44.3088 13.5533
44.5016 13.4328
44.6945 13.1971
44.8875 13.0553
45.0806 12.8343
45.2739 12.6068
45.4673 12.4799
45.6609 12.2922
45.8546 12.1345
46.0484 11.9171
46.2424 11.8261
46.4365 11.5862
46.631 11.4711
46.8254 11.2604
47.0199 11.1137
47.2146 10.9547
47.4095 10.7657
47.6044 10.6139
47.7996 10.4833
47.9948 10.3161
48.1902 10.1436
48.3858 10.0542
48.5815 9.86049
48.7774 9.7195
48.9734 9.57485
49.1696 9.4435
49.3661 9.29888
49.5626 9.14847
49.7592 8.99501
49.956 8.86967
50.153 8.74936
50.3501 8.58757
50.5474 8.47214
50.7448 8.35121
50.9424 8.23712
51.1402 8.11414
51.3381 7.95794
51.5362 7.80992
51.7344 7.70663
51.9328 7.57292
52.1316 7.42643
52.3304 7.32959
52.5293 7.21897
52.7284 7.07908
52.9276 6.93763
53.1271 6.89567
53.3267 6.72477
53.5265 6.63062
53.7264 6.47969
53.9266 6.39401
54.1269 6.2844
54.3274 6.1485
54.528 5.98799
54.7289 5.83498
54.9301 5.63657
55.1314 5.53378
55.3328 5.32499
55.5344 5.12069
55.7361 5.00693