File: XRD/Ni3Fe_FD0701.xy
TT I
1.27165 7.43412
1.45013 5.94836
1.62863 5.00752
1.80712 4.5991
1.98562 4.653
2.16411 4.16108
2.34263 5.36437
2.52115 6.87819
2.69965 8.83891
2.87818 8.13177
3.05672 10.926
3.23527 15.4752
3.4138 19.1168
3.59237 23.1856
3.77094 25.5045
3.9495 29.7062
4.12809 34.254
4.30669 110.804
4.4853 55.239
4.6639 55.6488
4.84253 68.4539
5.02118 87.4199
5.19981 435.871
5.37848 194.439
5.55716 103.12
5.73586 93.2611
5.91455 95.821
6.09328 4644.67
6.27201 80.9216
6.45075 69.2889
6.62952 62.7488
6.8083 59.161
6.98711 55.3854
7.16591 55.56
7.34475 69.3137
7.5236 54.3487
7.70247 56.7665
7.88135 57.5958
8.06026 62.6243
8.23919 69.693
8.41812 84.2035
8.59709 1248.5
8.77609 98.3437
8.9551 89.7955
9.13412 82.6792
9.31318 84.5779
9.49226 85.2021
9.67134 95.723
9.85047 101.38
10.0296 367.663
10.2088 353.217
10.388 106.184
10.5672 518.736
10.7465 86.4149
10.9257 77.9216
11.105 71.5815
11.2844 68.7004
11.4637 64.9003
11.6431 63.7127
11.8225 62.6524
12.002 64.4234
12.1814 156.516
12.3609 67.2022
12.5405 64.9678
12.72 68.2118
12.8996 71.3417
13.0792 80.6107
13.2589 250.697
13.4386 120.133
13.6183 259.233
13.7981 93.9166
13.9779 75.8235
14.1577 72.1034
14.3376 70.2719
14.5175 68.7228
14.6974 70.5756
14.8774 114.294
15.0574 138.814
15.2374 69.7951
15.4175 66.5215
15.5976 65.9918
15.7778 97.2731
15.958 148.412
16.1382 61.5588
16.3185 57.9112
16.4988 55.4208
16.6792 54.3777
16.8596 55.0019
17.04 55.9251
17.2205 67.4509
17.401 69.6801
17.5815 59.3725
17.7622 61.3745
17.9428 74.6733
18.1237 141.51
18.3044 91.4203
18.4852 74.8031
18.666 60.2668
18.8469 57.8475
19.0278 56.5304
19.2088 59.4795
19.3898 76.076
19.5709 53.8904
19.752 53.3078
19.9332 56.3618
20.1144 69.4668
20.2957 64.0844
20.477 52.9022
20.6586 49.4043
20.84 48.8201
21.0215 48.6179
21.203 50.905
21.3846 48.6765
21.5662 48.9077
21.7479 53.0388
21.9297 64.8616
22.1115 55.9684
22.2933 49.5342
22.4753 48.6864
22.6572 48.8429
22.8393 52.1087
23.0214 57.05
23.2037 48.7156
23.3859 49.8717
23.5682 57.2527
23.7505 47.811
23.9329 45.2077
24.1154 44.1586
24.2979 43.2227
24.4805 42.9074
24.6631 42.7989
24.8458 42.1395
25.0286 42.8545
25.2114 44.6531
25.3943 44.4237
25.5773 40.9755
25.7605 40.3087
25.9436 40.7965
26.1268 41.7785
26.31 40.0631
26.4933 40.7889
26.6767 42.2091
26.8601 40.304
27.0437 38.7482
27.2272 38.4363
27.4109 38.384
27.5946 38.1874
27.7784 37.8929
27.9623 38.4178
28.1462 38.6759
28.3304 37.0587
28.5145 35.9235
28.6987 35.4986
28.8829 35.3963
29.0673 34.6083
29.2517 34.3862
29.4361 34.0411
29.6207 33.0413
29.8053 32.8172
29.99 32.5236
30.1748 32.3861
30.3597 32.1421
30.5447 32.1462
30.7297 32.1026
30.915 31.5389
31.1002 31.1117
31.2855 30.7678
31.4708 30.8049
31.6563 30.3212
31.8418 30.0301
32.0275 29.8444
32.2132 29.3829
32.399 28.8462
32.5848 28.4341
32.7708 28.1125
32.9569 27.9073
33.143 27.7368
33.3293 27.3153
33.5158 26.9867
33.7022 26.6163
33.8887 26.316
34.0753 25.9682
34.262 25.5252
34.4488 25.2805
34.6357 24.9281
34.8227 24.6511
35.0098 24.4174
35.1969 24.1242
35.3842 23.9478
35.5716 23.7801
35.759 23.4394
35.9468 23.0444
36.1345 22.9289
36.3222 22.6396
36.5101 22.3312
36.6981 22.0754
36.8861 21.79
37.0743 21.5131
37.2626 21.1951
37.451 20.9494
37.6395 20.7522
37.8281 20.4381
38.0168 20.1167
38.2056 19.9199
38.3945 19.6691
38.5837 19.3944
38.7728 19.1934
38.9621 18.8729
39.1514 18.6908
39.3409 18.4023
39.5304 18.2555
39.7201 18.0742
39.9099 17.7844
40.0999 17.5356
40.2899 17.3104
40.48 17.1062
40.6703 16.9306
40.8607 16.6837
41.0512 16.5209
41.242 16.1823
41.4327 16.0244
41.6236 15.7628
41.8146 15.6291
42.0057 15.3856
42.1969 15.1705
42.3882 15.0042
42.5797 14.7872
42.7713 14.6009
42.963 14.3657
43.1549 14.1976
43.3468 14.0181
43.5389 13.82
43.7312 13.6013
43.9237 13.3892
44.1162 13.263
44.3088 13.0505
44.5016 12.8073
44.6945 12.7313
44.8875 12.556
45.0806 12.3509
45.2739 12.1973
45.4673 12.0497
45.6609 11.8024
45.8546 11.6657
46.0484 11.5003
46.2424 11.3744
46.4365 11.1915
46.631 10.9777
46.8254 10.8485
47.0199 10.6803
47.2146 10.5433
47.4095 10.3694
47.6044 10.2375
47.7996 10.0996
47.9948 9.91941
48.1902 9.77532
48.3858 9.63575
48.5815 9.53689
48.7774 9.40355
48.9734 9.2351
49.1696 9.11328
49.3661 8.97309
49.5626 8.77806
49.7592 8.66024
49.956 8.54892
50.153 8.42118
50.3501 8.27033
50.5474 8.14651
50.7448 8.03457
50.9424 7.91436
51.1402 7.78401
51.3381 7.65769
51.5362 7.52859
51.7344 7.39618
51.9328 7.28577
52.1316 7.14596
52.3304 7.07124
52.5293 6.9434
52.7284 6.81402
52.9276 6.68727
53.1271 6.63339
53.3267 6.50019
53.5265 6.3322
53.7264 6.28264
53.9266 6.15996
54.1269 6.05528
54.3274 5.90131
54.528 5.79688
54.7289 5.63412
54.9301 5.48598
55.1314 5.35736
55.3328 5.16834
55.5344 4.97748
55.7361 4.79732