File: XRD/Ni3Fe_FD0226.xy
TT I
1.27165 8.37339
1.45013 6.65818
1.62863 5.97049
1.80712 5.17902
1.98562 4.87681
2.16411 4.74802
2.34263 4.15857
2.52115 5.24825
2.69965 5.85381
2.87818 8.44125
3.05672 10.9914
3.23527 15.3016
3.4138 18.8604
3.59237 22.5399
3.77094 25.6586
3.9495 30.2529
4.12809 34.768
4.30669 40.5955
4.4853 48.6064
4.6639 58.3703
4.84253 71.499
5.02118 96.3094
5.19981 881.217
5.37848 274.547
5.55716 112.335
5.73586 100.978
5.91455 110.192
6.09328 3633.84
6.27201 89.0298
6.45075 71.0657
6.62952 64.1674
6.8083 60.0142
6.98711 57.4251
7.16591 56.6601
7.34475 55.6744
7.5236 56.272
7.70247 58.2854
7.88135 60.3692
8.06026 65.1882
8.23919 73.004
8.41812 90.2139
8.59709 1060.33
8.77609 111.031
8.9551 90.8588
9.13412 86.7256
9.31318 88.0039
9.49226 89.062
9.67134 95.5951
9.85047 107.031
10.0296 517.057
10.2088 553.919
10.388 114.64
10.5672 444.244
10.7465 92.3037
10.9257 80.6368
11.105 74.8111
11.2844 70.5132
11.4637 67.8027
11.6431 66.5847
11.8225 65.2138
12.002 68.6842
12.1814 140.761
12.3609 70.1154
12.5405 67.1992
12.72 69.6954
12.8996 74.9696
13.0792 86.0177
13.2589 228.263
13.4386 151.703
13.6183 226.247
13.7981 112.589
13.9779 79.859
14.1577 75.2153
14.3376 73.2624
14.5175 72.3322
14.6974 74.7194
14.8774 119.179
15.0574 172.068
15.2374 72.3284
15.4175 69.8931
15.5976 69.8442
15.7778 103.318
15.958 177.009
16.1382 63.851
16.3185 60.0644
16.4988 58.1181
16.6792 57.0635
16.8596 57.1639
17.04 59.2804
17.2205 68.8341
17.401 77.3542
17.5815 62.0425
17.7622 64.572
17.9428 82.7058
18.1237 139.117
18.3044 90.2375
18.4852 84.2441
18.666 63.4323
18.8469 60.8322
19.0278 59.6786
19.2088 62.924
19.3898 76.3623
19.5709 57.0652
19.752 55.963
19.9332 59.5631
20.1144 72.4179
20.2957 64.5224
20.477 56.7198
20.6586 51.921
20.84 51.2655
21.0215 51.0839
21.203 52.5867
21.3846 51.629
21.5662 51.8326
21.7479 55.486
21.9297 66.662
22.1115 57.7648
22.2933 52.5246
22.4753 50.8687
22.6572 52.0406
22.8393 53.9877
23.0214 59.9239
23.2037 51.4003
23.3859 52.5173
23.5682 57.5997
23.7505 51.4835
23.9329 47.3837
24.1154 46.085
24.2979 45.5281
24.4805 44.741
24.6631 44.8331
24.8458 44.3713
25.0286 45.0626
25.2114 46.5252
25.3943 46.6767
25.5773 42.9343
25.7605 42.432
25.9436 42.6877
26.1268 43.6088
26.31 42.273
26.4933 42.5648
26.6767 43.9677
26.8601 42.3872
27.0437 40.7838
27.2272 40.4095
27.4109 40.1942
27.5946 40.2739
27.7784 39.6099
27.9623 40.0154
28.1462 40.6805
28.3304 39.1046
28.5145 37.5942
28.6987 37.2616
28.8829 36.9264
29.0673 36.4414
29.2517 35.9037
29.4361 35.6348
29.6207 34.6825
29.8053 34.2673
29.99 34.0917
30.1748 33.8032
30.3597 33.7417
30.5447 33.5663
30.7297 33.5903
30.915 33.0914
31.1002 32.5045
31.2855 32.2796
31.4708 32.2439
31.6563 31.732
31.8418 31.4828
32.0275 31.3074
32.2132 30.7272
32.399 30.3025
32.5848 29.7954
32.7708 29.4384
32.9569 29.2675
33.143 29.0886
33.3293 28.6931
33.5158 28.3263
33.7022 27.8523
33.8887 27.4836
34.0753 27.1926
34.262 26.8063
34.4488 26.5162
34.6357 26.1452
34.8227 25.7912
35.0098 25.6127
35.1969 25.3311
35.3842 25.0558
35.5716 24.8596
35.759 24.4839
35.9468 24.1964
36.1345 23.9354
36.3222 23.6733
36.5101 23.4516
36.6981 23.0771
36.8861 22.8153
37.0743 22.4834
37.2626 22.1476
37.451 21.9323
37.6395 21.7796
37.8281 21.3722
38.0168 21.054
38.2056 20.8818
38.3945 20.5912
38.5837 20.3486
38.7728 20.0478
38.9621 19.8244
39.1514 19.5842
39.3409 19.3092
39.5304 19.0087
39.7201 18.7909
39.9099 18.6256
40.0999 18.3558
40.2899 18.133
40.48 17.9077
40.6703 17.7107
40.8607 17.5217
41.0512 17.2918
41.242 17.018
41.4327 16.7683
41.6236 16.5818
41.8146 16.3188
42.0057 16.1345
42.1969 15.8525
42.3882 15.6782
42.5797 15.4935
42.7713 15.3431
42.963 15.0477
43.1549 14.8737
43.3468 14.6443
43.5389 14.4226
43.7312 14.2088
43.9237 14.0629
44.1162 13.8524
44.3088 13.6663
44.5016 13.4641
44.6945 13.304
44.8875 13.1192
45.0806 12.9339
45.2739 12.731
45.4673 12.5293
45.6609 12.39
45.8546 12.2021
46.0484 12.0061
46.2424 11.7977
46.4365 11.7279
46.631 11.4864
46.8254 11.3618
47.0199 11.1839
47.2146 11.0054
47.4095 10.8335
47.6044 10.6648
47.7996 10.5078
47.9948 10.3534
48.1902 10.225
48.3858 10.0759
48.5815 9.97281
48.7774 9.78375
48.9734 9.6338
49.1696 9.48113
49.3661 9.33814
49.5626 9.17188
49.7592 9.04846
49.956 8.93889
50.153 8.79387
50.3501 8.62897
50.5474 8.52144
50.7448 8.43381
50.9424 8.25198
51.1402 8.13356
51.3381 7.99249
51.5362 7.88653
51.7344 7.74308
51.9328 7.63583
52.1316 7.44503
52.3304 7.35969
52.5293 7.24311
52.7284 7.16957
52.9276 6.96481
53.1271 6.89825
53.3267 6.79219
53.5265 6.66068
53.7264 6.57103
53.9266 6.41702
54.1269 6.30126
54.3274 6.15741
54.528 6.01333
54.7289 5.82714
54.9301 5.66299
55.1314 5.52573
55.3328 5.3202
55.5344 5.18124
55.7361 5.03129