File: XRD/Ni3Fe_FD0426.xy
TT I
1.27165 7.72417
1.45013 5.70443
1.62863 5.33094
1.80712 5.25235
1.98562 5.17311
2.16411 4.87186
2.34263 4.96231
2.52115 6.3644
2.69965 7.11597
2.87818 8.49155
3.05672 11.2844
3.23527 15.1662
3.4138 18.6632
3.59237 25.5465
3.77094 26.7821
3.9495 30.7307
4.12809 36.1644
4.30669 307.038
4.4853 76.0443
4.6639 56.2201
4.84253 67.4381
5.02118 88.5173
5.19981 419.859
5.37848 222.409
5.55716 104.8
5.73586 94.3106
5.91455 96.9512
6.09328 3917.39
6.27201 87.6063
6.45075 69.2073
6.62952 64.9627
6.8083 60.7202
6.98711 56.9035
7.16591 57.3294
7.34475 112.109
7.5236 56.5141
7.70247 57.6934
7.88135 59.0758
8.06026 63.5594
8.23919 71.3457
8.41812 87.9958
8.59709 1053.39
8.77609 104.154
8.9551 96.4487
9.13412 83.5713
9.31318 84.2644
9.49226 85.9205
9.67134 104.785
9.85047 102.24
10.0296 348.398
10.2088 501.15
10.388 108.251
10.5672 474.842
10.7465 89.0415
10.9257 80.6738
11.105 73.5762
11.2844 73.2885
11.4637 66.3308
11.6431 65.0543
11.8225 64.116
12.002 65.155
12.1814 143.02
12.3609 75.4772
12.5405 65.8121
12.72 73.7416
12.8996 72.3485
13.0792 80.3181
13.2589 218.817
13.4386 139.49
13.6183 224.883
13.7981 106.435
13.9779 77.3632
14.1577 74.5323
14.3376 74.2802
14.5175 70.2979
14.6974 72.2731
14.8774 108.496
15.0574 168.861
15.2374 73.9203
15.4175 67.9226
15.5976 67.0111
15.7778 94.2227
15.958 171.28
16.1382 65.5245
16.3185 60.823
16.4988 56.9557
16.6792 55.8258
16.8596 56.8836
17.04 57.199
17.2205 66.5105
17.401 74.7279
17.5815 60.4917
17.7622 62.4665
17.9428 75.0452
18.1237 137.506
18.3044 88.7894
18.4852 82.8281
18.666 61.9546
18.8469 59.1774
19.0278 58.3553
19.2088 60.8328
19.3898 77.9695
19.5709 55.6963
19.752 54.3687
19.9332 57.377
20.1144 70.5273
20.2957 63.5052
20.477 55.7752
20.6586 50.8339
20.84 49.9971
21.0215 49.8562
21.203 51.5768
21.3846 50.2472
21.5662 49.7212
21.7479 53.4699
21.9297 65.5572
22.1115 56.9482
22.2933 51.3602
22.4753 50.247
22.6572 49.8991
22.8393 52.5528
23.0214 58.9303
23.2037 49.951
23.3859 50.6253
23.5682 56.9735
23.7505 49.884
23.9329 46.2985
24.1154 45.1844
24.2979 44.429
24.4805 43.69
24.6631 43.8495
24.8458 43.225
25.0286 43.6886
25.2114 45.5336
25.3943 45.7109
25.5773 41.982
25.7605 41.1965
25.9436 41.6506
26.1268 42.7032
26.31 40.9752
26.4933 41.6331
26.6767 42.8861
26.8601 41.3034
27.0437 39.7044
27.2272 39.4126
27.4109 39.174
27.5946 39.2558
27.7784 38.6237
27.9623 39.036
28.1462 39.6192
28.3304 38.0785
28.5145 36.8646
28.6987 36.475
28.8829 36.1401
29.0673 35.4474
29.2517 35.0768
29.4361 34.8314
29.6207 33.8504
29.8053 33.5909
29.99 33.1761
30.1748 33.0945
30.3597 32.9372
30.5447 32.8708
30.7297 32.9427
30.915 32.3591
31.1002 31.7001
31.2855 31.5624
31.4708 31.4451
31.6563 31.015
31.8418 30.7092
32.0275 30.6083
32.2132 30.0404
32.399 29.6177
32.5848 29.104
32.7708 28.7732
32.9569 28.617
33.143 28.395
33.3293 28.0313
33.5158 27.6011
33.7022 27.2716
33.8887 26.9653
34.0753 26.5598
34.262 26.2833
34.4488 25.8726
34.6357 25.5454
34.8227 25.1774
35.0098 25.0618
35.1969 24.7406
35.3842 24.5265
35.5716 24.2672
35.759 23.9457
35.9468 23.6123
36.1345 23.3805
36.3222 23.1283
36.5101 22.8723
36.6981 22.6369
36.8861 22.3101
37.0743 22.0254
37.2626 21.7453
37.451 21.4262
37.6395 21.2503
37.8281 20.9256
38.0168 20.6867
38.2056 20.3774
38.3945 20.1122
38.5837 19.9008
38.7728 19.655
38.9621 19.3273
39.1514 19.1157
39.3409 18.9111
39.5304 18.686
39.7201 18.4751
39.9099 18.209
40.0999 18.0684
40.2899 17.7508
40.48 17.4996
40.6703 17.2689
40.8607 17.0596
41.0512 16.8977
41.242 16.5955
41.4327 16.4125
41.6236 16.2123
41.8146 15.9693
42.0057 15.8093
42.1969 15.5405
42.3882 15.3543
42.5797 15.1729
42.7713 14.9212
42.963 14.7615
43.1549 14.5107
43.3468 14.3726
43.5389 14.1474
43.7312 13.959
43.9237 13.7492
44.1162 13.5727
44.3088 13.3736
44.5016 13.1851
44.6945 12.9861
44.8875 12.8269
45.0806 12.627
45.2739 12.4508
45.4673 12.3245
45.6609 12.1377
45.8546 11.9816
46.0484 11.8304
46.2424 11.6197
46.4365 11.4595
46.631 11.2673
46.8254 11.088
47.0199 10.9218
47.2146 10.8065
47.4095 10.5898
47.6044 10.491
47.7996 10.323
47.9948 10.1395
48.1902 10.0219
48.3858 9.86843
48.5815 9.74756
48.7774 9.62843
48.9734 9.44431
49.1696 9.31065
49.3661 9.14094
49.5626 9.00542
49.7592 8.90729
49.956 8.76831
50.153 8.62927
50.3501 8.47564
50.5474 8.36344
50.7448 8.23724
50.9424 8.0823
51.1402 8.00049
51.3381 7.86089
51.5362 7.70903
51.7344 7.61332
51.9328 7.45982
52.1316 7.32819
52.3304 7.20947
52.5293 7.04895
52.7284 6.97319
52.9276 6.89436
53.1271 6.7868
53.3267 6.64263
53.5265 6.52275
53.7264 6.42248
53.9266 6.27902
54.1269 6.2172
54.3274 6.0703
54.528 5.96002
54.7289 5.82596
54.9301 5.59199
55.1314 5.51033
55.3328 5.23602
55.5344 5.13322
55.7361 4.90439