File: XRD/Ni3Fe_FD0067.xy
TT I
1.27165 30.3944
1.45013 24.7463
1.62863 20.5822
1.80712 19.4243
1.98562 18.9412
2.16411 18.2617
2.34263 19.1421
2.52115 19.7168
2.69965 23.3413
2.87818 33.6123
3.05672 58.5496
3.23527 56.1106
3.4138 30.6288
3.59237 25.766
3.77094 25.0515
3.9495 26.9271
4.12809 29.549
4.30669 36.9805
4.4853 38.0812
4.6639 44.5911
4.84253 57.38
5.02118 105.708
5.19981 376.202
5.37848 2475.91
5.55716 144.226
5.73586 104.237
5.91455 124.587
6.09328 683.075
6.27201 182.585
6.45075 63.4447
6.62952 48.7976
6.8083 43.0696
6.98711 42.3957
7.16591 42.7653
7.34475 40.3573
7.5236 71.3955
7.70247 43.5254
7.88135 40.2429
8.06026 42.8895
8.23919 49.2616
8.41812 63.5826
8.59709 222.407
8.77609 259.508
8.9551 73.7231
9.13412 67.6037
9.31318 255.118
9.49226 61.5854
9.67134 61.3418
9.85047 68.4295
10.0296 155.091
10.2088 720.03
10.388 92.252
10.5672 107.615
10.7465 151.179
10.9257 53.322
11.105 47.5258
11.2844 44.8607
11.4637 42.1866
11.6431 41.593
11.8225 42.2988
12.002 110.864
12.1814 53.5423
12.3609 74.7354
12.5405 43.2414
12.72 42.0213
12.8996 43.9382
13.0792 52.6214
13.2589 74.4291
13.4386 185.607
13.6183 79.9244
13.7981 163.626
13.9779 53.905
14.1577 76.6219
14.3376 47.1766
14.5175 43.9549
14.6974 43.8606
14.8774 53.5041
15.0574 90.1355
15.2374 53.1454
15.4175 43.3196
15.5976 42.4995
15.7778 49.6697
15.958 73.4213
16.1382 63.6973
16.3185 38.6768
16.4988 36.215
16.6792 35.3068
16.8596 35.428
17.04 39.5745
17.2205 37.2154
17.401 44.1668
17.5815 38.5975
17.7622 40.591
17.9428 43.0293
18.1237 48.3126
18.3044 67.2185
18.4852 58.2668
18.666 44.1423
18.8469 37.7537
19.0278 36.5344
19.2088 37.2071
19.3898 47.1919
19.5709 41.5391
19.752 34.541
19.9332 34.6612
20.1144 35.532
20.2957 39.9647
20.477 39.521
20.6586 32.8911
20.84 34.869
21.0215 31.188
21.203 30.9469
21.3846 32.1724
21.5662 31.6182
21.7479 31.89
21.9297 33.163
22.1115 38.4499
22.2933 35.408
22.4753 31.516
22.6572 31.1417
22.8393 32.406
23.0214 32.4499
23.2037 34.5671
23.3859 32.0917
23.5682 32.1775
23.7505 35.6749
23.9329 30.4448
24.1154 29.363
24.2979 28.2628
24.4805 27.7864
24.6631 28.1937
24.8458 27.5183
25.0286 27.225
25.2114 27.3888
25.3943 28.0082
25.5773 28.1884
25.7605 26.4543
25.9436 26.325
26.1268 26.0756
26.31 26.7875
26.4933 25.9074
26.6767 25.9149
26.8601 27.003
27.0437 26.4949
27.2272 25.1506
27.4109 24.8489
27.5946 24.8653
27.7784 24.851
27.9623 24.5605
28.1462 24.8751
28.3304 24.8697
28.5145 23.9549
28.6987 23.3211
28.8829 22.9207
29.0673 22.7591
29.2517 22.3432
29.4361 22.127
29.6207 21.938
29.8053 21.5527
29.99 21.2676
30.1748 21.3387
30.3597 21.1011
30.5447 20.9159
30.7297 20.7702
30.915 20.8428
31.1002 20.7997
31.2855 20.246
31.4708 20.0249
31.6563 20.0833
31.8418 19.8335
32.0275 19.6259
32.2132 19.534
32.399 19.2601
32.5848 18.8444
32.7708 18.6185
32.9569 18.5043
33.143 18.304
33.3293 18.1019
33.5158 17.9721
33.7022 17.66
33.8887 17.4433
34.0753 17.256
34.262 16.9603
34.4488 16.8319
34.6357 16.6399
34.8227 16.4061
35.0098 16.277
35.1969 16.062
35.3842 15.8557
35.5716 15.7671
35.759 15.6611
35.9468 15.4484
36.1345 15.2621
36.3222 15.1594
36.5101 15.0005
36.6981 14.7858
36.8861 14.5434
37.0743 14.3123
37.2626 14.146
37.451 14.0324
37.6395 13.9817
37.8281 13.6982
38.0168 13.5798
38.2056 13.3264
38.3945 13.204
38.5837 13.06
38.7728 12.9037
38.9621 12.7849
39.1514 12.616
39.3409 12.4096
39.5304 12.2942
39.7201 12.1915
39.9099 12.0285
40.0999 11.8299
40.2899 11.754
40.48 11.5665
40.6703 11.4226
40.8607 11.3342
41.0512 11.204
41.242 10.9679
41.4327 10.8433
41.6236 10.7381
41.8146 10.5913
42.0057 10.4777
42.1969 10.3223
42.3882 10.1999
42.5797 10.058
42.7713 9.91663
42.963 9.80504
43.1549 9.70697
43.3468 9.56252
43.5389 9.45323
43.7312 9.27792
43.9237 9.14802
44.1162 9.03485
44.3088 8.90972
44.5016 8.74385
44.6945 8.73053
44.8875 8.5618
45.0806 8.44469
45.2739 8.3673
45.4673 8.22007
45.6609 8.14619
45.8546 8.01583
46.0484 7.92104
46.2424 7.77822
46.4365 7.67464
46.631 7.57684
46.8254 7.43015
47.0199 7.35581
47.2146 7.26684
47.4095 7.11261
47.6044 7.02881
47.7996 6.93843
47.9948 6.89273
48.1902 6.76135
48.3858 6.6386
48.5815 6.58621
48.7774 6.47479
48.9734 6.38791
49.1696 6.29279
49.3661 6.19046
49.5626 6.11534
49.7592 6.0282
49.956 5.95606
50.153 5.83028
50.3501 5.77189
50.5474 5.66513
50.7448 5.5851
50.9424 5.52992
51.1402 5.47117
51.3381 5.37774
51.5362 5.28448
51.7344 5.19252
51.9328 5.09648
52.1316 5.0009
52.3304 4.95525
52.5293 4.88766
52.7284 4.76278
52.9276 4.70216
53.1271 4.65528
53.3267 4.61017
53.5265 4.49891
53.7264 4.41222
53.9266 4.35891
54.1269 4.2671
54.3274 4.15317
54.528 4.01059
54.7289 3.89545
54.9301 3.77678
55.1314 3.66061
55.3328 3.5268
55.5344 3.35066
55.7361 3.25468