File: XRD/Ni3Fe_FD0893.xy
TT I
1.27165 7.58765
1.45013 6.13916
1.62863 5.4696
1.80712 5.18267
1.98562 4.22267
2.16411 4.86356
2.34263 6.01462
2.52115 8.05882
2.69965 9.18798
2.87818 9.59615
3.05672 11.1394
3.23527 14.9536
3.4138 18.9139
3.59237 23.782
3.77094 26.1625
3.9495 29.5676
4.12809 34.6226
4.30669 197.654
4.4853 62.9609
4.6639 54.6985
4.84253 66.2599
5.02118 85.0936
5.19981 299.527
5.37848 168.795
5.55716 99.6094
5.73586 90.6411
5.91455 91.5079
6.09328 4514.45
6.27201 79.9711
6.45075 66.3444
6.62952 61.8403
6.8083 57.6119
6.98711 55.0737
7.16591 54.2362
7.34475 86.3532
7.5236 53.8152
7.70247 55.302
7.88135 56.9286
8.06026 61.0963
8.23919 67.9572
8.41812 83.3052
8.59709 1180.57
8.77609 96.0107
8.9551 89.2602
9.13412 80.5598
9.31318 81.119
9.49226 82.617
9.67134 95.8746
9.85047 97.51
10.0296 312.414
10.2088 341.497
10.388 101.65
10.5672 534.401
10.7465 84.2625
10.9257 76.682
11.105 70.3529
11.2844 68.802
11.4637 63.7534
11.6431 62.4685
11.8225 61.2499
12.002 62.1067
12.1814 157.32
12.3609 68.4622
12.5405 63.1238
12.72 68.4165
12.8996 69.4948
13.0792 77.429
13.2589 235.005
13.4386 114.025
13.6183 249.978
13.7981 91.3268
13.9779 74.3876
14.1577 71.0111
14.3376 70.0303
14.5175 67.5204
14.6974 69.074
14.8774 106.952
15.0574 136.434
15.2374 69.1653
15.4175 65.1204
15.5976 64.6682
15.7778 91.4538
15.958 149.759
16.1382 61.2762
16.3185 57.3653
16.4988 54.3294
16.6792 53.6134
16.8596 54.0683
17.04 54.5779
17.2205 65.0854
17.401 68.0408
17.5815 57.7961
17.7622 60.0376
17.9428 71.2536
18.1237 140.78
18.3044 89.6799
18.4852 73.6471
18.666 59.4038
18.8469 56.8512
19.0278 55.8764
19.2088 58.1597
19.3898 76.0912
19.5709 53.1019
19.752 52.1219
19.9332 55.0685
20.1144 69.2891
20.2957 63.8815
20.477 52.264
20.6586 48.6986
20.84 47.7869
21.0215 47.7592
21.203 50.2272
21.3846 47.9004
21.5662 47.8423
21.7479 51.4922
21.9297 64.0616
22.1115 55.624
22.2933 48.6498
22.4753 47.9084
22.6572 47.9099
22.8393 50.8974
23.0214 56.2895
23.2037 47.8651
23.3859 48.6735
23.5682 56.8806
23.7505 46.9186
23.9329 44.4991
24.1154 43.3784
24.2979 42.6425
24.4805 42.0629
24.6631 42.0083
24.8458 41.5294
25.0286 41.9964
25.2114 43.9632
25.3943 43.7333
25.5773 40.3139
25.7605 39.7478
25.9436 40.037
26.1268 41.0429
26.31 39.3244
26.4933 39.9803
26.6767 41.5574
26.8601 39.8383
27.0437 38.2411
27.2272 37.8363
27.4109 37.6598
27.5946 37.7052
27.7784 37.2124
27.9623 37.8658
28.1462 38.1
28.3304 36.4478
28.5145 35.4
28.6987 35.0533
28.8829 34.8523
29.0673 34.0937
29.2517 33.7524
29.4361 33.424
29.6207 32.6078
29.8053 32.3658
29.99 31.9981
30.1748 31.9533
30.3597 31.653
30.5447 31.5754
30.7297 31.726
30.915 30.9671
31.1002 30.5608
31.2855 30.2896
31.4708 30.3874
31.6563 29.7802
31.8418 29.6674
32.0275 29.3954
32.2132 28.9051
32.399 28.3597
32.5848 28.0262
32.7708 27.7165
32.9569 27.5302
33.143 27.3513
33.3293 26.9481
33.5158 26.5439
33.7022 26.0473
33.8887 25.8601
34.0753 25.6211
34.262 25.1752
34.4488 24.9181
34.6357 24.5224
34.8227 24.265
35.0098 24.1419
35.1969 23.6731
35.3842 23.627
35.5716 23.3509
35.759 22.9926
35.9468 22.7001
36.1345 22.5681
36.3222 22.3329
36.5101 21.9641
36.6981 21.7352
36.8861 21.4208
37.0743 21.0581
37.2626 20.8531
37.451 20.651
37.6395 20.4708
37.8281 20.1458
38.0168 19.8376
38.2056 19.611
38.3945 19.3568
38.5837 19.1517
38.7728 18.8236
38.9621 18.62
39.1514 18.3876
39.3409 18.1642
39.5304 17.9771
39.7201 17.7852
39.9099 17.5734
40.0999 17.2875
40.2899 17.0323
40.48 16.7682
40.6703 16.6458
40.8607 16.4703
41.0512 16.2166
41.242 15.9858
41.4327 15.7996
41.6236 15.6066
41.8146 15.3983
42.0057 15.1696
42.1969 14.9208
42.3882 14.7704
42.5797 14.5883
42.7713 14.398
42.963 14.1705
43.1549 13.971
43.3468 13.7753
43.5389 13.6133
43.7312 13.4196
43.9237 13.2451
44.1162 13.0003
44.3088 12.8389
44.5016 12.6786
44.6945 12.5353
44.8875 12.3746
45.0806 12.1438
45.2739 12.0033
45.4673 11.8617
45.6609 11.6331
45.8546 11.5171
46.0484 11.3455
46.2424 11.1798
46.4365 11.0531
46.631 10.8413
46.8254 10.6754
47.0199 10.5391
47.2146 10.381
47.4095 10.2003
47.6044 10.0586
47.7996 9.9186
47.9948 9.76779
48.1902 9.61668
48.3858 9.50389
48.5815 9.36247
48.7774 9.20523
48.9734 9.09407
49.1696 8.93306
49.3661 8.8048
49.5626 8.65284
49.7592 8.5626
49.956 8.39278
50.153 8.28641
50.3501 8.17527
50.5474 8.01281
50.7448 7.91054
50.9424 7.77222
51.1402 7.69557
51.3381 7.50651
51.5362 7.40608
51.7344 7.32771
51.9328 7.14973
52.1316 7.07024
52.3304 6.96647
52.5293 6.84881
52.7284 6.74899
52.9276 6.63232
53.1271 6.53789
53.3267 6.41659
53.5265 6.27409
53.7264 6.16247
53.9266 6.10359
54.1269 5.96778
54.3274 5.84801
54.528 5.69733
54.7289 5.54656
54.9301 5.36104
55.1314 5.28912
55.3328 5.0413
55.5344 4.85203
55.7361 4.79709