File: XRD/Ni3Fe_FD0483.xy
TT I
1.27165 7.32763
1.45013 6.65084
1.62863 5.46796
1.80712 4.74506
1.98562 4.66149
2.16411 4.68529
2.34263 4.49339
2.52115 6.98771
2.69965 7.33126
2.87818 8.4457
3.05672 10.4437
3.23527 15.1462
3.4138 18.7749
3.59237 23.3736
3.77094 25.6871
3.9495 29.7943
4.12809 34.874
4.30669 106.958
4.4853 54.3555
4.6639 56.4379
4.84253 69.1475
5.02118 90.4131
5.19981 542.003
5.37848 207.432
5.55716 105.401
5.73586 95.2821
5.91455 99.1965
6.09328 4249.91
6.27201 83.264
6.45075 69.5077
6.62952 63.4287
6.8083 59.4737
6.98711 56.4508
7.16591 56.888
7.34475 69.0746
7.5236 54.7042
7.70247 57.3286
7.88135 58.5978
8.06026 63.4264
8.23919 70.5159
8.41812 86.1307
8.59709 1246.4
8.77609 101.531
8.9551 90.2572
9.13412 83.9731
9.31318 85.5808
9.49226 86.1646
9.67134 96.0544
9.85047 103.289
10.0296 414.638
10.2088 397.1
10.388 108.608
10.5672 499.613
10.7465 88.1437
10.9257 78.9297
11.105 72.5468
11.2844 69.7466
11.4637 65.8913
11.6431 64.3602
11.8225 63.6928
12.002 65.9096
12.1814 156.1
12.3609 68.2917
12.5405 65.6441
12.72 69.0346
12.8996 72.5356
13.0792 82.3246
13.2589 252.982
13.4386 125.064
13.6183 255.183
13.7981 97.4301
13.9779 77.149
14.1577 73.3213
14.3376 71.5911
14.5175 70.1702
14.6974 72.0727
14.8774 118.863
15.0574 148.113
15.2374 70.6549
15.4175 67.5884
15.5976 67.4045
15.7778 101.796
15.958 153.584
16.1382 62.4707
16.3185 58.7197
16.4988 56.182
16.6792 55.1571
16.8596 55.7907
17.04 57.183
17.2205 68.6665
17.401 71.353
17.5815 60.1756
17.7622 62.4204
17.9428 77.345
18.1237 140.6
18.3044 92.3184
18.4852 77.7478
18.666 61.4338
18.8469 58.9277
19.0278 57.7978
19.2088 60.884
19.3898 76.6157
19.5709 54.8829
19.752 54.3094
19.9332 57.6446
20.1144 70.6905
20.2957 64.2083
20.477 53.9417
20.6586 50.5624
20.84 49.705
21.0215 49.4193
21.203 51.4219
21.3846 49.588
21.5662 49.8225
21.7479 54.0385
21.9297 65.3866
22.1115 56.5413
22.2933 50.5393
22.4753 49.4138
22.6572 49.8997
22.8393 52.9272
23.0214 57.5778
23.2037 49.6159
23.3859 50.8521
23.5682 57.3858
23.7505 48.9309
23.9329 45.9752
24.1154 44.926
24.2979 43.9801
24.4805 43.5172
24.6631 43.4396
24.8458 42.8836
25.0286 43.583
25.2114 45.3583
25.3943 45.2258
25.5773 41.5506
25.7605 41.0119
25.9436 41.5661
26.1268 42.3733
26.31 40.803
26.4933 41.5308
26.6767 42.8564
26.8601 41.022
27.0437 39.4835
27.2272 39.0345
27.4109 38.9764
27.5946 38.8393
27.7784 38.4335
27.9623 38.9431
28.1462 39.4177
28.3304 37.7299
28.5145 36.4889
28.6987 36.1227
28.8829 35.8664
29.0673 35.1834
29.2517 34.9064
29.4361 34.5855
29.6207 33.6436
29.8053 33.407
29.99 33.0681
30.1748 32.9213
30.3597 32.7582
30.5447 32.6923
30.7297 32.7238
30.915 31.997
31.1002 31.5719
31.2855 31.3281
31.4708 31.2945
31.6563 30.8045
31.8418 30.6555
32.0275 30.3832
32.2132 29.7979
32.399 29.3104
32.5848 28.8782
32.7708 28.6256
32.9569 28.4423
33.143 28.2508
33.3293 27.7885
33.5158 27.4493
33.7022 26.9072
33.8887 26.6865
34.0753 26.389
34.262 25.9923
34.4488 25.7346
34.6357 25.3045
34.8227 25.0328
35.0098 24.8784
35.1969 24.4913
35.3842 24.3454
35.5716 24.1329
35.759 23.7906
35.9468 23.3885
36.1345 23.2686
36.3222 22.9879
36.5101 22.7503
36.6981 22.4177
36.8861 22.1204
37.0743 21.7937
37.2626 21.5593
37.451 21.3577
37.6395 21.1445
37.8281 20.7857
38.0168 20.5003
38.2056 20.1755
38.3945 19.9237
38.5837 19.7415
38.7728 19.5308
38.9621 19.2202
39.1514 18.8927
39.3409 18.7387
39.5304 18.4937
39.7201 18.3115
39.9099 18.0697
40.0999 17.8419
40.2899 17.6036
40.48 17.3497
40.6703 17.1498
40.8607 17.0345
41.0512 16.7875
41.242 16.4974
41.4327 16.2825
41.6236 16.0413
41.8146 15.9165
42.0057 15.6268
42.1969 15.3874
42.3882 15.2276
42.5797 14.9982
42.7713 14.8066
42.963 14.6226
43.1549 14.4007
43.3468 14.1801
43.5389 14.0159
43.7312 13.8431
43.9237 13.6213
44.1162 13.4792
44.3088 13.3025
44.5016 13.0546
44.6945 12.9277
44.8875 12.7162
45.0806 12.5279
45.2739 12.3471
45.4673 12.1993
45.6609 11.9732
45.8546 11.8471
46.0484 11.6691
46.2424 11.5019
46.4365 11.3345
46.631 11.2024
46.8254 10.9734
47.0199 10.8519
47.2146 10.6683
47.4095 10.5159
47.6044 10.3549
47.7996 10.2001
47.9948 10.0799
48.1902 9.95062
48.3858 9.77866
48.5815 9.67304
48.7774 9.50067
48.9734 9.38899
49.1696 9.21288
49.3661 9.08171
49.5626 8.8996
49.7592 8.7858
49.956 8.6964
50.153 8.55673
50.3501 8.39807
50.5474 8.2907
50.7448 8.16459
50.9424 7.99939
51.1402 7.91635
51.3381 7.7815
51.5362 7.64604
51.7344 7.53919
51.9328 7.40404
52.1316 7.28448
52.3304 7.1364
52.5293 7.04983
52.7284 6.9366
52.9276 6.80737
53.1271 6.69039
53.3267 6.58902
53.5265 6.49227
53.7264 6.32982
53.9266 6.23557
54.1269 6.13793
54.3274 6.03197
54.528 5.88493
54.7289 5.75553
54.9301 5.54851
55.1314 5.39808
55.3328 5.19193
55.5344 5.08356
55.7361 4.8853