File: XRD/Ni3Fe_FD0968.xy
TT I
1.27165 6.76045
1.45013 5.54833
1.62863 4.92553
1.80712 4.69939
1.98562 5.05125
2.16411 5.3983
2.34263 5.83587
2.52115 7.26505
2.69965 8.43681
2.87818 8.53122
3.05672 11.0934
3.23527 15.0572
3.4138 19.0444
3.59237 23.9016
3.77094 25.6005
3.9495 29.7469
4.12809 34.3045
4.30669 201.363
4.4853 63.1206
4.6639 54.5537
4.84253 66.0857
5.02118 84.8099
5.19981 280.181
5.37848 173.317
5.55716 99.8901
5.73586 90.1313
5.91455 91.1961
6.09328 4613.47
6.27201 80.2053
6.45075 65.9736
6.62952 61.8029
6.8083 57.7229
6.98711 55.1634
7.16591 54.6274
7.34475 87.2972
7.5236 53.8928
7.70247 55.187
7.88135 56.9686
8.06026 61.3015
8.23919 68.2095
8.41812 83.1104
8.59709 1147.4
8.77609 96.332
8.9551 89.3761
9.13412 80.2855
9.31318 81.1119
9.49226 83.1236
9.67134 95.9878
9.85047 97.7168
10.0296 301.583
10.2088 356.402
10.388 102.165
10.5672 527.632
10.7465 84.7674
10.9257 76.9079
11.105 70.8113
11.2844 69.0257
11.4637 63.9051
11.6431 62.6018
11.8225 61.0786
12.002 62.4147
12.1814 154.99
12.3609 68.7309
12.5405 63.2523
12.72 68.4328
12.8996 69.6642
13.0792 77.1161
13.2589 234.631
13.4386 119.241
13.6183 248.654
13.7981 94.2786
13.9779 74.4452
14.1577 70.872
14.3376 70.048
14.5175 67.4968
14.6974 68.4874
14.8774 106.136
15.0574 145.426
15.2374 69.5034
15.4175 65.1695
15.5976 64.2868
15.7778 90.923
15.958 149.68
16.1382 61.3256
16.3185 57.5685
16.4988 54.1397
16.6792 53.299
16.8596 54.5359
17.04 54.6537
17.2205 65.2841
17.401 69.2223
17.5815 58.0146
17.7622 59.9201
17.9428 70.9779
18.1237 137.392
18.3044 90.0569
18.4852 75.159
18.666 59.2775
18.8469 56.9709
19.0278 55.9615
19.2088 58.0625
19.3898 74.9641
19.5709 53.2528
19.752 52.0751
19.9332 54.9217
20.1144 68.7534
20.2957 63.7885
20.477 52.5117
20.6586 48.7624
20.84 47.7772
21.0215 47.8118
21.203 49.991
21.3846 47.9929
21.5662 47.9524
21.7479 51.2516
21.9297 63.4484
22.1115 55.2968
22.2933 48.7854
22.4753 47.8349
22.6572 47.7888
22.8393 50.8524
23.0214 56.0193
23.2037 47.8384
23.3859 48.5264
23.5682 56.4947
23.7505 47.1766
23.9329 44.3825
24.1154 43.2057
24.2979 42.6338
24.4805 42.2179
24.6631 41.9264
24.8458 41.4286
25.0286 42.0055
25.2114 43.857
25.3943 43.7394
25.5773 40.1678
25.7605 39.5425
25.9436 40.1519
26.1268 40.9428
26.31 39.3716
26.4933 39.9132
26.6767 41.3684
26.8601 39.7563
27.0437 38.1817
27.2272 37.8196
27.4109 37.7926
27.5946 37.5746
27.7784 37.1228
27.9623 37.6352
28.1462 38.1685
28.3304 36.5181
28.5145 35.3386
28.6987 35.0262
28.8829 34.6853
29.0673 34.1644
29.2517 33.7076
29.4361 33.4595
29.6207 32.6096
29.8053 32.2304
29.99 31.9644
30.1748 31.9195
30.3597 31.6538
30.5447 31.5527
30.7297 31.581
30.915 31.1003
31.1002 30.5221
31.2855 30.24
31.4708 30.2716
31.6563 29.8364
31.8418 29.6191
32.0275 29.3817
32.2132 28.9437
32.399 28.4362
32.5848 27.9293
32.7708 27.6699
32.9569 27.4742
33.143 27.2578
33.3293 26.9443
33.5158 26.5298
33.7022 26.0847
33.8887 25.9063
34.0753 25.5294
34.262 25.1735
34.4488 24.7982
34.6357 24.5076
34.8227 24.2915
35.0098 24.012
35.1969 23.7444
35.3842 23.6008
35.5716 23.3667
35.759 23.0188
35.9468 22.7259
36.1345 22.4782
36.3222 22.2577
36.5101 21.9372
36.6981 21.7065
36.8861 21.3893
37.0743 21.1988
37.2626 20.9019
37.451 20.6576
37.6395 20.4642
37.8281 20.1147
38.0168 19.863
38.2056 19.6083
38.3945 19.3299
38.5837 19.1582
38.7728 18.8789
38.9621 18.5956
39.1514 18.415
39.3409 18.1183
39.5304 17.886
39.7201 17.7613
39.9099 17.5005
40.0999 17.2937
40.2899 17.0871
40.48 16.7711
40.6703 16.6174
40.8607 16.4227
41.0512 16.274
41.242 15.9985
41.4327 15.732
41.6236 15.5348
41.8146 15.4201
42.0057 15.1515
42.1969 15.0009
42.3882 14.8029
42.5797 14.5894
42.7713 14.4739
42.963 14.171
43.1549 14.0148
43.3468 13.7517
43.5389 13.585
43.7312 13.4222
43.9237 13.2147
44.1162 13.034
44.3088 12.8529
44.5016 12.666
44.6945 12.4957
44.8875 12.3502
45.0806 12.1617
45.2739 11.9637
45.4673 11.8422
45.6609 11.6614
45.8546 11.4606
46.0484 11.3269
46.2424 11.1466
46.4365 11.0216
46.631 10.8209
46.8254 10.6292
47.0199 10.5046
47.2146 10.3384
47.4095 10.209
47.6044 10.0533
47.7996 9.92504
47.9948 9.75879
48.1902 9.68305
48.3858 9.53897
48.5815 9.37595
48.7774 9.2519
48.9734 9.12453
49.1696 8.97254
49.3661 8.77544
49.5626 8.64535
49.7592 8.55465
49.956 8.41474
50.153 8.28886
50.3501 8.12723
50.5474 8.04292
50.7448 7.92821
50.9424 7.80073
51.1402 7.6635
51.3381 7.54186
51.5362 7.42837
51.7344 7.284
51.9328 7.16089
52.1316 7.05804
52.3304 6.96595
52.5293 6.82775
52.7284 6.71594
52.9276 6.59154
53.1271 6.50269
53.3267 6.38721
53.5265 6.30386
53.7264 6.16371
53.9266 6.09395
54.1269 5.91763
54.3274 5.87127
54.528 5.73198
54.7289 5.54779
54.9301 5.41175
55.1314 5.264
55.3328 5.05901
55.5344 4.86939
55.7361 4.68667