File: XRD/Ni3Fe_FD0947.xy
TT I
1.27165 7.39304
1.45013 5.91307
1.62863 5.46539
1.80712 4.805
1.98562 4.92476
2.16411 4.69474
2.34263 5.07986
2.52115 7.74875
2.69965 8.69141
2.87818 9.60172
3.05672 11.2062
3.23527 15.405
3.4138 18.7916
3.59237 22.9572
3.77094 25.6422
3.9495 29.3341
4.12809 34.2142
4.30669 84.718
4.4853 51.8125
4.6639 55.4912
4.84253 68.1495
5.02118 87.4176
5.19981 339.954
5.37848 197.576
5.55716 101.539
5.73586 92.2737
5.91455 93.7504
6.09328 4602.46
6.27201 78.5549
6.45075 69.8241
6.62952 62.5497
6.8083 59.4058
6.98711 55.1188
7.16591 56.4221
7.34475 63.0775
7.5236 53.4408
7.70247 56.4145
7.88135 56.9797
8.06026 62.1643
8.23919 68.5442
8.41812 82.5818
8.59709 1205.02
8.77609 96.3886
8.9551 89.0532
9.13412 82.3277
9.31318 84.9538
9.49226 83.8505
9.67134 94.6111
9.85047 101.227
10.0296 332.673
10.2088 345.545
10.388 103.259
10.5672 545.061
10.7465 85.1944
10.9257 77.144
11.105 70.6209
11.2844 67.148
11.4637 63.9186
11.6431 62.5937
11.8225 62.036
12.002 63.3798
12.1814 158.544
12.3609 65.4415
12.5405 64.2741
12.72 66.8693
12.8996 70.8227
13.0792 78.9861
13.2589 246.215
13.4386 115.801
13.6183 258.419
13.7981 93.1741
13.9779 74.8731
14.1577 70.8059
14.3376 69.2715
14.5175 67.8792
14.6974 69.5345
14.8774 111.135
15.0574 138.863
15.2374 68.527
15.4175 65.5083
15.5976 64.7665
15.7778 94.7912
15.958 145.674
16.1382 60.3786
16.3185 56.8916
16.4988 54.5668
16.6792 53.8085
16.8596 53.9934
17.04 55.0462
17.2205 66.1272
17.401 68.4853
17.5815 58.3793
17.7622 60.0783
17.9428 72.4561
18.1237 137.503
18.3044 90.7781
18.4852 73.73
18.666 59.3971
18.8469 57.1941
19.0278 55.7092
19.2088 58.2677
19.3898 74.3514
19.5709 53.0827
19.752 52.2819
19.9332 55.1642
20.1144 69.3213
20.2957 63.8362
20.477 51.9761
20.6586 48.8767
20.84 48.1647
21.0215 47.8816
21.203 50.2606
21.3846 48.1124
21.5662 48.1859
21.7479 52.0122
21.9297 63.5023
22.1115 55.3046
22.2933 48.7192
22.4753 47.8456
22.6572 47.9874
22.8393 51.2014
23.0214 56.0175
23.2037 47.9981
23.3859 49.003
23.5682 56.5495
23.7505 47.1427
23.9329 44.4253
24.1154 43.508
24.2979 42.8003
24.4805 42.2597
24.6631 42.1886
24.8458 41.4101
25.0286 42.2237
25.2114 43.8441
25.3943 43.6694
25.5773 40.2812
25.7605 39.6744
25.9436 40.2413
26.1268 41.0632
26.31 39.4318
26.4933 40.0381
26.6767 41.5117
26.8601 39.7697
27.0437 38.2925
27.2272 37.9961
27.4109 37.8324
27.5946 37.7372
27.7784 37.2728
27.9623 37.8064
28.1462 38.1319
28.3304 36.4811
28.5145 35.3504
28.6987 34.9852
28.8829 34.8638
29.0673 34.1941
29.2517 33.8756
29.4361 33.5831
29.6207 32.5443
29.8053 32.304
29.99 32.0249
30.1748 31.9134
30.3597 31.8047
30.5447 31.5931
30.7297 31.6034
30.915 31.0808
31.1002 30.6937
31.2855 30.4163
31.4708 30.3202
31.6563 29.7618
31.8418 29.5477
32.0275 29.4027
32.2132 28.8767
32.399 28.4104
32.5848 28.0077
32.7708 27.7482
32.9569 27.5483
33.143 27.3504
33.3293 26.9594
33.5158 26.5749
33.7022 26.1666
33.8887 25.9156
34.0753 25.5361
34.262 25.2543
34.4488 24.9527
34.6357 24.5554
34.8227 24.3
35.0098 24.1715
35.1969 23.8384
35.3842 23.6135
35.5716 23.3379
35.759 23.0177
35.9468 22.7734
36.1345 22.5311
36.3222 22.3068
36.5101 22.028
36.6981 21.7164
36.8861 21.4193
37.0743 21.1343
37.2626 20.8982
37.451 20.5994
37.6395 20.4667
37.8281 20.117
38.0168 19.8216
38.2056 19.5959
38.3945 19.3295
38.5837 19.0865
38.7728 18.8262
38.9621 18.6211
39.1514 18.3604
39.3409 18.0535
39.5304 17.9247
39.7201 17.7467
39.9099 17.4767
40.0999 17.2832
40.2899 17.0217
40.48 16.853
40.6703 16.637
40.8607 16.4609
41.0512 16.2392
41.242 15.9801
41.4327 15.7981
41.6236 15.5501
41.8146 15.3576
42.0057 15.1377
42.1969 14.9586
42.3882 14.8359
42.5797 14.5197
42.7713 14.3991
42.963 14.1544
43.1549 13.949
43.3468 13.7656
43.5389 13.6389
43.7312 13.4459
43.9237 13.2175
44.1162 13.0659
44.3088 12.872
44.5016 12.6712
44.6945 12.4994
44.8875 12.3642
45.0806 12.1641
45.2739 11.9767
45.4673 11.8278
45.6609 11.6209
45.8546 11.5026
46.0484 11.3347
46.2424 11.1673
46.4365 10.991
46.631 10.8246
46.8254 10.6714
47.0199 10.5723
47.2146 10.3859
47.4095 10.2166
47.6044 10.0882
47.7996 9.93372
47.9948 9.75785
48.1902 9.62424
48.3858 9.48679
48.5815 9.36429
48.7774 9.19555
48.9734 9.06473
49.1696 8.95717
49.3661 8.81332
49.5626 8.65443
49.7592 8.58334
49.956 8.41695
50.153 8.2786
50.3501 8.17995
50.5474 8.00191
50.7448 7.90772
50.9424 7.79409
51.1402 7.67157
51.3381 7.54067
51.5362 7.44513
51.7344 7.29716
51.9328 7.18099
52.1316 7.05723
52.3304 6.95637
52.5293 6.83247
52.7284 6.72671
52.9276 6.58309
53.1271 6.51264
53.3267 6.36645
53.5265 6.31947
53.7264 6.14124
53.9266 6.06463
54.1269 5.98664
54.3274 5.87326
54.528 5.70645
54.7289 5.55845
54.9301 5.38797
55.1314 5.2451
55.3328 5.07528
55.5344 4.84704
55.7361 4.70078