File: XRD/Ni3Fe_FD0313.xy
TT I
1.27165 7.7444
1.45013 6.17599
1.62863 5.41843
1.80712 5.08747
1.98562 4.95064
2.16411 5.0553
2.34263 4.44266
2.52115 5.8891
2.69965 7.03381
2.87818 8.61296
3.05672 11.1536
3.23527 15.1347
3.4138 19.4149
3.59237 25.2827
3.77094 26.1423
3.9495 30.4513
4.12809 35.6881
4.30669 276.487
4.4853 72.9184
4.6639 56.8834
4.84253 69.237
5.02118 90.695
5.19981 485.237
5.37848 237.18
5.55716 106.267
5.73586 95.5293
5.91455 99.8711
6.09328 3841.75
6.27201 88.3179
6.45075 69.7544
6.62952 65.1248
6.8083 60.6981
6.98711 57.5217
7.16591 57.6113
7.34475 106.596
7.5236 56.3489
7.70247 57.7893
7.88135 59.5475
8.06026 64.0967
8.23919 71.8494
8.41812 89.187
8.59709 1048.63
8.77609 105.731
8.9551 96.4012
9.13412 84.4342
9.31318 85.1864
9.49226 86.7025
9.67134 104.417
9.85047 103.022
10.0296 373.06
10.2088 521.101
10.388 109.492
10.5672 474.77
10.7465 89.4536
10.9257 81.3691
11.105 74.2152
11.2844 73.151
11.4637 66.8753
11.6431 65.5158
11.8225 64.3234
12.002 65.7231
12.1814 141.864
12.3609 75.4573
12.5405 66.5891
12.72 73.4146
12.8996 73.1091
13.0792 81.2493
13.2589 220.339
13.4386 139.105
13.6183 223.219
13.7981 106.259
13.9779 78.0797
14.1577 75.1915
14.3376 74.2355
14.5175 71.0182
14.6974 72.5155
14.8774 110.598
15.0574 165.743
15.2374 74.1874
15.4175 68.5128
15.5976 67.9013
15.7778 95.6307
15.958 176.661
16.1382 65.5429
16.3185 60.8387
16.4988 57.4177
16.6792 56.374
16.8596 56.9989
17.04 57.6436
17.2205 67.3553
17.401 75.6727
17.5815 61.179
17.7622 63.1807
17.9428 76.6465
18.1237 141.054
18.3044 89.7708
18.4852 83.1396
18.666 62.4703
18.8469 59.9394
19.0278 58.8847
19.2088 61.7121
19.3898 78.6062
19.5709 56.0296
19.752 55.0789
19.9332 57.89
20.1144 71.7771
20.2957 64.2023
20.477 56.1494
20.6586 51.2594
20.84 50.2913
21.0215 50.232
21.203 52.1264
21.3846 50.5768
21.5662 50.3194
21.7479 53.9279
21.9297 66.7497
22.1115 57.2511
22.2933 51.8337
22.4753 50.5728
22.6572 50.4627
22.8393 53.1114
23.0214 59.8017
23.2037 50.4215
23.3859 51.4159
23.5682 57.7566
23.7505 50.3482
23.9329 46.7051
24.1154 45.6637
24.2979 44.8742
24.4805 44.2047
24.6631 44.4148
24.8458 43.6462
25.0286 44.0612
25.2114 45.9474
25.3943 46.2763
25.5773 42.2141
25.7605 41.836
25.9436 42.1122
26.1268 43.0507
26.31 41.4301
26.4933 41.912
26.6767 43.4661
26.8601 41.8734
27.0437 40.1712
27.2272 39.7753
27.4109 39.4674
27.5946 39.7619
27.7784 38.9753
27.9623 39.4085
28.1462 40.1206
28.3304 38.4247
28.5145 37.0616
28.6987 36.7315
28.8829 36.5742
29.0673 35.8699
29.2517 35.4151
29.4361 35.2968
29.6207 34.2774
29.8053 34.032
29.99 33.5702
30.1748 33.5521
30.3597 33.3548
30.5447 33.1824
30.7297 33.3187
30.915 32.6392
31.1002 32.1312
31.2855 31.8419
31.4708 31.8668
31.6563 31.3888
31.8418 31.0838
32.0275 30.8575
32.2132 30.3384
32.399 29.9206
32.5848 29.5132
32.7708 29.0942
32.9569 28.9339
33.143 28.6964
33.3293 28.3179
33.5158 27.9717
33.7022 27.4615
33.8887 27.1201
34.0753 26.8492
34.262 26.4576
34.4488 26.0349
34.6357 25.8848
34.8227 25.5197
35.0098 25.2664
35.1969 25.0462
35.3842 24.7649
35.5716 24.5242
35.759 24.1724
35.9468 23.8213
36.1345 23.6128
36.3222 23.3514
36.5101 23.1316
36.6981 22.8388
36.8861 22.4983
37.0743 22.2449
37.2626 21.9487
37.451 21.6671
37.6395 21.4548
37.8281 21.1284
38.0168 20.9011
38.2056 20.6131
38.3945 20.2754
38.5837 20.1428
38.7728 19.868
38.9621 19.5468
39.1514 19.293
39.3409 19.0206
39.5304 18.8709
39.7201 18.6511
39.9099 18.5069
40.0999 18.1753
40.2899 17.9044
40.48 17.7094
40.6703 17.5148
40.8607 17.2746
41.0512 17.0065
41.242 16.8203
41.4327 16.581
41.6236 16.3501
41.8146 16.1473
42.0057 15.9285
42.1969 15.7221
42.3882 15.5209
42.5797 15.3063
42.7713 15.1264
42.963 14.8589
43.1549 14.6509
43.3468 14.4592
43.5389 14.2515
43.7312 14.0664
43.9237 13.8997
44.1162 13.6897
44.3088 13.5199
44.5016 13.3089
44.6945 13.1611
44.8875 12.9958
45.0806 12.7866
45.2739 12.6066
45.4673 12.4443
45.6609 12.2582
45.8546 12.0879
46.0484 11.8962
46.2424 11.7976
46.4365 11.5852
46.631 11.3931
46.8254 11.2066
47.0199 11.0601
47.2146 10.9237
47.4095 10.7434
47.6044 10.551
47.7996 10.4021
47.9948 10.235
48.1902 10.1127
48.3858 10.0018
48.5815 9.84084
48.7774 9.70753
48.9734 9.54215
49.1696 9.39064
49.3661 9.27424
49.5626 9.10747
49.7592 8.99076
49.956 8.83812
50.153 8.73483
50.3501 8.5516
50.5474 8.41516
50.7448 8.31997
50.9424 8.18491
51.1402 8.07585
51.3381 7.9149
51.5362 7.78278
51.7344 7.68811
51.9328 7.55124
52.1316 7.47488
52.3304 7.29443
52.5293 7.15845
52.7284 7.06713
52.9276 6.94708
53.1271 6.8347
53.3267 6.71713
53.5265 6.61791
53.7264 6.46105
53.9266 6.33497
54.1269 6.23723
54.3274 6.15717
54.528 5.9628
54.7289 5.77591
54.9301 5.63227
55.1314 5.53712
55.3328 5.30662
55.5344 5.09957
55.7361 4.97948