File: XRD/Ni3Fe_FD1040.xy
TT I
1.27165 6.92054
1.45013 5.75638
1.62863 5.05681
1.80712 4.62727
1.98562 4.44798
2.16411 4.85105
2.34263 5.61869
2.52115 7.55919
2.69965 8.76877
2.87818 9.0572
3.05672 10.6423
3.23527 14.2727
3.4138 18.1085
3.59237 21.2746
3.77094 25.0361
3.9495 28.2002
4.12809 32.5461
4.30669 57.0838
4.4853 46.8075
4.6639 52.409
4.84253 63.7971
5.02118 83.2983
5.19981 231.869
5.37848 215.782
5.55716 97.0776
5.73586 87.6399
5.91455 88.9337
6.09328 4566.7
6.27201 75.9516
6.45075 63.6598
6.62952 57.8264
6.8083 54.9511
6.98711 52.4733
7.16591 51.7366
7.34475 56.2879
7.5236 59.5215
7.70247 52.8013
7.88135 54.5229
8.06026 58.9668
8.23919 66.0309
8.41812 77.7158
8.59709 1074.36
8.77609 94.8446
8.9551 82.1948
9.13412 79.2101
9.31318 90.3571
9.49226 81.0828
9.67134 86.2594
9.85047 93.893
10.0296 344.129
10.2088 439.196
10.388 97.7258
10.5672 505.214
10.7465 86.5551
10.9257 73.4256
11.105 67.9014
11.2844 64.8115
11.4637 61.7179
11.6431 60.5526
11.8225 59.4539
12.002 67.2121
12.1814 146.958
12.3609 64.351
12.5405 61.4286
12.72 63.8048
12.8996 67.9835
13.0792 76.5741
13.2589 226.839
13.4386 126.935
13.6183 235.719
13.7981 100.308
13.9779 73.4229
14.1577 75.7842
14.3376 67.0305
14.5175 66.1954
14.6974 67.5781
14.8774 109.153
15.0574 161.189
15.2374 66.5306
15.4175 63.9406
15.5976 63.3153
15.7778 93.7516
15.958 166.864
16.1382 60.0391
16.3185 55.4616
16.4988 53.3617
16.6792 52.5723
16.8596 52.8057
17.04 53.6784
17.2205 64.6424
17.401 71.6219
17.5815 57.2022
17.7622 59.8343
17.9428 72.94
18.1237 141.838
18.3044 88.479
18.4852 79.1724
18.666 58.7843
18.8469 56.188
19.0278 54.942
19.2088 57.8246
19.3898 76.1175
19.5709 53.028
19.752 51.7652
19.9332 54.9049
20.1144 70.1912
20.2957 63.1019
20.477 52.7503
20.6586 48.2251
20.84 47.6681
21.0215 47.2128
21.203 49.4498
21.3846 47.6881
21.5662 47.4204
21.7479 51.7058
21.9297 65.1759
22.1115 55.8581
22.2933 48.9824
22.4753 47.4955
22.6572 47.5909
22.8393 50.9473
23.0214 57.3481
23.2037 47.5937
23.3859 49.3359
23.5682 57.1245
23.7505 47.8866
23.9329 44.1334
24.1154 43.1567
24.2979 42.2976
24.4805 42.0486
24.6631 41.9135
24.8458 41.2567
25.0286 42.0364
25.2114 44.2063
25.3943 44.2313
25.5773 39.9774
25.7605 39.5496
25.9436 39.912
26.1268 41.2082
26.31 39.2222
26.4933 39.9012
26.6767 41.7477
26.8601 40.0262
27.0437 38.2121
27.2272 37.7273
27.4109 37.579
27.5946 37.809
27.7784 37.2827
27.9623 37.8242
28.1462 38.516
28.3304 36.6591
28.5145 35.3068
28.6987 34.9748
28.8829 34.6609
29.0673 34.1057
29.2517 33.6871
29.4361 33.6347
29.6207 32.4968
29.8053 32.207
29.99 31.9164
30.1748 31.8492
30.3597 31.6629
30.5447 31.5426
30.7297 31.7982
30.915 31.16
31.1002 30.607
31.2855 30.4271
31.4708 30.3489
31.6563 29.8783
31.8418 29.7535
32.0275 29.4579
32.2132 28.77
32.399 28.3896
32.5848 27.9741
32.7708 27.6159
32.9569 27.487
33.143 27.3468
33.3293 26.9573
33.5158 26.5683
33.7022 26.1302
33.8887 25.8679
34.0753 25.485
34.262 25.1662
34.4488 24.8218
34.6357 24.5374
34.8227 24.2447
35.0098 24.1056
35.1969 23.7959
35.3842 23.6214
35.5716 23.3606
35.759 23.0586
35.9468 22.7406
36.1345 22.5937
36.3222 22.2071
36.5101 22.0601
36.6981 21.7666
36.8861 21.484
37.0743 21.1773
37.2626 20.8727
37.451 20.5744
37.6395 20.4751
37.8281 20.11
38.0168 19.8704
38.2056 19.5976
38.3945 19.3135
38.5837 19.1294
38.7728 18.8892
38.9621 18.5746
39.1514 18.3666
39.3409 18.1882
39.5304 17.8927
39.7201 17.7204
39.9099 17.5652
40.0999 17.3169
40.2899 17.0772
40.48 16.8072
40.6703 16.5732
40.8607 16.4999
41.0512 16.2788
41.242 15.9536
41.4327 15.7963
41.6236 15.5083
41.8146 15.3875
42.0057 15.1712
42.1969 14.9469
42.3882 14.7869
42.5797 14.5675
42.7713 14.3571
42.963 14.1659
43.1549 13.9638
43.3468 13.7502
43.5389 13.5977
43.7312 13.3738
43.9237 13.2364
44.1162 12.9968
44.3088 12.8873
44.5016 12.6744
44.6945 12.5253
44.8875 12.3426
45.0806 12.1508
45.2739 11.9768
45.4673 11.8061
45.6609 11.6329
45.8546 11.459
46.0484 11.3086
46.2424 11.1542
46.4365 11.0097
46.631 10.8774
46.8254 10.623
47.0199 10.4981
47.2146 10.3697
47.4095 10.1797
47.6044 10.079
47.7996 9.89384
47.9948 9.82191
48.1902 9.65309
48.3858 9.51336
48.5815 9.35164
48.7774 9.26
48.9734 9.093
49.1696 8.97831
49.3661 8.77505
49.5626 8.64971
49.7592 8.53184
49.956 8.43122
50.153 8.27934
50.3501 8.14981
50.5474 7.98553
50.7448 7.90927
50.9424 7.81295
51.1402 7.65913
51.3381 7.53761
51.5362 7.44431
51.7344 7.29484
51.9328 7.15516
52.1316 7.05251
52.3304 6.95366
52.5293 6.80958
52.7284 6.69404
52.9276 6.57701
53.1271 6.52313
53.3267 6.39994
53.5265 6.2697
53.7264 6.14981
53.9266 6.07968
54.1269 5.93745
54.3274 5.81785
54.528 5.70458
54.7289 5.47873
54.9301 5.41979
55.1314 5.26506
55.3328 5.05904
55.5344 4.87931
55.7361 4.73023