File: XRD/Ni3Fe_FD0553.xy
TT I
1.27165 7.10548
1.45013 5.96608
1.62863 5.45657
1.80712 4.97546
1.98562 4.53489
2.16411 4.75971
2.34263 5.24765
2.52115 6.86218
2.69965 8.32919
2.87818 8.42686
3.05672 11.3489
3.23527 15.4059
3.4138 19.6348
3.59237 23.485
3.77094 25.9238
3.9495 29.6637
4.12809 34.7364
4.30669 174.46
4.4853 61.4038
4.6639 55.6646
4.84253 68.1589
5.02118 88.6247
5.19981 405.532
5.37848 196.721
5.55716 103.194
5.73586 93.2528
5.91455 96.7405
6.09328 4365.05
6.27201 83.2217
6.45075 67.9669
6.62952 62.8676
6.8083 58.9952
6.98711 56.0428
7.16591 55.2829
7.34475 83.5545
7.5236 55.0092
7.70247 56.5728
7.88135 58.3544
8.06026 63.3005
8.23919 70.2089
8.41812 86.0939
8.59709 1221.37
8.77609 100.335
8.9551 91.0727
9.13412 82.6082
9.31318 82.9991
9.49226 85.4295
9.67134 97.3153
9.85047 100.697
10.0296 369.628
10.2088 382.352
10.388 105.571
10.5672 516.879
10.7465 87.0789
10.9257 78.4694
11.105 72.3601
11.2844 70.2745
11.4637 65.3416
11.6431 63.901
11.8225 62.8495
12.002 64.3847
12.1814 153.971
12.3609 69.4599
12.5405 64.898
12.72 69.6866
12.8996 71.6176
13.0792 79.9532
13.2589 246.241
13.4386 121.903
13.6183 254.999
13.7981 96.8585
13.9779 76.2004
14.1577 72.6511
14.3376 71.6912
14.5175 69.594
14.6974 70.9771
14.8774 114.328
15.0574 145.488
15.2374 71.0088
15.4175 66.6249
15.5976 66.3673
15.7778 97.8776
15.958 154.088
16.1382 62.8602
16.3185 58.8893
16.4988 55.9644
16.6792 54.9624
16.8596 55.6218
17.04 56.2095
17.2205 67.5279
17.401 70.9572
17.5815 59.6253
17.7622 61.7979
17.9428 75.2443
18.1237 141.562
18.3044 91.6161
18.4852 77.2025
18.666 60.9164
18.8469 58.5156
19.0278 57.1001
19.2088 60.0219
19.3898 76.3984
19.5709 54.3982
19.752 53.6802
19.9332 56.9124
20.1144 70.5826
20.2957 64.3306
20.477 53.6679
20.6586 50.003
20.84 49.2801
21.0215 49.0783
21.203 51.1971
21.3846 49.2467
21.5662 49.2002
21.7479 53.1889
21.9297 65.0771
22.1115 56.2961
22.2933 50.1798
22.4753 49.1904
22.6572 49.2862
22.8393 52.5179
23.0214 57.5388
23.2037 49.1242
23.3859 50.269
23.5682 57.1599
23.7505 48.3593
23.9329 45.4949
24.1154 44.4837
24.2979 43.8346
24.4805 43.2151
24.6631 43.1368
24.8458 42.5543
25.0286 43.2294
25.2114 45.1066
25.3943 44.8689
25.5773 41.0173
25.7605 40.8172
25.9436 41.0935
26.1268 41.9001
26.31 40.3406
26.4933 41.074
26.6767 42.4914
26.8601 40.6995
27.0437 39.182
27.2272 38.9036
27.4109 38.537
27.5946 38.6641
27.7784 38.1728
27.9623 38.8434
28.1462 39.0113
28.3304 37.4521
28.5145 36.1448
28.6987 35.9038
28.8829 35.7738
29.0673 34.9257
29.2517 34.5421
29.4361 34.274
29.6207 33.345
29.8053 33.0814
29.99 32.8759
30.1748 32.7019
30.3597 32.4785
30.5447 32.4364
30.7297 32.4392
30.915 31.8219
31.1002 31.3305
31.2855 31.106
31.4708 30.972
31.6563 30.5006
31.8418 30.36
32.0275 30.1632
32.2132 29.5253
32.399 29.0836
32.5848 28.7087
32.7708 28.3384
32.9569 28.1347
33.143 27.9812
33.3293 27.517
33.5158 27.1866
33.7022 26.8286
33.8887 26.4435
34.0753 26.1372
34.262 25.8417
34.4488 25.4033
34.6357 25.1129
34.8227 24.8387
35.0098 24.6714
35.1969 24.3556
35.3842 24.1284
35.5716 23.8705
35.759 23.596
35.9468 23.3089
36.1345 23.0686
36.3222 22.8236
36.5101 22.5524
36.6981 22.266
36.8861 21.8886
37.0743 21.6897
37.2626 21.4043
37.451 21.0927
37.6395 20.9685
37.8281 20.6084
38.0168 20.392
38.2056 20.101
38.3945 19.8282
38.5837 19.5738
38.7728 19.3693
38.9621 19.0895
39.1514 18.8242
39.3409 18.5636
39.5304 18.3953
39.7201 18.2177
39.9099 17.981
40.0999 17.6542
40.2899 17.5593
40.48 17.2888
40.6703 17.0216
40.8607 16.8548
41.0512 16.6837
41.242 16.3755
41.4327 16.1232
41.6236 15.9532
41.8146 15.7674
42.0057 15.4627
42.1969 15.3028
42.3882 15.1599
42.5797 14.8521
42.7713 14.7475
42.963 14.4621
43.1549 14.3381
43.3468 14.1032
43.5389 13.9331
43.7312 13.7405
43.9237 13.5263
44.1162 13.3592
44.3088 13.1576
44.5016 12.9874
44.6945 12.7951
44.8875 12.6626
45.0806 12.455
45.2739 12.2843
45.4673 12.1326
45.6609 11.9487
45.8546 11.7678
46.0484 11.6103
46.2424 11.4244
46.4365 11.2875
46.631 11.0883
46.8254 10.8961
47.0199 10.763
47.2146 10.6448
47.4095 10.4611
47.6044 10.2934
47.7996 10.1756
47.9948 10.0154
48.1902 9.85398
48.3858 9.71271
48.5815 9.54239
48.7774 9.45961
48.9734 9.32115
49.1696 9.19077
49.3661 9.00793
49.5626 8.88673
49.7592 8.74179
49.956 8.62619
50.153 8.49264
50.3501 8.36029
50.5474 8.20229
50.7448 8.13731
50.9424 8.00437
51.1402 7.88017
51.3381 7.72807
51.5362 7.58662
51.7344 7.46628
51.9328 7.32416
52.1316 7.21208
52.3304 7.15386
52.5293 6.96431
52.7284 6.88546
52.9276 6.7577
53.1271 6.67325
53.3267 6.55636
53.5265 6.41437
53.7264 6.31714
53.9266 6.17971
54.1269 6.13179
54.3274 5.98443
54.528 5.83817
54.7289 5.63424
54.9301 5.52141
55.1314 5.3977
55.3328 5.17236
55.5344 5.02526
55.7361 4.86566