File: XRD/Ni3Fe_FD1068.xy
TT I
1.27165 7.04798
1.45013 5.69512
1.62863 4.86742
1.80712 4.6024
1.98562 4.3171
2.16411 4.14181
2.34263 5.36323
2.52115 7.0848
2.69965 8.56898
2.87818 8.4644
3.05672 10.4555
3.23527 14.6411
3.4138 17.92
3.59237 21.3627
3.77094 24.4854
3.9495 28.0087
4.12809 32.1156
4.30669 56.5339
4.4853 46.2519
4.6639 52.7124
4.84253 64.0188
5.02118 82.7138
5.19981 228.888
5.37848 209.586
5.55716 97.5175
5.73586 88.0614
5.91455 89.0385
6.09328 4559.51
6.27201 75.9902
6.45075 63.5403
6.62952 57.8573
6.8083 54.3221
6.98711 52.7602
7.16591 51.3634
7.34475 56.0339
7.5236 58.3106
7.70247 52.991
7.88135 54.9497
8.06026 59.0296
8.23919 65.6127
8.41812 77.8359
8.59709 1103.64
8.77609 95.0724
8.9551 82.5744
9.13412 78.919
9.31318 88.8884
9.49226 81.1713
9.67134 86.6191
9.85047 93.9943
10.0296 347.601
10.2088 453.483
10.388 97.8298
10.5672 511.441
10.7465 86.3155
10.9257 73.6597
11.105 68.0314
11.2844 64.6838
11.4637 62.0546
11.6431 60.7097
11.8225 59.8331
12.002 66.031
12.1814 146.777
12.3609 64.8357
12.5405 61.5936
12.72 64.0032
12.8996 68.1011
13.0792 76.833
13.2589 229.264
13.4386 127.428
13.6183 236.927
13.7981 100.212
13.9779 73.6405
14.1577 74.901
14.3376 67.3664
14.5175 66.3071
14.6974 67.5165
14.8774 110.163
15.0574 160.229
15.2374 66.7294
15.4175 64.2762
15.5976 63.4202
15.7778 95.0707
15.958 169.969
16.1382 59.8461
16.3185 55.6243
16.4988 53.266
16.6792 52.4632
16.8596 52.7971
17.04 53.9271
17.2205 64.8876
17.401 72.5605
17.5815 57.3353
17.7622 59.9524
17.9428 73.4504
18.1237 142.639
18.3044 88.7528
18.4852 79.3326
18.666 59.222
18.8469 56.6923
19.0278 55.2137
19.2088 58.0883
19.3898 76.2396
19.5709 53.0418
19.752 51.8051
19.9332 55.346
20.1144 70.6188
20.2957 63.7152
20.477 52.8545
20.6586 48.4874
20.84 47.8462
21.0215 47.4199
21.203 49.5813
21.3846 47.9591
21.5662 47.7053
21.7479 52.1148
21.9297 65.479
22.1115 55.7634
22.2933 49.1285
22.4753 47.5642
22.6572 47.7676
22.8393 51.396
23.0214 57.4367
23.2037 47.8595
23.3859 49.4965
23.5682 57.2779
23.7505 48.497
23.9329 44.3387
24.1154 43.2247
24.2979 42.5208
24.4805 41.9597
24.6631 42.0022
24.8458 41.3582
25.0286 42.0827
25.2114 44.3991
25.3943 44.4071
25.5773 40.2003
25.7605 39.7178
25.9436 40.2005
26.1268 41.4478
26.31 39.4768
26.4933 40.1217
26.6767 42.0072
26.8601 40.2009
27.0437 38.3238
27.2272 37.9494
27.4109 37.8198
27.5946 37.9352
27.7784 37.3614
27.9623 37.8628
28.1462 38.6761
28.3304 36.846
28.5145 35.4182
28.6987 34.9946
28.8829 34.9661
29.0673 34.0973
29.2517 33.7679
29.4361 33.7539
29.6207 32.7112
29.8053 32.2776
29.99 32.1028
30.1748 31.9963
30.3597 31.8515
30.5447 31.886
30.7297 31.8457
30.915 31.3464
31.1002 30.7305
31.2855 30.4632
31.4708 30.4856
31.6563 30.0629
31.8418 29.7101
32.0275 29.6108
32.2132 29.0365
32.399 28.4824
32.5848 28.1191
32.7708 27.7823
32.9569 27.5966
33.143 27.418
33.3293 27.1565
33.5158 26.6904
33.7022 26.2599
33.8887 26.0371
34.0753 25.6947
34.262 25.2361
34.4488 24.8971
34.6357 24.6663
34.8227 24.3903
35.0098 24.1228
35.1969 23.8756
35.3842 23.6722
35.5716 23.5108
35.759 23.2109
35.9468 22.8604
36.1345 22.66
36.3222 22.353
36.5101 22.1837
36.6981 21.8918
36.8861 21.5191
37.0743 21.2306
37.2626 21.0227
37.451 20.7949
37.6395 20.5355
37.8281 20.2662
38.0168 19.9674
38.2056 19.7151
38.3945 19.3347
38.5837 19.1895
38.7728 18.9612
38.9621 18.7206
39.1514 18.47
39.3409 18.2407
39.5304 18.0286
39.7201 17.7843
39.9099 17.612
40.0999 17.3674
40.2899 17.1158
40.48 16.9316
40.6703 16.6877
40.8607 16.5332
41.0512 16.3073
41.242 16.0682
41.4327 15.8397
41.6236 15.6623
41.8146 15.4923
42.0057 15.2369
42.1969 15.0206
42.3882 14.8793
42.5797 14.6323
42.7713 14.4372
42.963 14.2673
43.1549 14.0468
43.3468 13.8735
43.5389 13.6745
43.7312 13.4656
43.9237 13.2681
44.1162 13.0574
44.3088 12.8473
44.5016 12.7241
44.6945 12.5928
44.8875 12.3587
45.0806 12.1707
45.2739 12.0274
45.4673 11.8945
45.6609 11.6867
45.8546 11.5456
46.0484 11.3711
46.2424 11.2157
46.4365 11.0643
46.631 10.8784
46.8254 10.7288
47.0199 10.5751
47.2146 10.4235
47.4095 10.2519
47.6044 10.0774
47.7996 9.95339
47.9948 9.76853
48.1902 9.70234
48.3858 9.53715
48.5815 9.41299
48.7774 9.27659
48.9734 9.15285
49.1696 9.01946
49.3661 8.82998
49.5626 8.69804
49.7592 8.58663
49.956 8.48313
50.153 8.3345
50.3501 8.17849
50.5474 8.09766
50.7448 7.97397
50.9424 7.85651
51.1402 7.68156
51.3381 7.54896
51.5362 7.44686
51.7344 7.32291
51.9328 7.19179
52.1316 7.08845
52.3304 6.99802
52.5293 6.83619
52.7284 6.73048
52.9276 6.63316
53.1271 6.51838
53.3267 6.4217
53.5265 6.30684
53.7264 6.19339
53.9266 6.03578
54.1269 5.99781
54.3274 5.81727
54.528 5.72294
54.7289 5.52805
54.9301 5.41395
55.1314 5.27541
55.3328 5.07067
55.5344 4.91965
55.7361 4.77593