File: XRD/Ni3Fe_FD0150.xy
TT I
1.27165 7.84228
1.45013 6.84
1.62863 5.40422
1.80712 5.11249
1.98562 5.12607
2.16411 4.4571
2.34263 4.78221
2.52115 4.25518
2.69965 5.65674
2.87818 7.81608
3.05672 10.9669
3.23527 14.7288
3.4138 18.664
3.59237 21.824
3.77094 25.129
3.9495 28.3401
4.12809 32.7759
4.30669 37.5175
4.4853 44.5735
4.6639 53.2927
4.84253 66.6018
5.02118 90.4834
5.19981 550.508
5.37848 451.289
5.55716 107.501
5.73586 95.4823
5.91455 104.933
6.09328 2699.15
6.27201 89.1943
6.45075 66.0296
6.62952 59.6112
6.8083 55.2244
6.98711 53.001
7.16591 52.0321
7.34475 52.0495
7.5236 55.823
7.70247 53.88
7.88135 55.9353
8.06026 60.3506
8.23919 67.7126
8.41812 83.2636
8.59709 884.28
8.77609 116.015
8.9551 84.8722
9.13412 81.2297
9.31318 86.2919
9.49226 83.069
9.67134 88.2588
9.85047 98.3898
10.0296 545.567
10.2088 984.457
10.388 103.914
10.5672 329.342
10.7465 90.2762
10.9257 75.3523
11.105 70.1283
11.2844 66.1363
11.4637 63.3918
11.6431 61.5237
11.8225 60.9775
12.002 65.1525
12.1814 117.679
12.3609 75.0978
12.5405 62.7264
12.72 64.9685
12.8996 69.4594
13.0792 78.8276
13.2589 203.269
13.4386 210.357
13.6183 191.504
13.7981 153.088
13.9779 75.8577
14.1577 74.1049
14.3376 68.7731
14.5175 68.0157
14.6974 69.5844
14.8774 120.609
15.0574 203.21
15.2374 68.8145
15.4175 65.7041
15.5976 65.5467
15.7778 107.105
15.958 183.662
16.1382 61.6646
16.3185 57.106
16.4988 54.7798
16.6792 53.8135
16.8596 54.1751
17.04 55.0804
17.2205 65.1129
17.401 81.2194
17.5815 58.7293
17.7622 61.236
17.9428 83.313
18.1237 114.071
18.3044 88.2232
18.4852 94.6139
18.666 60.6911
18.8469 58.1191
19.0278 56.5194
19.2088 61.5698
19.3898 68.9493
19.5709 56.308
19.752 53.1119
19.9332 57.806
20.1144 66.6632
20.2957 60.8833
20.477 58.7947
20.6586 49.521
20.84 48.9127
21.0215 48.9119
21.203 49.6232
21.3846 50.3197
21.5662 48.7176
21.7479 53.9018
21.9297 61.8838
22.1115 56.0522
22.2933 52.4402
22.4753 48.7041
22.6572 49.0772
22.8393 51.9373
23.0214 57.0926
23.2037 49.5738
23.3859 51.7319
23.5682 53.5147
23.7505 53.1998
23.9329 45.6146
24.1154 44.3275
24.2979 43.5994
24.4805 42.8631
24.6631 42.8723
24.8458 42.5208
25.0286 42.9546
25.2114 44.4761
25.3943 44.7091
25.5773 41.78
25.7605 40.5687
25.9436 41.0745
26.1268 41.4879
26.31 40.798
26.4933 40.8136
26.6767 41.8705
26.8601 41.1415
27.0437 39.6238
27.2272 38.8088
27.4109 38.5613
27.5946 38.6829
27.7784 38.4444
27.9623 38.4207
28.1462 39.2792
28.3304 38.0096
28.5145 36.2925
28.6987 35.968
28.8829 35.4893
29.0673 35.0927
29.2517 34.4335
29.4361 34.2427
29.6207 33.4286
29.8053 33.0436
29.99 32.7687
30.1748 32.5393
30.3597 32.605
30.5447 32.354
30.7297 32.2646
30.915 32.2008
31.1002 31.3568
31.2855 31.202
31.4708 30.9766
31.6563 30.8445
31.8418 30.2864
32.0275 30.2173
32.2132 29.7398
32.399 29.2413
32.5848 28.6667
32.7708 28.3244
32.9569 28.1833
33.143 27.9682
33.3293 27.5742
33.5158 27.306
33.7022 26.7043
33.8887 26.4746
34.0753 26.1316
34.262 25.8349
34.4488 25.4608
34.6357 25.1776
34.8227 24.8052
35.0098 24.6111
35.1969 24.4154
35.3842 24.0603
35.5716 23.9068
35.759 23.6499
35.9468 23.2856
36.1345 23.1015
36.3222 22.8875
36.5101 22.6317
36.6981 22.312
36.8861 21.9694
37.0743 21.6584
37.2626 21.3459
37.451 21.0957
37.6395 20.9173
37.8281 20.5822
38.0168 20.2714
38.2056 20.0926
38.3945 19.7804
38.5837 19.6008
38.7728 19.3364
38.9621 19.0459
39.1514 18.791
39.3409 18.5226
39.5304 18.348
39.7201 18.1669
39.9099 17.9411
40.0999 17.6898
40.2899 17.5012
40.48 17.2162
40.6703 17.0287
40.8607 16.9311
41.0512 16.6113
41.242 16.3376
41.4327 16.1443
41.6236 15.9106
41.8146 15.7727
42.0057 15.5623
42.1969 15.3453
42.3882 15.1288
42.5797 14.9377
42.7713 14.6827
42.963 14.5201
43.1549 14.3226
43.3468 14.1225
43.5389 13.9536
43.7312 13.7328
43.9237 13.5386
44.1162 13.3821
44.3088 13.1773
44.5016 12.9322
44.6945 12.799
44.8875 12.6247
45.0806 12.4468
45.2739 12.241
45.4673 12.1043
45.6609 11.8998
45.8546 11.7686
46.0484 11.6314
46.2424 11.4193
46.4365 11.2678
46.631 11.0727
46.8254 10.9492
47.0199 10.7825
47.2146 10.6003
47.4095 10.4835
47.6044 10.2757
47.7996 10.1277
47.9948 9.98264
48.1902 9.84664
48.3858 9.69212
48.5815 9.53933
48.7774 9.41829
48.9734 9.29898
49.1696 9.16771
49.3661 8.99357
49.5626 8.8805
49.7592 8.76447
49.956 8.60381
50.153 8.48701
50.3501 8.34043
50.5474 8.22606
50.7448 8.11535
50.9424 7.97953
51.1402 7.86766
51.3381 7.72453
51.5362 7.60526
51.7344 7.47039
51.9328 7.36103
52.1316 7.16088
52.3304 7.11341
52.5293 7.01239
52.7284 6.89835
52.9276 6.7984
53.1271 6.65558
53.3267 6.52232
53.5265 6.43126
53.7264 6.2882
53.9266 6.22101
54.1269 6.08702
54.3274 5.9202
54.528 5.81789
54.7289 5.62203
54.9301 5.43537
55.1314 5.30818
55.3328 5.07206
55.5344 4.89616
55.7361 4.77176