File: XRD/Ni3Fe_FD0045.xy
TT I
1.27165 33.2677
1.45013 27.3409
1.62863 23.4174
1.80712 20.8483
1.98562 21.6873
2.16411 21.6267
2.34263 21.5324
2.52115 23.0739
2.69965 26.5171
2.87818 36.6029
3.05672 63.6066
3.23527 68.6106
3.4138 35.1623
3.59237 27.6508
3.77094 26.6387
3.9495 26.9049
4.12809 29.6881
4.30669 39.79
4.4853 37.7146
4.6639 41.8504
4.84253 53.5212
5.02118 97.0057
5.19981 299.224
5.37848 3388.03
5.55716 153.054
5.73586 101.697
5.91455 117.106
6.09328 542.475
6.27201 238.584
6.45075 64.5682
6.62952 47.099
6.8083 41.283
6.98711 40.2197
7.16591 42.4215
7.34475 40.8754
7.5236 55.2838
7.70247 43.4816
7.88135 37.7586
8.06026 39.7045
8.23919 45.1075
8.41812 57.8887
8.59709 179.629
8.77609 433.945
8.9551 74.8325
9.13412 63.7027
9.31318 335.355
9.49226 57.4596
9.67134 55.8887
9.85047 61.8253
10.0296 112.279
10.2088 653.25
10.388 105.111
10.5672 96.4668
10.7465 218.917
10.9257 50.125
11.105 43.6335
11.2844 41.7067
11.4637 38.8872
11.6431 37.9773
11.8225 38.8239
12.002 109.883
12.1814 49.5236
12.3609 90.1373
12.5405 42.2095
12.72 39.2423
12.8996 40.3655
13.0792 46.2416
13.2589 68.0587
13.4386 184.22
13.6183 83.1624
13.7981 186.295
13.9779 55.6681
14.1577 58.9549
14.3376 46.8023
14.5175 40.9346
14.6974 40.4015
14.8774 47.3841
15.0574 72.1454
15.2374 65.9257
15.4175 41.3889
15.5976 39.9947
15.7778 44.6528
15.958 61.2327
16.1382 88.4767
16.3185 38.3038
16.4988 34.6304
16.6792 33.225
16.8596 33.3658
17.04 42.8101
17.2205 35.1452
17.401 39.514
17.5815 40.5977
17.7622 37.2348
17.9428 40.8332
18.1237 45.1263
18.3044 88.4979
18.4852 55.0967
18.666 51.842
18.8469 36.8442
19.0278 35.0703
19.2088 35.2039
19.3898 46.2251
19.5709 45.7484
19.752 34.3572
19.9332 33.09
20.1144 33.8174
20.2957 43.7851
20.477 39.172
20.6586 33.8012
20.84 34.5628
21.0215 30.3541
21.203 29.893
21.3846 30.7774
21.5662 31.8522
21.7479 30.9057
21.9297 32.0418
22.1115 41.8473
22.2933 38.5354
22.4753 32.1711
22.6572 30.586
22.8393 31.8365
23.0214 31.8065
23.2037 38.423
23.3859 32.0474
23.5682 34.135
23.7505 35.5043
23.9329 32.9877
24.1154 29.557
24.2979 27.8663
24.4805 27.1567
24.6631 27.5464
24.8458 27.6221
25.0286 26.7051
25.2114 26.9348
25.3943 28.7959
25.5773 29.6317
25.7605 26.6847
25.9436 27.0399
26.1268 25.8506
26.31 27.0366
26.4933 26.33
26.6767 25.8501
26.8601 27.7537
27.0437 28.1204
27.2272 25.7307
27.4109 24.8094
27.5946 24.9314
27.7784 25.1655
27.9623 24.6268
28.1462 25.6102
28.3304 26.2633
28.5145 25.0752
28.6987 23.9005
28.8829 22.9878
29.0673 22.7841
29.2517 22.8121
29.4361 22.1994
29.6207 22.1923
29.8053 21.8337
29.99 21.4296
30.1748 21.5222
30.3597 21.0358
30.5447 21.2064
30.7297 20.9532
30.915 21.1798
31.1002 21.4574
31.2855 20.7458
31.4708 20.349
31.6563 20.4655
31.8418 20.5331
32.0275 19.9516
32.2132 20.0807
32.399 19.8348
32.5848 19.1776
32.7708 18.8524
32.9569 18.7943
33.143 18.5934
33.3293 18.2946
33.5158 18.4793
33.7022 18.2068
33.8887 17.726
34.0753 17.4416
34.262 17.2561
34.4488 17.0198
34.6357 16.9297
34.8227 16.6786
35.0098 16.4861
35.1969 16.2596
35.3842 16.1203
35.5716 16.0189
35.759 16.086
35.9468 15.8093
36.1345 15.5535
36.3222 15.405
36.5101 15.3932
36.6981 15.0794
36.8861 14.9205
37.0743 14.7488
37.2626 14.5277
37.451 14.2859
37.6395 14.229
37.8281 13.9888
38.0168 13.8375
38.2056 13.6236
38.3945 13.4427
38.5837 13.3022
38.7728 13.1154
38.9621 13.0025
39.1514 12.8345
39.3409 12.6503
39.5304 12.4689
39.7201 12.3627
39.9099 12.2778
40.0999 12.0983
40.2899 11.9949
40.48 11.7668
40.6703 11.6613
40.8607 11.5329
41.0512 11.4224
41.242 11.253
41.4327 11.11
41.6236 10.9599
41.8146 10.8377
42.0057 10.6743
42.1969 10.579
42.3882 10.4173
42.5797 10.2464
42.7713 10.2003
42.963 10.0302
43.1549 9.84132
43.3468 9.74321
43.5389 9.57182
43.7312 9.4573
43.9237 9.40203
44.1162 9.28524
44.3088 9.13646
44.5016 8.99351
44.6945 8.88001
44.8875 8.76768
45.0806 8.6494
45.2739 8.54438
45.4673 8.40965
45.6609 8.29119
45.8546 8.20281
46.0484 8.08326
46.2424 7.97522
46.4365 7.87598
46.631 7.74076
46.8254 7.61904
47.0199 7.53729
47.2146 7.41996
47.4095 7.30796
47.6044 7.2017
47.7996 7.12656
47.9948 6.97934
48.1902 6.92182
48.3858 6.82938
48.5815 6.71882
48.7774 6.6591
48.9734 6.54906
49.1696 6.48234
49.3661 6.35276
49.5626 6.26114
49.7592 6.14763
49.956 6.0793
50.153 5.96454
50.3501 5.91019
50.5474 5.8296
50.7448 5.74892
50.9424 5.69423
51.1402 5.57041
51.3381 5.48661
51.5362 5.41072
51.7344 5.34424
51.9328 5.24834
52.1316 5.14674
52.3304 5.0699
52.5293 4.99192
52.7284 4.92572
52.9276 4.82689
53.1271 4.76472
53.3267 4.70624
53.5265 4.59879
53.7264 4.48254
53.9266 4.45211
54.1269 4.33634
54.3274 4.28242
54.528 4.11496
54.7289 3.98189
54.9301 3.91406
55.1314 3.76884
55.3328 3.61134
55.5344 3.519
55.7361 3.43811