File: XRD/Ni3Fe_FD0466.xy
TT I
1.27165 7.80343
1.45013 6.44335
1.62863 5.78492
1.80712 5.35445
1.98562 4.79529
2.16411 4.7626
2.34263 5.31763
2.52115 6.54821
2.69965 7.75722
2.87818 8.95015
3.05672 11.1005
3.23527 14.6077
3.4138 19.0394
3.59237 23.2612
3.77094 26.0987
3.9495 29.7831
4.12809 34.7593
4.30669 125.693
4.4853 56.5619
4.6639 56.7108
4.84253 69.0311
5.02118 90.1588
5.19981 527.349
5.37848 206.236
5.55716 104.79
5.73586 94.7177
5.91455 99.102
6.09328 4316.66
6.27201 83.7426
6.45075 68.9255
6.62952 63.0897
6.8083 59.2005
6.98711 56.5136
7.16591 55.8839
7.34475 73.3502
7.5236 55.1596
7.70247 56.7989
7.88135 58.6121
8.06026 63.2619
8.23919 70.6798
8.41812 86.2595
8.59709 1231.02
8.77609 101.783
8.9551 90.7194
9.13412 83.7777
9.31318 84.6596
9.49226 86.2478
9.67134 96.4876
9.85047 102.436
10.0296 411.94
10.2088 407.928
10.388 108.446
10.5672 500.496
10.7465 88.0794
10.9257 78.9808
11.105 72.6652
11.2844 70.1046
11.4637 65.7217
11.6431 64.5564
11.8225 63.4988
12.002 65.4887
12.1814 156.451
12.3609 69.0688
12.5405 65.6002
12.72 69.7951
12.8996 72.433
13.0792 81.5669
13.2589 251.617
13.4386 125.186
13.6183 253.079
13.7981 98.0955
13.9779 76.9974
14.1577 73.0277
14.3376 71.7508
14.5175 70.0067
14.6974 71.7332
14.8774 118.344
15.0574 148.191
15.2374 70.9524
15.4175 67.3097
15.5976 67.2586
15.7778 100.809
15.958 155.458
16.1382 62.7613
16.3185 59.1001
16.4988 56.3452
16.6792 55.37
16.8596 55.7587
17.04 56.9951
17.2205 68.4803
17.401 71.6639
17.5815 60.4288
17.7622 62.4688
17.9428 76.9991
18.1237 140.232
18.3044 92.1231
18.4852 78.1364
18.666 61.248
18.8469 58.7766
19.0278 57.7961
19.2088 60.9936
19.3898 76.6083
19.5709 54.9363
19.752 54.1084
19.9332 57.6236
20.1144 70.4424
20.2957 64.2199
20.477 54.1445
20.6586 50.4891
20.84 49.5913
21.0215 49.4675
21.203 51.6323
21.3846 49.6788
21.5662 49.7768
21.7479 54.0625
21.9297 65.5045
22.1115 56.6444
22.2933 50.5407
22.4753 49.5526
22.6572 49.8486
22.8393 52.865
23.0214 58.0486
23.2037 49.5825
23.3859 50.8386
23.5682 57.3267
23.7505 49.0253
23.9329 45.941
24.1154 44.6905
24.2979 43.933
24.4805 43.6168
24.6631 43.4815
24.8458 42.9654
25.0286 43.6214
25.2114 45.3654
25.3943 45.2119
25.5773 41.434
25.7605 41.1096
25.9436 41.5177
26.1268 42.291
26.31 40.6195
26.4933 41.4568
26.6767 42.7941
26.8601 41.1344
27.0437 39.4229
27.2272 39.0999
27.4109 38.8752
27.5946 38.9092
27.7784 38.5265
27.9623 39.0011
28.1462 39.3854
28.3304 37.6674
28.5145 36.4945
28.6987 36.2914
28.8829 35.9572
29.0673 35.1848
29.2517 34.7968
29.4361 34.6915
29.6207 33.5593
29.8053 33.3552
29.99 33.012
30.1748 32.8533
30.3597 32.6378
30.5447 32.6533
30.7297 32.7397
30.915 32.0569
31.1002 31.5919
31.2855 31.3346
31.4708 31.1737
31.6563 30.8934
31.8418 30.5569
32.0275 30.2932
32.2132 29.8297
32.399 29.4547
32.5848 28.8877
32.7708 28.5797
32.9569 28.4072
33.143 28.2686
33.3293 27.874
33.5158 27.4432
33.7022 27.047
33.8887 26.6683
34.0753 26.414
34.262 26.0237
34.4488 25.6233
34.6357 25.3337
34.8227 25.0074
35.0098 24.898
35.1969 24.5674
35.3842 24.3482
35.5716 24.1087
35.759 23.8516
35.9468 23.5484
36.1345 23.2641
36.3222 23.0656
36.5101 22.7722
36.6981 22.4734
36.8861 22.0622
37.0743 21.8416
37.2626 21.5476
37.451 21.3095
37.6395 21.1066
37.8281 20.7953
38.0168 20.4496
38.2056 20.2823
38.3945 19.9839
38.5837 19.7657
38.7728 19.5019
38.9621 19.2028
39.1514 18.9786
39.3409 18.7678
39.5304 18.4888
39.7201 18.3952
39.9099 18.1567
40.0999 17.9074
40.2899 17.5662
40.48 17.3532
40.6703 17.1766
40.8607 17.0177
41.0512 16.7476
41.242 16.5066
41.4327 16.2717
41.6236 16.0493
41.8146 15.8894
42.0057 15.6289
42.1969 15.4502
42.3882 15.2651
42.5797 14.9907
42.7713 14.8391
42.963 14.5989
43.1549 14.3953
43.3468 14.1791
43.5389 14.0004
43.7312 13.7662
43.9237 13.6486
44.1162 13.4734
44.3088 13.2464
44.5016 13.0546
44.6945 12.8883
44.8875 12.6964
45.0806 12.5346
45.2739 12.3725
45.4673 12.2433
45.6609 12.0203
45.8546 11.8433
46.0484 11.6863
46.2424 11.5388
46.4365 11.3861
46.631 11.2112
46.8254 10.9825
47.0199 10.844
47.2146 10.6853
47.4095 10.501
47.6044 10.3785
47.7996 10.2463
47.9948 10.0502
48.1902 9.91551
48.3858 9.80068
48.5815 9.6927
48.7774 9.53525
48.9734 9.3746
49.1696 9.22977
49.3661 9.07812
49.5626 8.93438
49.7592 8.79355
49.956 8.68324
50.153 8.58089
50.3501 8.40001
50.5474 8.28713
50.7448 8.19142
50.9424 8.04173
51.1402 7.91062
51.3381 7.78059
51.5362 7.65407
51.7344 7.49979
51.9328 7.37786
52.1316 7.26349
52.3304 7.15922
52.5293 7.04201
52.7284 6.9528
52.9276 6.83518
53.1271 6.70691
53.3267 6.5865
53.5265 6.46782
53.7264 6.33992
53.9266 6.26904
54.1269 6.163
54.3274 5.98609
54.528 5.8774
54.7289 5.75526
54.9301 5.56019
55.1314 5.39816
55.3328 5.18086
55.5344 4.99491
55.7361 4.86757