File: XRD/Ni3Fe_FD0211.xy
TT I
1.27165 7.83918
1.45013 6.91553
1.62863 6.03373
1.80712 5.41449
1.98562 5.05997
2.16411 5.25594
2.34263 4.21869
2.52115 5.3314
2.69965 6.48924
2.87818 7.69283
3.05672 11.192
3.23527 15.1302
3.4138 18.9082
3.59237 22.5634
3.77094 26.2952
3.9495 29.9649
4.12809 35.1643
4.30669 40.6246
4.4853 48.513
4.6639 58.1942
4.84253 71.9391
5.02118 97.2251
5.19981 891.839
5.37848 281.568
5.55716 113.252
5.73586 101.629
5.91455 111.146
6.09328 3564.89
6.27201 89.991
6.45075 71.1881
6.62952 64.2702
6.8083 59.7852
6.98711 57.4664
7.16591 56.6635
7.34475 55.9714
7.5236 56.6329
7.70247 58.5805
7.88135 60.4838
8.06026 65.717
8.23919 73.1797
8.41812 90.8157
8.59709 1047.3
8.77609 112.578
8.9551 91.2424
9.13412 87.3431
9.31318 88.2615
9.49226 90.001
9.67134 96.1043
9.85047 107.119
10.0296 527.116
10.2088 594.726
10.388 115.196
10.5672 437.834
10.7465 92.8519
10.9257 81.0184
11.105 75.443
11.2844 70.9719
11.4637 68.256
11.6431 66.6146
11.8225 65.5942
12.002 68.8033
12.1814 138.031
12.3609 71.2606
12.5405 67.709
12.72 69.783
12.8996 75.347
13.0792 86.5353
13.2589 225.743
13.4386 153.226
13.6183 222.013
13.7981 113.832
13.9779 80.4082
14.1577 75.6795
14.3376 73.2317
14.5175 73.0045
14.6974 74.7978
14.8774 119.391
15.0574 176.853
15.2374 72.66
15.4175 69.9399
15.5976 70.0642
15.7778 103.769
15.958 178.264
16.1382 64.2
16.3185 60.5515
16.4988 58.2972
16.6792 57.17
16.8596 57.4828
17.04 59.5536
17.2205 68.8787
17.401 77.9347
17.5815 62.4971
17.7622 64.8467
17.9428 83.0788
18.1237 137.428
18.3044 90.1208
18.4852 85.1537
18.666 63.7586
18.8469 61.0786
19.0278 59.9495
19.2088 63.0862
19.3898 76.0443
19.5709 57.2281
19.752 56.3416
19.9332 59.6254
20.1144 72.534
20.2957 64.3748
20.477 57.1801
20.6586 52.3178
20.84 51.5028
21.0215 51.5306
21.203 52.5689
21.3846 51.7661
21.5662 51.818
21.7479 55.6316
21.9297 66.68
22.1115 57.8076
22.2933 52.7926
22.4753 51.2201
22.6572 52.0872
22.8393 54.2466
23.0214 60.0324
23.2037 51.6597
23.3859 52.8256
23.5682 57.6023
23.7505 51.6301
23.9329 47.6681
24.1154 46.4052
24.2979 45.6338
24.4805 45.0317
24.6631 44.9511
24.8458 44.6171
25.0286 45.0928
25.2114 46.7914
25.3943 46.5973
25.5773 42.9979
25.7605 42.623
25.9436 42.7452
26.1268 43.6837
26.31 42.3111
26.4933 42.6216
26.6767 44.1494
26.8601 42.4378
27.0437 40.9458
27.2272 40.5525
27.4109 40.3802
27.5946 40.3748
27.7784 39.8896
27.9623 39.9954
28.1462 40.7159
28.3304 39.0275
28.5145 37.7663
28.6987 37.3305
28.8829 37.097
29.0673 36.4876
29.2517 35.9454
29.4361 35.9095
29.6207 34.8368
29.8053 34.531
29.99 34.2459
30.1748 34.0543
30.3597 33.8519
30.5447 33.7395
30.7297 33.6307
30.915 33.2812
31.1002 32.7338
31.2855 32.4159
31.4708 32.311
31.6563 31.9053
31.8418 31.5565
32.0275 31.3579
32.2132 30.8463
32.399 30.3375
32.5848 29.8949
32.7708 29.5664
32.9569 29.3549
33.143 29.1205
33.3293 28.6925
33.5158 28.4019
33.7022 27.9136
33.8887 27.6006
34.0753 27.2764
34.262 26.8664
34.4488 26.5551
34.6357 26.1948
34.8227 25.9173
35.0098 25.696
35.1969 25.3966
35.3842 25.182
35.5716 24.994
35.759 24.6489
35.9468 24.2963
36.1345 23.9686
36.3222 23.7764
36.5101 23.4872
36.6981 23.2096
36.8861 22.9155
37.0743 22.5265
37.2626 22.3201
37.451 22.0517
37.6395 21.849
37.8281 21.5242
38.0168 21.1645
38.2056 20.9014
38.3945 20.6405
38.5837 20.3788
38.7728 20.1849
38.9621 19.8637
39.1514 19.5753
39.3409 19.3884
39.5304 19.1255
39.7201 18.8985
39.9099 18.6908
40.0999 18.4611
40.2899 18.2071
40.48 17.9368
40.6703 17.6914
40.8607 17.5319
41.0512 17.345
41.242 17.0097
41.4327 16.813
41.6236 16.5693
41.8146 16.3935
42.0057 16.1277
42.1969 15.9454
42.3882 15.764
42.5797 15.5232
42.7713 15.3308
42.963 15.0918
43.1549 14.8923
43.3468 14.6761
43.5389 14.4921
43.7312 14.2748
43.9237 14.085
44.1162 13.9101
44.3088 13.699
44.5016 13.4933
44.6945 13.3204
44.8875 13.1236
45.0806 12.9177
45.2739 12.752
45.4673 12.5625
45.6609 12.3584
45.8546 12.2488
46.0484 12.0709
46.2424 11.8478
46.4365 11.7547
46.631 11.5497
46.8254 11.3254
47.0199 11.1617
47.2146 10.9962
47.4095 10.881
47.6044 10.7294
47.7996 10.5708
47.9948 10.3934
48.1902 10.2594
48.3858 10.0787
48.5815 9.95645
48.7774 9.82137
48.9734 9.65394
49.1696 9.54474
49.3661 9.32542
49.5626 9.22689
49.7592 9.13513
49.956 8.94992
50.153 8.78215
50.3501 8.67817
50.5474 8.57406
50.7448 8.42712
50.9424 8.28322
51.1402 8.14924
51.3381 8.04221
51.5362 7.96648
51.7344 7.76335
51.9328 7.63787
52.1316 7.50769
52.3304 7.41367
52.5293 7.23952
52.7284 7.16018
52.9276 7.03287
53.1271 6.93861
53.3267 6.78905
53.5265 6.6645
53.7264 6.5754
53.9266 6.44808
54.1269 6.34639
54.3274 6.17008
54.528 6.05993
54.7289 5.84789
54.9301 5.68191
55.1314 5.51857
55.3328 5.33285
55.5344 5.14685
55.7361 4.97053