File: XRD/Ni3Fe_FD0362.xy
TT I
1.27165 7.5766
1.45013 6.68149
1.62863 5.55663
1.80712 4.93973
1.98562 5.03615
2.16411 4.39864
2.34263 5.09844
2.52115 6.36096
2.69965 7.30063
2.87818 7.52539
3.05672 11.4772
3.23527 14.9372
3.4138 19.1854
3.59237 23.145
3.77094 26.1603
3.9495 30.1953
4.12809 34.5545
4.30669 113.337
4.4853 55.2947
4.6639 57.1804
4.84253 69.9405
5.02118 92.0193
5.19981 618.594
5.37848 221.098
5.55716 106.686
5.73586 96.7611
5.91455 102.049
6.09328 4004.31
6.27201 85.5966
6.45075 69.2947
6.62952 63.7697
6.8083 59.7532
6.98711 56.5384
7.16591 56.6526
7.34475 71.1422
7.5236 55.7337
7.70247 57.5967
7.88135 58.9979
8.06026 63.9643
8.23919 71.2323
8.41812 88.1195
8.59709 1196.36
8.77609 104.722
8.9551 90.9883
9.13412 84.6489
9.31318 85.9131
9.49226 87.2547
9.67134 96.9347
9.85047 103.584
10.0296 446.504
10.2088 450.176
10.388 110.015
10.5672 487.747
10.7465 89.3293
10.9257 79.5387
11.105 73.7707
11.2844 70.7503
11.4637 66.6057
11.6431 65.1827
11.8225 64.068
12.002 66.554
12.1814 151.533
12.3609 69.4099
12.5405 66.329
12.72 70.2013
12.8996 73.0532
13.0792 83.3663
13.2589 247.77
13.4386 131.937
13.6183 245.253
13.7981 101.791
13.9779 78.1913
14.1577 73.9072
14.3376 72.5404
14.5175 71.037
14.6974 72.9057
14.8774 120.808
15.0574 151.969
15.2374 71.6484
15.4175 68.376
15.5976 68.2437
15.7778 103.508
15.958 161.479
16.1382 63.2436
16.3185 59.6543
16.4988 57.0306
16.6792 56.0834
16.8596 56.3794
17.04 57.9539
17.2205 69.1307
17.401 73.2523
17.5815 60.966
17.7622 63.2101
17.9428 79.1255
18.1237 139.318
18.3044 91.8216
18.4852 78.8184
18.666 62.2284
18.8469 59.6852
19.0278 58.6449
19.2088 62.0218
19.3898 76.8923
19.5709 55.6059
19.752 54.8809
19.9332 58.5909
20.1144 71.41
20.2957 64.4936
20.477 55.2094
20.6586 50.9985
20.84 50.3708
21.0215 50.0814
21.203 52.0761
21.3846 50.3148
21.5662 50.4593
21.7479 54.8835
21.9297 66.0622
22.1115 57.1224
22.2933 51.3043
22.4753 49.8648
22.6572 50.6004
22.8393 53.6526
23.0214 58.91
23.2037 50.2151
23.3859 51.7731
23.5682 57.5511
23.7505 49.5741
23.9329 46.6692
24.1154 45.373
24.2979 44.6563
24.4805 44.1189
24.6631 44.0747
24.8458 43.4838
25.0286 44.2526
25.2114 45.8953
25.3943 45.8642
25.5773 42.0354
25.7605 41.6482
25.9436 42.0271
26.1268 42.9551
26.31 41.3206
26.4933 41.908
26.6767 43.2694
26.8601 41.5289
27.0437 40.0446
27.2272 39.6976
27.4109 39.4373
27.5946 39.5025
27.7784 39.0777
27.9623 39.5305
28.1462 39.9406
28.3304 38.2913
28.5145 37.0155
28.6987 36.7152
28.8829 36.2867
29.0673 35.7272
29.2517 35.216
29.4361 34.9519
29.6207 34.1227
29.8053 33.84
29.99 33.4493
30.1748 33.1904
30.3597 33.243
30.5447 33.0744
30.7297 33.1166
30.915 32.5023
31.1002 32.0574
31.2855 31.8126
31.4708 31.6474
31.6563 31.1974
31.8418 30.9867
32.0275 30.7804
32.2132 30.2377
32.399 29.6352
32.5848 29.1894
32.7708 28.9682
32.9569 28.8196
33.143 28.5685
33.3293 28.1681
33.5158 27.771
33.7022 27.3303
33.8887 27.0514
34.0753 26.7557
34.262 26.3401
34.4488 25.98
34.6357 25.6162
34.8227 25.3298
35.0098 25.1411
35.1969 24.8754
35.3842 24.6414
35.5716 24.401
35.759 24.1063
35.9468 23.6903
36.1345 23.5434
36.3222 23.3209
36.5101 23.0072
36.6981 22.7049
36.8861 22.3638
37.0743 22.0364
37.2626 21.7808
37.451 21.5805
37.6395 21.4083
37.8281 21.0082
38.0168 20.7506
38.2056 20.519
38.3945 20.225
38.5837 19.9895
38.7728 19.6662
38.9621 19.4162
39.1514 19.1695
39.3409 18.9898
39.5304 18.7025
39.7201 18.5394
39.9099 18.3226
40.0999 18.0771
40.2899 17.8408
40.48 17.5663
40.6703 17.4084
40.8607 17.1728
41.0512 16.9904
41.242 16.6968
41.4327 16.4592
41.6236 16.2848
41.8146 16.0606
42.0057 15.8522
42.1969 15.5954
42.3882 15.4308
42.5797 15.1548
42.7713 14.9939
42.963 14.7454
43.1549 14.6078
43.3468 14.4219
43.5389 14.163
43.7312 14.002
43.9237 13.8032
44.1162 13.6074
44.3088 13.45
44.5016 13.2455
44.6945 13.0566
44.8875 12.9056
45.0806 12.6733
45.2739 12.5724
45.4673 12.3317
45.6609 12.1726
45.8546 12.0259
46.0484 11.8276
46.2424 11.6467
46.4365 11.5388
46.631 11.3108
46.8254 11.1714
47.0199 10.9311
47.2146 10.8274
47.4095 10.6716
47.6044 10.4571
47.7996 10.3151
47.9948 10.1847
48.1902 10.0409
48.3858 9.9182
48.5815 9.74314
48.7774 9.58289
48.9734 9.47659
49.1696 9.3024
49.3661 9.22216
49.5626 9.04493
49.7592 8.93753
49.956 8.77301
50.153 8.65083
50.3501 8.531
50.5474 8.35962
50.7448 8.2723
50.9424 8.11076
51.1402 8.00238
51.3381 7.83943
51.5362 7.73694
51.7344 7.59484
51.9328 7.48584
52.1316 7.37164
52.3304 7.2071
52.5293 7.10451
52.7284 6.99817
52.9276 6.88462
53.1271 6.75806
53.3267 6.62537
53.5265 6.54268
53.7264 6.40259
53.9266 6.32092
54.1269 6.20075
54.3274 6.07395
54.528 5.93709
54.7289 5.78835
54.9301 5.612
55.1314 5.49718
55.3328 5.23098
55.5344 5.08156
55.7361 4.91515