File: XRD/Ni3Fe_FD0268.xy
TT I
1.27165 7.36244
1.45013 6.24434
1.62863 5.27405
1.80712 4.84709
1.98562 4.81657
2.16411 4.71563
2.34263 5.10136
2.52115 5.3043
2.69965 6.69955
2.87818 8.03381
3.05672 10.8711
3.23527 15.0855
3.4138 19.4691
3.59237 24.4753
3.77094 26.9052
3.9495 30.4678
4.12809 35.6636
4.30669 182.533
4.4853 63.168
4.6639 57.7977
4.84253 70.3818
5.02118 93.2352
5.19981 542.514
5.37848 267.432
5.55716 109.851
5.73586 98.2918
5.91455 103.521
6.09328 3695.43
6.27201 89.8361
6.45075 70.8521
6.62952 65.6506
6.8083 61.0666
6.98711 58.1244
7.16591 57.6574
7.34475 87.2412
7.5236 56.4598
7.70247 58.2587
7.88135 60.3976
8.06026 65.1611
8.23919 72.5457
8.41812 89.9178
8.59709 1086.82
8.77609 109.32
8.9551 94.9796
9.13412 85.9247
9.31318 86.7877
9.49226 88.0225
9.67134 101.382
9.85047 105.418
10.0296 436.257
10.2088 594.34
10.388 110.862
10.5672 458.391
10.7465 91.5794
10.9257 82.1427
11.105 75.0501
11.2844 72.8375
11.4637 67.6033
11.6431 66.3146
11.8225 65.0803
12.002 66.6754
12.1814 143.909
12.3609 75.0857
12.5405 67.3022
12.72 72.2484
12.8996 74.2621
13.0792 82.9984
13.2589 227.927
13.4386 154.247
13.6183 228.691
13.7981 113.236
13.9779 79.0423
14.1577 75.5221
14.3376 74.2081
14.5175 71.8574
14.6974 73.4818
14.8774 116.074
15.0574 177.074
15.2374 74.0385
15.4175 69.4183
15.5976 68.9724
15.7778 100.777
15.958 176.311
16.1382 65.1364
16.3185 60.9311
16.4988 57.8705
16.6792 56.8686
16.8596 57.5792
17.04 58.3076
17.2205 68.4635
17.401 77.5546
17.5815 62.0237
17.7622 64.0183
17.9428 79.9611
18.1237 136.208
18.3044 91.0248
18.4852 86.1437
18.666 63.1552
18.8469 60.6854
19.0278 59.4087
19.2088 62.6958
19.3898 77.0851
19.5709 57.1638
19.752 55.7455
19.9332 59.0888
20.1144 71.7094
20.2957 65.095
20.477 57.1211
20.6586 52.0969
20.84 51.0802
21.0215 50.8679
21.203 52.4182
21.3846 51.5188
21.5662 50.9555
21.7479 54.9751
21.9297 66.3047
22.1115 57.7853
22.2933 52.5851
22.4753 51.2281
22.6572 51.0681
22.8393 53.9566
23.0214 59.919
23.2037 51.0258
23.3859 52.4084
23.5682 57.6325
23.7505 51.5125
23.9329 47.2434
24.1154 46.1284
24.2979 45.4003
24.4805 44.745
24.6631 44.7365
24.8458 44.0283
25.0286 44.6118
25.2114 46.3625
25.3943 46.3649
25.5773 42.9132
25.7605 42.2492
25.9436 42.472
26.1268 43.44
26.31 41.9573
26.4933 42.351
26.6767 43.7161
26.8601 42.2487
27.0437 40.6203
27.2272 40.1708
27.4109 39.9989
27.5946 40.0343
27.7784 39.5756
27.9623 39.9003
28.1462 40.556
28.3304 38.8862
28.5145 37.4571
28.6987 37.0774
28.8829 36.8866
29.0673 36.1367
29.2517 35.7267
29.4361 35.4181
29.6207 34.646
29.8053 34.1811
29.99 33.9188
30.1748 33.8561
30.3597 33.7922
30.5447 33.5266
30.7297 33.5463
30.915 32.9709
31.1002 32.4192
31.2855 32.3136
31.4708 32.1683
31.6563 31.7222
31.8418 31.3879
32.0275 31.1824
32.2132 30.6208
32.399 30.1983
32.5848 29.801
32.7708 29.3432
32.9569 29.2333
33.143 28.8743
33.3293 28.5657
33.5158 28.2578
33.7022 27.7254
33.8887 27.4118
34.0753 27.1216
34.262 26.6757
34.4488 26.3602
34.6357 26.0332
34.8227 25.8142
35.0098 25.5716
35.1969 25.2443
35.3842 25.0046
35.5716 24.7294
35.759 24.4551
35.9468 24.1686
36.1345 23.8137
36.3222 23.6786
36.5101 23.3696
36.6981 23.0916
36.8861 22.7587
37.0743 22.4028
37.2626 22.2176
37.451 21.8457
37.6395 21.7328
37.8281 21.385
38.0168 21.0506
38.2056 20.7864
38.3945 20.5298
38.5837 20.2729
38.7728 20.0417
38.9621 19.7741
39.1514 19.5378
39.3409 19.2448
39.5304 19.0662
39.7201 18.8717
39.9099 18.6196
40.0999 18.4139
40.2899 18.0855
40.48 17.837
40.6703 17.6168
40.8607 17.4328
41.0512 17.2067
41.242 16.936
41.4327 16.8017
41.6236 16.5096
41.8146 16.3251
42.0057 16.0284
42.1969 15.8495
42.3882 15.639
42.5797 15.4509
42.7713 15.2949
42.963 15.0736
43.1549 14.8171
43.3468 14.5732
43.5389 14.4253
43.7312 14.1931
43.9237 14.0461
44.1162 13.8617
44.3088 13.6667
44.5016 13.4506
44.6945 13.2952
44.8875 13.0901
45.0806 12.882
45.2739 12.6911
45.4673 12.5245
45.6609 12.3624
45.8546 12.2157
46.0484 12.0043
46.2424 11.8367
46.4365 11.6475
46.631 11.4618
46.8254 11.3062
47.0199 11.1424
47.2146 11.0035
47.4095 10.8303
47.6044 10.6938
47.7996 10.4793
47.9948 10.3439
48.1902 10.2044
48.3858 10.0859
48.5815 9.9264
48.7774 9.80636
48.9734 9.66521
49.1696 9.49749
49.3661 9.35431
49.5626 9.20032
49.7592 9.05564
49.956 8.93229
50.153 8.78538
50.3501 8.63479
50.5474 8.53404
50.7448 8.36513
50.9424 8.22234
51.1402 8.15176
51.3381 8.00323
51.5362 7.83781
51.7344 7.73073
51.9328 7.58337
52.1316 7.46093
52.3304 7.37095
52.5293 7.24842
52.7284 7.11168
52.9276 7.00759
53.1271 6.90054
53.3267 6.79749
53.5265 6.63141
53.7264 6.52638
53.9266 6.44434
54.1269 6.29752
54.3274 6.17503
54.528 6.02858
54.7289 5.84746
54.9301 5.66348
55.1314 5.56174
55.3328 5.28795
55.5344 5.15136
55.7361 4.99598