File: XRD/Ni3Fe_FD0049.xy
TT I
1.27165 33.2634
1.45013 27.8313
1.62863 23.805
1.80712 21.7399
1.98562 20.9307
2.16411 20.6486
2.34263 21.8955
2.52115 22.3623
2.69965 25.9377
2.87818 37.0528
3.05672 63.8937
3.23527 67.7244
3.4138 35.2943
3.59237 27.0633
3.77094 25.7247
3.9495 26.9018
4.12809 29.5166
4.30669 37.7144
4.4853 37.0114
4.6639 41.8843
4.84253 54.2116
5.02118 103.262
5.19981 305.99
5.37848 3260.7
5.55716 151.827
5.73586 102.723
5.91455 118.292
6.09328 556.478
6.27201 228.699
6.45075 64.6199
6.62952 46.896
6.8083 41.3126
6.98711 40.8207
7.16591 43.3687
7.34475 38.7677
7.5236 57.6776
7.70247 43.6164
7.88135 38.1038
8.06026 40.4975
8.23919 45.8539
8.41812 58.0643
8.59709 182.726
8.77609 398.267
8.9551 74.4933
9.13412 64.6835
9.31318 333.776
9.49226 58.0036
9.67134 56.6611
9.85047 62.6149
10.0296 116.133
10.2088 674.656
10.388 101.907
10.5672 98.0157
10.7465 208.121
10.9257 51.3051
11.105 44.5236
11.2844 42.6245
11.4637 39.478
11.6431 38.6941
11.8225 39.4919
12.002 113.683
12.1814 49.8081
12.3609 87.9101
12.5405 42.3064
12.72 39.6329
12.8996 41.0595
13.0792 47.2933
13.2589 68.5172
13.4386 187.486
13.6183 81.5878
13.7981 186.23
13.9779 55.3871
14.1577 62.0206
14.3376 46.7647
14.5175 41.5021
14.6974 41.3288
14.8774 48.2708
15.0574 74.8315
15.2374 62.7226
15.4175 41.8986
15.5976 40.3187
15.7778 45.2281
15.958 63.0061
16.1382 83.7489
16.3185 38.3953
16.4988 34.9295
16.6792 33.6026
16.8596 33.6542
17.04 42.4576
17.2205 35.4417
17.401 40.2653
17.5815 39.9039
17.7622 37.6184
17.9428 40.8977
18.1237 45.5526
18.3044 85.4243
18.4852 55.7079
18.666 50.1602
18.8469 36.9009
19.0278 35.3899
19.2088 35.574
19.3898 46.8337
19.5709 45.2566
19.752 34.3689
19.9332 33.1557
20.1144 34.0695
20.2957 43.4569
20.477 39.4286
20.6586 33.5428
20.84 34.8954
21.0215 30.3865
21.203 30.0788
21.3846 31.0287
21.5662 31.5678
21.7479 30.8716
21.9297 32.2719
22.1115 41.5821
22.2933 38.0666
22.4753 31.8743
22.6572 30.5674
22.8393 31.9964
23.0214 31.8928
23.2037 37.9001
23.3859 31.8638
23.5682 33.7532
23.7505 35.7404
23.9329 32.3816
24.1154 29.4037
24.2979 27.9676
24.4805 27.4189
24.6631 27.5659
24.8458 27.5217
25.0286 26.8057
25.2114 27.1483
25.3943 28.8835
25.5773 29.4352
25.7605 26.55
25.9436 26.8547
26.1268 25.9049
26.31 26.9432
26.4933 26.1499
26.6767 25.8821
26.8601 27.6836
27.0437 27.8742
27.2272 25.6211
27.4109 24.9722
27.5946 24.9274
27.7784 25.1216
27.9623 24.6202
28.1462 25.514
28.3304 26.0663
28.5145 25.0088
28.6987 23.8922
28.8829 23.0225
29.0673 22.8215
29.2517 22.744
29.4361 22.1239
29.6207 22.1182
29.8053 21.7989
29.99 21.3414
30.1748 21.5169
30.3597 21.0927
30.5447 21.232
30.7297 20.8398
30.915 21.0775
31.1002 21.3154
31.2855 20.6743
31.4708 20.4111
31.6563 20.4141
31.8418 20.391
32.0275 19.9271
32.2132 20.0306
32.399 19.6526
32.5848 19.1118
32.7708 18.7912
32.9569 18.7961
33.143 18.5125
33.3293 18.3321
33.5158 18.4249
33.7022 17.9408
33.8887 17.7176
34.0753 17.4549
34.262 17.2704
34.4488 16.9436
34.6357 16.8421
34.8227 16.5518
35.0098 16.4076
35.1969 16.2457
35.3842 16.1003
35.5716 16.0243
35.759 16.0296
35.9468 15.7893
36.1345 15.5042
36.3222 15.3568
36.5101 15.2624
36.6981 15.0136
36.8861 14.8547
37.0743 14.6638
37.2626 14.4413
37.451 14.2441
37.6395 14.1865
37.8281 13.9353
38.0168 13.8296
38.2056 13.6026
38.3945 13.3662
38.5837 13.2464
38.7728 13.0745
38.9621 12.9275
39.1514 12.7571
39.3409 12.6344
39.5304 12.4674
39.7201 12.3377
39.9099 12.188
40.0999 12.0755
40.2899 11.9439
40.48 11.75
40.6703 11.6662
40.8607 11.5085
41.0512 11.3592
41.242 11.1994
41.4327 11.0581
41.6236 10.9376
41.8146 10.7982
42.0057 10.6316
42.1969 10.5651
42.3882 10.4003
42.5797 10.3006
42.7713 10.1193
42.963 9.98292
43.1549 9.85485
43.3468 9.69249
43.5389 9.62554
43.7312 9.4717
43.9237 9.36008
44.1162 9.2305
44.3088 9.11614
44.5016 8.95193
44.6945 8.88858
44.8875 8.75719
45.0806 8.62101
45.2739 8.53139
45.4673 8.45714
45.6609 8.28124
45.8546 8.18445
46.0484 8.0866
46.2424 7.9572
46.4365 7.83565
46.631 7.74954
46.8254 7.63852
47.0199 7.52779
47.2146 7.41328
47.4095 7.28414
47.6044 7.17095
47.7996 7.05891
47.9948 6.99789
48.1902 6.89135
48.3858 6.80704
48.5815 6.71126
48.7774 6.58874
48.9734 6.5328
49.1696 6.41477
49.3661 6.30719
49.5626 6.26517
49.7592 6.12998
49.956 6.08116
50.153 5.98129
50.3501 5.88622
50.5474 5.81574
50.7448 5.72748
50.9424 5.63383
51.1402 5.56607
51.3381 5.44887
51.5362 5.37103
51.7344 5.3033
51.9328 5.18542
52.1316 5.10783
52.3304 5.05384
52.5293 4.96397
52.7284 4.89826
52.9276 4.81457
53.1271 4.74481
53.3267 4.64675
53.5265 4.55802
53.7264 4.53393
53.9266 4.45853
54.1269 4.32513
54.3274 4.25071
54.528 4.10009
54.7289 3.98872
54.9301 3.90544
55.1314 3.74844
55.3328 3.56138
55.5344 3.44226
55.7361 3.37193