File: XRD/Ni3Fe_FD0949.xy
TT I
1.27165 7.06879
1.45013 5.42745
1.62863 5.33521
1.80712 4.99767
1.98562 4.52738
2.16411 4.57572
2.34263 5.45548
2.52115 7.27253
2.69965 8.92929
2.87818 8.92433
3.05672 10.7813
3.23527 15.837
3.4138 18.7026
3.59237 23.2784
3.77094 25.9013
3.9495 28.9591
4.12809 34.3608
4.30669 112.094
4.4853 54.2515
4.6639 55.086
4.84253 67.0514
5.02118 87.2645
5.19981 316.304
5.37848 191.325
5.55716 101.012
5.73586 91.2897
5.91455 93.263
6.09328 4510.02
6.27201 78.9483
6.45075 68.6696
6.62952 62.0967
6.8083 58.7217
6.98711 54.8281
7.16591 56.3424
7.34475 68.9983
7.5236 53.563
7.70247 55.833
7.88135 56.9183
8.06026 61.8355
8.23919 68.3675
8.41812 82.436
8.59709 1165.05
8.77609 96.7046
8.9551 88.5671
9.13412 81.6173
9.31318 83.1453
9.49226 83.3506
9.67134 94.3193
9.85047 99.9998
10.0296 326.787
10.2088 379.725
10.388 102.135
10.5672 527.867
10.7465 85.096
10.9257 77.0501
11.105 70.524
11.2844 67.5051
11.4637 63.6591
11.6431 62.1253
11.8225 61.7398
12.002 62.806
12.1814 157.121
12.3609 66.6746
12.5405 63.8068
12.72 66.8644
12.8996 70.1553
13.0792 78.2156
13.2589 242.626
13.4386 119.853
13.6183 255.951
13.7981 94.7864
13.9779 74.3798
14.1577 70.9001
14.3376 69.2982
14.5175 67.6475
14.6974 69.3686
14.8774 110.183
15.0574 144.692
15.2374 68.2903
15.4175 65.3148
15.5976 64.6583
15.7778 94.0205
15.958 150.392
16.1382 60.4668
16.3185 57.1106
16.4988 54.5238
16.6792 53.6735
16.8596 54.0722
17.04 54.6211
17.2205 65.8646
17.401 69.0403
17.5815 58.2289
17.7622 60.1358
17.9428 72.4694
18.1237 137.169
18.3044 90.5147
18.4852 74.9274
18.666 59.3449
18.8469 57.1298
19.0278 55.9514
19.2088 58.3369
19.3898 74.1257
19.5709 53.1471
19.752 52.3463
19.9332 55.4832
20.1144 69.2505
20.2957 63.8291
20.477 52.3523
20.6586 48.7633
20.84 48.0564
21.0215 47.8188
21.203 50.1235
21.3846 48.1574
21.5662 48.0629
21.7479 51.806
21.9297 63.5652
22.1115 55.3416
22.2933 48.9065
22.4753 47.9186
22.6572 48.0261
22.8393 51.3435
23.0214 56.1139
23.2037 47.9102
23.3859 49.045
23.5682 56.6266
23.7505 47.3641
23.9329 44.4779
24.1154 43.3806
24.2979 42.7362
24.4805 42.2835
24.6631 42.2482
24.8458 41.508
25.0286 42.1813
25.2114 43.9412
25.3943 43.6767
25.5773 40.3432
25.7605 39.7828
25.9436 40.2528
26.1268 40.9853
26.31 39.3074
26.4933 40.0869
26.6767 41.4697
26.8601 39.8192
27.0437 38.1038
27.2272 37.921
27.4109 37.7837
27.5946 37.7752
27.7784 37.2656
27.9623 37.8984
28.1462 38.1728
28.3304 36.6408
28.5145 35.3627
28.6987 35.0367
28.8829 34.8148
29.0673 34.1087
29.2517 33.8241
29.4361 33.6328
29.6207 32.637
29.8053 32.2736
29.99 32.0191
30.1748 31.7773
30.3597 31.7258
30.5447 31.6888
30.7297 31.6439
30.915 31.0533
31.1002 30.541
31.2855 30.399
31.4708 30.3492
31.6563 29.8747
31.8418 29.5911
32.0275 29.4368
32.2132 28.8767
32.399 28.5388
32.5848 28.0876
32.7708 27.691
32.9569 27.6621
33.143 27.4131
33.3293 26.9359
33.5158 26.6362
33.7022 26.1403
33.8887 25.9708
34.0753 25.6163
34.262 25.2741
34.4488 24.9589
34.6357 24.5585
34.8227 24.3268
35.0098 24.1281
35.1969 23.8304
35.3842 23.6335
35.5716 23.3698
35.759 23.1079
35.9468 22.7191
36.1345 22.5297
36.3222 22.3596
36.5101 22.0745
36.6981 21.7404
36.8861 21.4643
37.0743 21.1759
37.2626 20.8998
37.451 20.6347
37.6395 20.5267
37.8281 20.1407
38.0168 19.8785
38.2056 19.6047
38.3945 19.3277
38.5837 19.1473
38.7728 18.8707
38.9621 18.6339
39.1514 18.4048
39.3409 18.1687
39.5304 17.9149
39.7201 17.7629
39.9099 17.5729
40.0999 17.253
40.2899 17.1027
40.48 16.7815
40.6703 16.6687
40.8607 16.4687
41.0512 16.2547
41.242 15.9889
41.4327 15.782
41.6236 15.5305
41.8146 15.4083
42.0057 15.1965
42.1969 15.0018
42.3882 14.8317
42.5797 14.5882
42.7713 14.3663
42.963 14.2065
43.1549 13.9883
43.3468 13.7374
43.5389 13.621
43.7312 13.3812
43.9237 13.2683
44.1162 13.0132
44.3088 12.895
44.5016 12.6893
44.6945 12.4971
44.8875 12.3997
45.0806 12.1475
45.2739 12.002
45.4673 11.8747
45.6609 11.6702
45.8546 11.5015
46.0484 11.3588
46.2424 11.1884
46.4365 11.0337
46.631 10.8495
46.8254 10.7293
47.0199 10.5423
47.2146 10.4001
47.4095 10.2187
47.6044 10.0342
47.7996 9.91638
47.9948 9.79517
48.1902 9.64229
48.3858 9.50187
48.5815 9.40461
48.7774 9.25141
48.9734 9.08078
49.1696 8.94228
49.3661 8.83998
49.5626 8.68084
49.7592 8.5436
49.956 8.44614
50.153 8.27018
50.3501 8.15779
50.5474 8.07233
50.7448 7.93354
50.9424 7.78745
51.1402 7.67554
51.3381 7.51302
51.5362 7.45778
51.7344 7.33795
51.9328 7.20145
52.1316 7.07809
52.3304 6.9704
52.5293 6.83775
52.7284 6.72496
52.9276 6.60061
53.1271 6.52689
53.3267 6.40557
53.5265 6.33132
53.7264 6.19643
53.9266 6.08552
54.1269 5.94127
54.3274 5.88482
54.528 5.71974
54.7289 5.56123
54.9301 5.39391
55.1314 5.25764
55.3328 5.09131
55.5344 4.82131
55.7361 4.78978