File: XRD/Ni3Fe_FD0425.xy
TT I
1.27165 7.52978
1.45013 6.03243
1.62863 5.25197
1.80712 5.03614
1.98562 4.68176
2.16411 4.9221
2.34263 5.1523
2.52115 5.99498
2.69965 7.5784
2.87818 8.93128
3.05672 11.3346
3.23527 15.4147
3.4138 19.0637
3.59237 25.1623
3.77094 27.1211
3.9495 30.0841
4.12809 35.908
4.30669 304.881
4.4853 75.6838
4.6639 56.4974
4.84253 67.6729
5.02118 88.256
5.19981 418.768
5.37848 222.611
5.55716 104.64
5.73586 93.7275
5.91455 96.5232
6.09328 3904.66
6.27201 87.3464
6.45075 69.1179
6.62952 64.6918
6.8083 60.5511
6.98711 57.6084
7.16591 57.2059
7.34475 111.811
7.5236 56.4895
7.70247 57.6959
7.88135 59.2342
8.06026 63.3597
8.23919 70.7577
8.41812 87.6893
8.59709 1053.56
8.77609 104.106
8.9551 96.151
9.13412 83.6723
9.31318 84.1636
9.49226 85.8178
9.67134 104.864
9.85047 101.672
10.0296 348.213
10.2088 502.859
10.388 107.996
10.5672 467.92
10.7465 88.9524
10.9257 80.6218
11.105 73.5975
11.2844 73.1735
11.4637 66.2961
11.6431 65.0353
11.8225 63.9858
12.002 65.2745
12.1814 142.772
12.3609 75.4803
12.5405 66.1748
12.72 73.1013
12.8996 72.4061
13.0792 80.1928
13.2589 218.605
13.4386 140.01
13.6183 224.348
13.7981 106.38
13.9779 77.3876
14.1577 74.5232
14.3376 74.2212
14.5175 70.2467
14.6974 72.0933
14.8774 108.31
15.0574 169.182
15.2374 73.8682
15.4175 67.4704
15.5976 67.3302
15.7778 94.4376
15.958 171.973
16.1382 65.2677
16.3185 60.7371
16.4988 56.8277
16.6792 55.9182
16.8596 56.6616
17.04 57.0307
17.2205 66.6278
17.401 74.6991
17.5815 60.6277
17.7622 62.4768
17.9428 74.728
18.1237 137.795
18.3044 88.8272
18.4852 83.3099
18.666 61.7674
18.8469 59.2534
19.0278 58.311
19.2088 61.0069
19.3898 77.8272
19.5709 55.8158
19.752 54.3237
19.9332 57.3418
20.1144 70.4652
20.2957 63.6242
20.477 55.9443
20.6586 50.9058
20.84 49.8962
21.0215 49.7407
21.203 51.5511
21.3846 50.2019
21.5662 49.7611
21.7479 53.3698
21.9297 65.4987
22.1115 56.6951
22.2933 51.3608
22.4753 50.0276
22.6572 49.9095
22.8393 52.5004
23.0214 59.1019
23.2037 49.9048
23.3859 50.7475
23.5682 56.9385
23.7505 49.9391
23.9329 46.2482
24.1154 45.2162
24.2979 44.3402
24.4805 43.8549
24.6631 43.8589
24.8458 43.093
25.0286 43.6533
25.2114 45.5075
25.3943 45.8492
25.5773 41.8263
25.7605 41.4467
25.9436 41.5688
26.1268 42.7099
26.31 41.0777
26.4933 41.571
26.6767 42.9644
26.8601 41.4868
27.0437 39.7544
27.2272 39.4239
27.4109 39.1869
27.5946 39.2268
27.7784 38.6903
27.9623 39.0612
28.1462 39.7846
28.3304 38.2137
28.5145 36.7649
28.6987 36.453
28.8829 36.136
29.0673 35.59
29.2517 35.1151
29.4361 35.0153
29.6207 33.8721
29.8053 33.6722
29.99 33.3383
30.1748 33.1844
30.3597 33.0552
30.5447 32.8086
30.7297 32.9485
30.915 32.3492
31.1002 31.8431
31.2855 31.6418
31.4708 31.4793
31.6563 31.064
31.8418 30.7267
32.0275 30.6426
32.2132 30.0441
32.399 29.6527
32.5848 29.1539
32.7708 28.8126
32.9569 28.6377
33.143 28.4715
33.3293 28.0241
33.5158 27.7157
33.7022 27.2062
33.8887 27.0002
34.0753 26.5932
34.262 26.193
34.4488 25.8248
34.6357 25.5569
34.8227 25.2544
35.0098 25.0907
35.1969 24.7564
35.3842 24.5047
35.5716 24.3666
35.759 24.0402
35.9468 23.6351
36.1345 23.4197
36.3222 23.2038
36.5101 22.9082
36.6981 22.5468
36.8861 22.3024
37.0743 22.0152
37.2626 21.7799
37.451 21.4643
37.6395 21.275
37.8281 21.0209
38.0168 20.632
38.2056 20.4323
38.3945 20.1455
38.5837 19.9668
38.7728 19.6754
38.9621 19.4107
39.1514 19.1515
39.3409 18.976
39.5304 18.6684
39.7201 18.4465
39.9099 18.2494
40.0999 17.981
40.2899 17.7726
40.48 17.5426
40.6703 17.3253
40.8607 17.1121
41.0512 16.9187
41.242 16.6483
41.4327 16.448
41.6236 16.2174
41.8146 15.9952
42.0057 15.7785
42.1969 15.5961
42.3882 15.4231
42.5797 15.1545
42.7713 14.9339
42.963 14.7546
43.1549 14.5309
43.3468 14.3326
43.5389 14.1196
43.7312 13.9153
43.9237 13.7712
44.1162 13.5479
44.3088 13.3286
44.5016 13.2019
44.6945 13.0508
44.8875 12.8653
45.0806 12.6145
45.2739 12.4616
45.4673 12.3005
45.6609 12.171
45.8546 11.9579
46.0484 11.7778
46.2424 11.6203
46.4365 11.4608
46.631 11.2659
46.8254 11.087
47.0199 10.91
47.2146 10.8201
47.4095 10.6242
47.6044 10.4719
47.7996 10.361
47.9948 10.1466
48.1902 10.04
48.3858 9.86991
48.5815 9.7643
48.7774 9.61923
48.9734 9.44338
49.1696 9.32088
49.3661 9.15422
49.5626 8.96426
49.7592 8.88471
49.956 8.7795
50.153 8.63278
50.3501 8.496
50.5474 8.36309
50.7448 8.25554
50.9424 8.12125
51.1402 7.98492
51.3381 7.88161
51.5362 7.70837
51.7344 7.59071
51.9328 7.44911
52.1316 7.3553
52.3304 7.246
52.5293 7.13092
52.7284 6.97322
52.9276 6.85179
53.1271 6.77605
53.3267 6.64299
53.5265 6.52926
53.7264 6.42337
53.9266 6.29581
54.1269 6.14667
54.3274 6.13245
54.528 5.94185
54.7289 5.83132
54.9301 5.61694
55.1314 5.44199
55.3328 5.29204
55.5344 5.0405
55.7361 4.94707