File: XRD/Ni3Fe_FD0592.xy
TT I
1.27165 7.35831
1.45013 5.79654
1.62863 5.13349
1.80712 4.56683
1.98562 4.92767
2.16411 4.7897
2.34263 5.46018
2.52115 6.79086
2.69965 7.94709
2.87818 9.04656
3.05672 11.0147
3.23527 15.2355
3.4138 19.2817
3.59237 23.4286
3.77094 25.7666
3.9495 29.3741
4.12809 34.2711
4.30669 109.24
4.4853 55.4151
4.6639 55.9499
4.84253 69.1082
5.02118 89.01
5.19981 481.455
5.37848 202.21
5.55716 103.873
5.73586 94.1966
5.91455 97.3088
6.09328 4361.53
6.27201 82.0875
6.45075 69.0389
6.62952 62.7418
6.8083 59.0599
6.98711 55.7473
7.16591 56.0714
7.34475 69.3257
7.5236 54.6203
7.70247 57.2508
7.88135 58.2566
8.06026 62.8196
8.23919 70.1586
8.41812 85.2184
8.59709 1265.47
8.77609 99.5987
8.9551 89.9878
9.13412 83.6351
9.31318 85.1757
9.49226 85.6691
9.67134 95.8254
9.85047 102.215
10.0296 383.112
10.2088 365.979
10.388 107.111
10.5672 516.122
10.7465 87.0259
10.9257 78.2586
11.105 72.123
11.2844 69.0956
11.4637 65.4065
11.6431 63.72
11.8225 62.8979
12.002 65.0696
12.1814 157.132
12.3609 67.5925
12.5405 64.9146
12.72 68.726
12.8996 71.9908
13.0792 81.5579
13.2589 254.408
13.4386 121.304
13.6183 255.286
13.7981 96.5534
13.9779 76.4249
14.1577 72.2197
14.3376 70.792
14.5175 69.6453
14.6974 71.3881
14.8774 116.609
15.0574 144.056
15.2374 70.2747
15.4175 66.9534
15.5976 66.7028
15.7778 99.7732
15.958 149.243
16.1382 62.0219
16.3185 58.3357
16.4988 55.6793
16.6792 54.8179
16.8596 55.1745
17.04 56.6507
17.2205 68.1012
17.401 70.9343
17.5815 59.7226
17.7622 61.968
17.9428 75.7092
18.1237 141.612
18.3044 92.1448
18.4852 76.6978
18.666 60.5013
18.8469 58.4012
19.0278 57.1595
19.2088 60.1131
19.3898 75.8392
19.5709 54.5742
19.752 53.95
19.9332 57.1165
20.1144 70.2465
20.2957 64.4461
20.477 53.3265
20.6586 49.9061
20.84 49.0835
21.0215 49.039
21.203 51.1169
21.3846 49.2332
21.5662 49.4726
21.7479 53.4917
21.9297 65.0051
22.1115 56.324
22.2933 49.936
22.4753 49.2426
22.6572 49.3611
22.8393 52.6353
23.0214 57.305
23.2037 49.1082
23.3859 50.4064
23.5682 57.2244
23.7505 48.2393
23.9329 45.4466
24.1154 44.4015
24.2979 43.6343
24.4805 43.168
24.6631 43.055
24.8458 42.6573
25.0286 43.2346
25.2114 45.186
25.3943 44.8536
25.5773 41.2581
25.7605 40.7155
25.9436 41.2388
26.1268 42.151
26.31 40.4102
26.4933 41.1487
26.6767 42.4011
26.8601 40.7248
27.0437 39.0483
27.2272 38.754
27.4109 38.5814
27.5946 38.5002
27.7784 38.2535
27.9623 38.6663
28.1462 38.9297
28.3304 37.3007
28.5145 36.1706
28.6987 35.9499
28.8829 35.5935
29.0673 34.9037
29.2517 34.554
29.4361 34.3081
29.6207 33.3177
29.8053 33.0297
29.99 32.7544
30.1748 32.5709
30.3597 32.5811
30.5447 32.3441
30.7297 32.4057
30.915 31.7462
31.1002 31.1798
31.2855 31.0759
31.4708 31.009
31.6563 30.5757
31.8418 30.3637
32.0275 30.0394
32.2132 29.5054
32.399 29.1799
32.5848 28.7909
32.7708 28.398
32.9569 28.1725
33.143 28.0243
33.3293 27.5583
33.5158 27.1968
33.7022 26.7676
33.8887 26.4692
34.0753 26.189
34.262 25.7874
34.4488 25.4924
34.6357 25.0827
34.8227 24.8
35.0098 24.6575
35.1969 24.3109
35.3842 24.12
35.5716 23.8895
35.759 23.5679
35.9468 23.2179
36.1345 23.0738
36.3222 22.7621
36.5101 22.5449
36.6981 22.2383
36.8861 21.961
37.0743 21.571
37.2626 21.4114
37.451 21.1396
37.6395 20.944
37.8281 20.5851
38.0168 20.3059
38.2056 20.0003
38.3945 19.7843
38.5837 19.5351
38.7728 19.3013
38.9621 19.0623
39.1514 18.7817
39.3409 18.5826
39.5304 18.2915
39.7201 18.2373
39.9099 17.9454
40.0999 17.6455
40.2899 17.4788
40.48 17.2515
40.6703 17.0307
40.8607 16.811
41.0512 16.6037
41.242 16.3721
41.4327 16.1471
41.6236 15.9204
41.8146 15.6723
42.0057 15.5039
42.1969 15.345
42.3882 15.0919
42.5797 14.899
42.7713 14.701
42.963 14.5211
43.1549 14.2979
43.3468 14.0495
43.5389 13.9171
43.7312 13.6831
43.9237 13.5183
44.1162 13.3365
44.3088 13.1601
44.5016 12.9549
44.6945 12.819
44.8875 12.6097
45.0806 12.3931
45.2739 12.2864
45.4673 12.1252
45.6609 11.8768
45.8546 11.7608
46.0484 11.6104
46.2424 11.4331
46.4365 11.2521
46.631 11.1024
46.8254 10.9401
47.0199 10.7773
47.2146 10.6283
47.4095 10.4378
47.6044 10.2636
47.7996 10.1215
47.9948 9.96328
48.1902 9.80571
48.3858 9.73152
48.5815 9.58877
48.7774 9.43084
48.9734 9.31171
49.1696 9.1375
49.3661 8.99588
49.5626 8.88579
49.7592 8.75613
49.956 8.61226
50.153 8.49204
50.3501 8.35255
50.5474 8.21425
50.7448 8.10507
50.9424 7.97191
51.1402 7.83107
51.3381 7.72823
51.5362 7.57552
51.7344 7.47181
51.9328 7.31353
52.1316 7.24354
52.3304 7.13446
52.5293 6.9974
52.7284 6.87095
52.9276 6.75765
53.1271 6.60493
53.3267 6.51424
53.5265 6.41449
53.7264 6.29887
53.9266 6.21372
54.1269 6.0989
54.3274 5.9533
54.528 5.82776
54.7289 5.65045
54.9301 5.49504
55.1314 5.37049
55.3328 5.17442
55.5344 4.96375
55.7361 4.84722