File: XRD/Ni3Fe_FD0259.xy
TT I
1.27165 8.12826
1.45013 6.59002
1.62863 5.09989
1.80712 4.97177
1.98562 5.19478
2.16411 5.3191
2.34263 5.10257
2.52115 5.35887
2.69965 6.13274
2.87818 8.85819
3.05672 11.3189
3.23527 15.1436
3.4138 18.6181
3.59237 23.8475
3.77094 26.4593
3.9495 30.3434
4.12809 35.5312
4.30669 120.088
4.4853 56.6299
4.6639 57.7539
4.84253 71.1358
5.02118 94.9
5.19981 580.879
5.37848 277.809
5.55716 111.616
5.73586 99.5826
5.91455 105.982
6.09328 3650.29
6.27201 90.3863
6.45075 71.1028
6.62952 65.5273
6.8083 60.9027
6.98711 57.6823
7.16591 57.4883
7.34475 73.5993
7.5236 56.7485
7.70247 58.5455
7.88135 60.2904
8.06026 64.994
8.23919 72.6636
8.41812 89.6735
8.59709 1119.98
8.77609 110.831
8.9551 93.2187
9.13412 86.6377
9.31318 87.7751
9.49226 88.9467
9.67134 98.706
9.85047 105.562
10.0296 477.362
10.2088 598.029
10.388 110.739
10.5672 444.978
10.7465 92.0542
10.9257 81.1385
11.105 75.0302
11.2844 71.9293
11.4637 67.7344
11.6431 66.3435
11.8225 65.3812
12.002 67.0874
12.1814 143.656
12.3609 73.2356
12.5405 67.2052
12.72 71.295
12.8996 74.3107
13.0792 83.5276
13.2589 236.13
13.4386 150.893
13.6183 232.934
13.7981 115.786
13.9779 79.6125
14.1577 75.5126
14.3376 73.8118
14.5175 72.0499
14.6974 73.5872
14.8774 120.369
15.0574 174.677
15.2374 73.2415
15.4175 69.5076
15.5976 69.1971
15.7778 104.631
15.958 172.736
16.1382 64.9169
16.3185 60.7452
16.4988 58.0083
16.6792 57.0131
16.8596 57.4203
17.04 58.2766
17.2205 69.0911
17.401 77.7152
17.5815 61.8885
17.7622 63.9434
17.9428 81.9028
18.1237 134.773
18.3044 91.3589
18.4852 85.0108
18.666 63.3679
18.8469 60.7062
19.0278 59.3901
19.2088 63.2895
19.3898 76.184
19.5709 57.0311
19.752 55.728
19.9332 59.4912
20.1144 71.7585
20.2957 64.7387
20.477 57.0071
20.6586 51.8746
20.84 50.9028
21.0215 50.9263
21.203 52.6798
21.3846 51.3851
21.5662 51.0993
21.7479 55.3275
21.9297 66.1407
22.1115 57.6822
22.2933 52.7338
22.4753 50.9
22.6572 51.1751
22.8393 54.1178
23.0214 59.5295
23.2037 51.0693
23.3859 52.4973
23.5682 57.5295
23.7505 51.5711
23.9329 47.3438
24.1154 46.1097
24.2979 45.3539
24.4805 44.878
24.6631 44.6784
24.8458 44.0708
25.0286 44.6977
25.2114 46.3431
25.3943 46.4926
25.5773 42.8622
25.7605 42.2345
25.9436 42.5224
26.1268 43.3772
26.31 42.0946
26.4933 42.4698
26.6767 43.7687
26.8601 42.2685
27.0437 40.763
27.2272 40.2164
27.4109 39.9766
27.5946 40.1389
27.7784 39.6732
27.9623 39.9486
28.1462 40.5335
28.3304 39.0019
28.5145 37.562
28.6987 37.1343
28.8829 37.0041
29.0673 36.1908
29.2517 35.8666
29.4361 35.6335
29.6207 34.6276
29.8053 34.3428
29.99 34.06
30.1748 33.7725
30.3597 33.7597
30.5447 33.5805
30.7297 33.446
30.915 32.983
31.1002 32.475
31.2855 32.2863
31.4708 32.1223
31.6563 31.7475
31.8418 31.5483
32.0275 31.1718
32.2132 30.7544
32.399 30.167
32.5848 29.66
32.7708 29.3985
32.9569 29.2237
33.143 29.0025
33.3293 28.6365
33.5158 28.2278
33.7022 27.7762
33.8887 27.463
34.0753 27.1504
34.262 26.7541
34.4488 26.456
34.6357 26.0633
34.8227 25.7887
35.0098 25.5504
35.1969 25.2384
35.3842 25.079
35.5716 24.859
35.759 24.5413
35.9468 24.1649
36.1345 23.8751
36.3222 23.6826
36.5101 23.459
36.6981 23.0699
36.8861 22.7151
37.0743 22.4419
37.2626 22.2135
37.451 21.8873
37.6395 21.6873
37.8281 21.4655
38.0168 21.1208
38.2056 20.8449
38.3945 20.5786
38.5837 20.2708
38.7728 20.0557
38.9621 19.7719
39.1514 19.4897
39.3409 19.2283
39.5304 19.0332
39.7201 18.8448
39.9099 18.6117
40.0999 18.3387
40.2899 18.1646
40.48 17.8392
40.6703 17.6289
40.8607 17.4178
41.0512 17.2902
41.242 16.9697
41.4327 16.7621
41.6236 16.5509
41.8146 16.3021
42.0057 16.0771
42.1969 15.863
42.3882 15.6653
42.5797 15.5322
42.7713 15.2392
42.963 15.078
43.1549 14.9252
43.3468 14.5526
43.5389 14.4526
43.7312 14.2212
43.9237 14.05
44.1162 13.8517
44.3088 13.6983
44.5016 13.424
44.6945 13.2583
44.8875 13.0745
45.0806 12.8848
45.2739 12.7517
45.4673 12.5834
45.6609 12.3466
45.8546 12.1629
46.0484 12.0301
46.2424 11.8217
46.4365 11.6611
46.631 11.4752
46.8254 11.3216
47.0199 11.1416
47.2146 10.9773
47.4095 10.8045
47.6044 10.6331
47.7996 10.4821
47.9948 10.3269
48.1902 10.2017
48.3858 10.066
48.5815 9.91429
48.7774 9.77883
48.9734 9.60295
49.1696 9.48971
49.3661 9.31855
49.5626 9.18837
49.7592 9.049
49.956 8.9192
50.153 8.78773
50.3501 8.61948
50.5474 8.50367
50.7448 8.37853
50.9424 8.24214
51.1402 8.11924
51.3381 7.95399
51.5362 7.84964
51.7344 7.75876
51.9328 7.59107
52.1316 7.42913
52.3304 7.39069
52.5293 7.24685
52.7284 7.10576
52.9276 6.99676
53.1271 6.87375
53.3267 6.78305
53.5265 6.63712
53.7264 6.56103
53.9266 6.4322
54.1269 6.30726
54.3274 6.20483
54.528 6.03923
54.7289 5.89182
54.9301 5.67256
55.1314 5.55004
55.3328 5.3267
55.5344 5.14683
55.7361 5.03157