File: XRD/Ni3Fe_FD0061.xy
TT I
1.27165 33.1172
1.45013 26.1239
1.62863 22.6447
1.80712 20.7596
1.98562 20.1044
2.16411 19.8752
2.34263 21.1487
2.52115 21.5291
2.69965 25.3993
2.87818 35.517
3.05672 63.2497
3.23527 63.2684
3.4138 33.137
3.59237 26.6031
3.77094 25.2423
3.9495 27.1125
4.12809 29.8389
4.30669 37.9822
4.4853 38.301
4.6639 43.6839
4.84253 56.18
5.02118 105.457
5.19981 337.999
5.37848 2790.99
5.55716 148.276
5.73586 104.036
5.91455 122.141
6.09328 616.886
6.27201 199.106
6.45075 64.1569
6.62952 48.3515
6.8083 42.78
6.98711 41.7903
7.16591 43.3197
7.34475 39.9569
7.5236 65.8468
7.70247 43.6183
7.88135 39.9012
8.06026 42.0907
8.23919 47.9011
8.41812 61.6313
8.59709 198.119
8.77609 303.026
8.9551 74.1281
9.13412 66.5797
9.31318 295.81
9.49226 60.4803
9.67134 59.5968
9.85047 66.1341
10.0296 132.454
10.2088 704.958
10.388 95.2843
10.5672 102.41
10.7465 172.843
10.9257 52.612
11.105 46.4728
11.2844 43.8542
11.4637 41.2046
11.6431 40.5573
11.8225 41.2324
12.002 115.969
12.1814 51.5172
12.3609 78.9081
12.5405 42.7728
12.72 41.0904
12.8996 42.8409
13.0792 50.4877
13.2589 70.7333
13.4386 187.489
13.6183 79.4372
13.7981 173.163
13.9779 54.1385
14.1577 71.5881
14.3376 46.8502
14.5175 42.9984
14.6974 42.9792
14.8774 50.7473
15.0574 83.8324
15.2374 55.6635
15.4175 42.7305
15.5976 41.5417
15.7778 47.0607
15.958 68.7675
16.1382 70.7213
16.3185 38.5314
16.4988 35.4924
16.6792 34.6481
16.8596 34.6668
17.04 40.6782
17.2205 36.2966
17.401 42.5893
17.5815 38.8398
17.7622 39.3592
17.9428 41.7814
18.1237 47.0434
18.3044 73.2942
18.4852 57.2892
18.666 46.0882
18.8469 37.5725
19.0278 36.0844
19.2088 36.5032
19.3898 47.6754
19.5709 42.7091
19.752 34.2561
19.9332 33.9755
20.1144 34.7916
20.2957 41.0306
20.477 39.4217
20.6586 33.1036
20.84 35.2019
21.0215 30.7596
21.203 30.4874
21.3846 31.7229
21.5662 31.6402
21.7479 31.2764
21.9297 32.7523
22.1115 39.5097
22.2933 36.1373
22.4753 31.44
22.6572 30.8137
22.8393 32.1934
23.0214 32.0912
23.2037 35.5021
23.3859 31.8497
23.5682 32.5153
23.7505 35.7115
23.9329 30.7595
24.1154 29.3421
24.2979 28.211
24.4805 27.5729
24.6631 28.0356
24.8458 27.4013
25.0286 27.0801
25.2114 27.2648
25.3943 28.281
25.5773 28.5787
25.7605 26.411
25.9436 26.4873
26.1268 25.8992
26.31 26.6408
26.4933 25.9289
26.6767 25.8019
26.8601 27.1883
27.0437 26.8766
27.2272 25.1671
27.4109 24.7591
27.5946 24.8183
27.7784 24.9537
27.9623 24.4177
28.1462 24.9745
28.3304 25.0831
28.5145 24.3507
28.6987 23.4928
28.8829 22.8928
29.0673 22.6977
29.2517 22.4495
29.4361 22.0586
29.6207 22.0037
29.8053 21.6068
29.99 21.2332
30.1748 21.3246
30.3597 21.0765
30.5447 21.0088
30.7297 20.714
30.915 20.9694
31.1002 20.8842
31.2855 20.3666
31.4708 20.1623
31.6563 20.1465
31.8418 19.9107
32.0275 19.7411
32.2132 19.7196
32.399 19.3599
32.5848 18.8839
32.7708 18.6997
32.9569 18.6157
33.143 18.3405
33.3293 18.1404
33.5158 18.143
33.7022 17.7442
33.8887 17.4706
34.0753 17.2237
34.262 17.097
34.4488 16.8059
34.6357 16.676
34.8227 16.4349
35.0098 16.2924
35.1969 16.1374
35.3842 15.9198
35.5716 15.8598
35.759 15.8194
35.9468 15.5087
36.1345 15.3658
36.3222 15.1693
36.5101 15.006
36.6981 14.8453
36.8861 14.7067
37.0743 14.4772
37.2626 14.2896
37.451 14.1363
37.6395 13.9901
37.8281 13.762
38.0168 13.6046
38.2056 13.4559
38.3945 13.2726
38.5837 13.12
38.7728 12.9631
38.9621 12.8728
39.1514 12.6454
39.3409 12.5206
39.5304 12.335
39.7201 12.1736
39.9099 12.0447
40.0999 11.9104
40.2899 11.7987
40.48 11.6235
40.6703 11.5065
40.8607 11.322
41.0512 11.2693
41.242 11.0663
41.4327 10.9277
41.6236 10.7667
41.8146 10.6847
42.0057 10.558
42.1969 10.4126
42.3882 10.2686
42.5797 10.1628
42.7713 10.0097
42.963 9.85773
43.1549 9.70451
43.3468 9.57775
43.5389 9.46339
43.7312 9.31934
43.9237 9.21446
44.1162 9.12836
44.3088 8.96699
44.5016 8.85744
44.6945 8.7236
44.8875 8.62244
45.0806 8.54051
45.2739 8.38516
45.4673 8.32796
45.6609 8.15112
45.8546 8.05635
46.0484 7.95817
46.2424 7.81968
46.4365 7.76677
46.631 7.6417
46.8254 7.48525
47.0199 7.41323
47.2146 7.32787
47.4095 7.16508
47.6044 7.06945
47.7996 7.00693
47.9948 6.89396
48.1902 6.79992
48.3858 6.69003
48.5815 6.62007
48.7774 6.52787
48.9734 6.4523
49.1696 6.35177
49.3661 6.21998
49.5626 6.14717
49.7592 6.0451
49.956 5.9951
50.153 5.89928
50.3501 5.78116
50.5474 5.73358
50.7448 5.65741
50.9424 5.59378
51.1402 5.49985
51.3381 5.38986
51.5362 5.32966
51.7344 5.20717
51.9328 5.17995
52.1316 5.06802
52.3304 4.98276
52.5293 4.90183
52.7284 4.82765
52.9276 4.79014
53.1271 4.7338
53.3267 4.60375
53.5265 4.53707
53.7264 4.44853
53.9266 4.38135
54.1269 4.31365
54.3274 4.16401
54.528 4.02204
54.7289 3.93112
54.9301 3.84299
55.1314 3.68104
55.3328 3.5594
55.5344 3.42578
55.7361 3.26351