File: XRD/Ni3Fe_FD0676.xy
TT I
1.27165 7.30635
1.45013 6.07938
1.62863 4.61701
1.80712 4.77169
1.98562 4.60993
2.16411 4.36834
2.34263 4.86113
2.52115 6.90687
2.69965 7.49963
2.87818 8.86199
3.05672 11.0876
3.23527 14.8855
3.4138 18.9827
3.59237 23.672
3.77094 25.9574
3.9495 29.2648
4.12809 34.0865
4.30669 151.962
4.4853 58.7967
4.6639 55.7315
4.84253 67.6659
5.02118 87.7765
5.19981 395.961
5.37848 183.774
5.55716 102.032
5.73586 92.7958
5.91455 95.366
6.09328 4562.32
6.27201 81.7281
6.45075 67.3529
6.62952 62.3447
6.8083 58.3371
6.98711 55.4142
7.16591 55.3803
7.34475 78.2216
7.5236 54.6033
7.70247 56.017
7.88135 57.5713
8.06026 62.5747
8.23919 69.6759
8.41812 84.8013
8.59709 1237.69
8.77609 98.2126
8.9551 89.4935
9.13412 82.0562
9.31318 82.9534
9.49226 84.8256
9.67134 95.8805
9.85047 100.489
10.0296 363.783
10.2088 367.083
10.388 104.587
10.5672 511.758
10.7465 85.7764
10.9257 78.0057
11.105 71.6413
11.2844 69.0493
11.4637 64.5911
11.6431 63.2531
11.8225 62.4916
12.002 63.8344
12.1814 154.218
12.3609 68.3503
12.5405 64.5908
12.72 68.8538
12.8996 70.9416
13.0792 79.5259
13.2589 248.261
13.4386 120.249
13.6183 255.08
13.7981 93.3973
13.9779 75.6075
14.1577 72.2032
14.3376 70.9807
14.5175 68.8863
14.6974 70.5554
14.8774 112.943
15.0574 140.442
15.2374 70.0765
15.4175 66.488
15.5976 65.842
15.7778 96.9101
15.958 151.135
16.1382 61.7283
16.3185 58.1987
16.4988 55.3262
16.6792 54.2374
16.8596 55.0916
17.04 56.0016
17.2205 67.1953
17.401 69.6393
17.5815 59.3877
17.7622 61.3204
17.9428 74.2932
18.1237 142.629
18.3044 91.2767
18.4852 75.2713
18.666 60.2274
18.8469 57.93
19.0278 56.8134
19.2088 59.5057
19.3898 76.4148
19.5709 53.9497
19.752 53.3074
19.9332 56.2741
20.1144 70.0539
20.2957 64.0328
20.477 53.1038
20.6586 49.6195
20.84 48.6929
21.0215 48.6658
21.203 51.0653
21.3846 48.8691
21.5662 48.976
21.7479 52.8441
21.9297 64.8054
22.1115 56.0705
22.2933 49.6346
22.4753 48.5438
22.6572 48.8496
22.8393 52.3037
23.0214 57.0654
23.2037 48.5958
23.3859 49.6858
23.5682 57.1997
23.7505 47.9447
23.9329 45.0831
24.1154 44.1121
24.2979 43.3582
24.4805 42.8947
24.6631 42.5739
24.8458 42.1905
25.0286 42.8336
25.2114 44.6798
25.3943 44.5053
25.5773 40.814
25.7605 40.2974
25.9436 40.7904
26.1268 41.6246
26.31 40.0622
26.4933 40.7106
26.6767 42.0545
26.8601 40.4411
27.0437 38.6705
27.2272 38.5126
27.4109 38.3219
27.5946 38.416
27.7784 37.8912
27.9623 38.4099
28.1462 38.7848
28.3304 37.0966
28.5145 35.936
28.6987 35.5251
28.8829 35.3895
29.0673 34.5958
29.2517 34.3171
29.4361 34.1919
29.6207 33.0784
29.8053 32.7571
29.99 32.5903
30.1748 32.4123
30.3597 32.2111
30.5447 32.1488
30.7297 32.1713
30.915 31.5777
31.1002 31.1268
31.2855 30.8305
31.4708 30.7978
31.6563 30.3021
31.8418 30.0869
32.0275 29.8804
32.2132 29.3199
32.399 28.8616
32.5848 28.4659
32.7708 28.0757
32.9569 27.9304
33.143 27.7464
33.3293 27.3117
33.5158 27.0488
33.7022 26.4822
33.8887 26.3396
34.0753 25.9602
34.262 25.6205
34.4488 25.2949
34.6357 24.9414
34.8227 24.6615
35.0098 24.4815
35.1969 24.1554
35.3842 24.0004
35.5716 23.7044
35.759 23.3463
35.9468 23.0399
36.1345 22.8355
36.3222 22.5943
36.5101 22.3934
36.6981 22.031
36.8861 21.7491
37.0743 21.474
37.2626 21.2692
37.451 20.9822
37.6395 20.8002
37.8281 20.468
38.0168 20.2053
38.2056 19.9328
38.3945 19.6328
38.5837 19.3695
38.7728 19.1903
38.9621 18.9524
39.1514 18.6948
39.3409 18.402
39.5304 18.2316
39.7201 17.9768
39.9099 17.7855
40.0999 17.5345
40.2899 17.3009
40.48 17.0755
40.6703 16.8911
40.8607 16.6615
41.0512 16.4161
41.242 16.1866
41.4327 15.9674
41.6236 15.8131
41.8146 15.6107
42.0057 15.38
42.1969 15.1364
42.3882 14.9672
42.5797 14.8235
42.7713 14.6187
42.963 14.3871
43.1549 14.1636
43.3468 14.0139
43.5389 13.8033
43.7312 13.597
43.9237 13.4396
44.1162 13.2892
44.3088 13.0779
44.5016 12.8826
44.6945 12.723
44.8875 12.5009
45.0806 12.38
45.2739 12.1715
45.4673 12.0244
45.6609 11.8163
45.8546 11.6685
46.0484 11.4897
46.2424 11.382
46.4365 11.1892
46.631 11.0088
46.8254 10.8623
47.0199 10.6498
47.2146 10.5593
47.4095 10.3884
47.6044 10.1967
47.7996 10.049
47.9948 9.93717
48.1902 9.76617
48.3858 9.61881
48.5815 9.49334
48.7774 9.37537
48.9734 9.18814
49.1696 9.08458
49.3661 8.92998
49.5626 8.77997
49.7592 8.68092
49.956 8.5547
50.153 8.40932
50.3501 8.25315
50.5474 8.13328
50.7448 8.05498
50.9424 7.89236
51.1402 7.79504
51.3381 7.58632
51.5362 7.53653
51.7344 7.39157
51.9328 7.27338
52.1316 7.18383
52.3304 7.06174
52.5293 6.94096
52.7284 6.81623
52.9276 6.70591
53.1271 6.55231
53.3267 6.46018
53.5265 6.3939
53.7264 6.25544
53.9266 6.1714
54.1269 6.03374
54.3274 5.95018
54.528 5.79856
54.7289 5.59776
54.9301 5.44942
55.1314 5.36388
55.3328 5.16356
55.5344 4.93885
55.7361 4.83444