File: XRD/Ni3Fe_FD0832.xy
TT I
1.27165 7.59151
1.45013 6.37608
1.62863 5.40789
1.80712 4.73321
1.98562 5.05303
2.16411 5.02261
2.34263 5.45635
2.52115 7.46329
2.69965 8.28515
2.87818 9.07174
3.05672 11.4739
3.23527 15.2329
3.4138 18.5806
3.59237 22.9694
3.77094 25.605
3.9495 29.5158
4.12809 34.648
4.30669 101.717
4.4853 54.0218
4.6639 55.1059
4.84253 68.457
5.02118 88.299
5.19981 357.779
5.37848 194.42
5.55716 102.033
5.73586 92.5864
5.91455 94.6134
6.09328 4341.66
6.27201 80.0994
6.45075 69.3951
6.62952 62.5065
6.8083 58.8677
6.98711 55.1326
7.16591 56.843
7.34475 65.6122
7.5236 54.0467
7.70247 56.7582
7.88135 57.5275
8.06026 62.4491
8.23919 69.1179
8.41812 83.1143
8.59709 1195.77
8.77609 98.1602
8.9551 88.8652
9.13412 82.4944
9.31318 84.2078
9.49226 84.3556
9.67134 94.4637
9.85047 100.832
10.0296 345.885
10.2088 386.722
10.388 103.431
10.5672 524.594
10.7465 85.8963
10.9257 77.4824
11.105 70.7248
11.2844 68.111
11.4637 64.3698
11.6431 62.836
11.8225 62.3846
12.002 63.5528
12.1814 156.535
12.3609 66.4052
12.5405 64.3878
12.72 67.4193
12.8996 70.9266
13.0792 79.4139
13.2589 247.22
13.4386 121.148
13.6183 255.417
13.7981 96.368
13.9779 75.0807
14.1577 71.6126
14.3376 69.6402
14.5175 68.2101
14.6974 69.9182
14.8774 112.33
15.0574 144.581
15.2374 69.1882
15.4175 65.9391
15.5976 65.2426
15.7778 95.9358
15.958 149.963
16.1382 60.7898
16.3185 57.3742
16.4988 54.9022
16.6792 53.9783
16.8596 54.3337
17.04 55.4549
17.2205 66.8155
17.401 69.6358
17.5815 58.6172
17.7622 60.6822
17.9428 73.2361
18.1237 138.172
18.3044 90.8922
18.4852 75.4466
18.666 59.695
18.8469 57.5325
19.0278 56.217
19.2088 58.767
19.3898 74.2868
19.5709 53.6145
19.752 52.7707
19.9332 55.7668
20.1144 69.1445
20.2957 63.6538
20.477 52.7822
20.6586 49.0892
20.84 48.3793
21.0215 48.0225
21.203 50.1829
21.3846 48.5144
21.5662 48.3522
21.7479 52.4055
21.9297 63.8892
22.1115 55.5786
22.2933 49.2698
22.4753 48.1452
22.6572 48.345
22.8393 51.6463
23.0214 56.3897
23.2037 48.2309
23.3859 49.2189
23.5682 56.4516
23.7505 47.6731
23.9329 44.6919
24.1154 43.6952
24.2979 42.9719
24.4805 42.4099
24.6631 42.3321
24.8458 41.6063
25.0286 42.4094
25.2114 44.145
25.3943 44.0064
25.5773 40.4788
25.7605 40.0593
25.9436 40.4793
26.1268 41.2367
26.31 39.6448
26.4933 40.3274
26.6767 41.6667
26.8601 40.0855
27.0437 38.582
27.2272 38.0501
27.4109 38.0828
27.5946 38.0463
27.7784 37.6118
27.9623 38.1276
28.1462 38.4404
28.3304 36.8323
28.5145 35.6149
28.6987 35.2556
28.8829 35.1125
29.0673 34.3125
29.2517 34.0404
29.4361 33.7434
29.6207 32.8434
29.8053 32.5346
29.99 32.17
30.1748 32.1466
30.3597 31.9679
30.5447 31.9288
30.7297 31.8967
30.915 31.1892
31.1002 30.7356
31.2855 30.4821
31.4708 30.6437
31.6563 29.9543
31.8418 29.8482
32.0275 29.5819
32.2132 29.096
32.399 28.6053
32.5848 28.2036
32.7708 27.9044
32.9569 27.7089
33.143 27.5467
33.3293 27.195
33.5158 26.7668
33.7022 26.2415
33.8887 25.9872
34.0753 25.6801
34.262 25.3561
34.4488 24.9727
34.6357 24.7924
34.8227 24.4623
35.0098 24.2565
35.1969 23.8977
35.3842 23.7503
35.5716 23.493
35.759 23.2731
35.9468 22.8569
36.1345 22.6526
36.3222 22.3711
36.5101 22.1743
36.6981 21.8901
36.8861 21.5772
37.0743 21.2379
37.2626 21.0544
37.451 20.7392
37.6395 20.5851
37.8281 20.2576
38.0168 19.9668
38.2056 19.7135
38.3945 19.4625
38.5837 19.2713
38.7728 19.0894
38.9621 18.7728
39.1514 18.4816
39.3409 18.267
39.5304 18.049
39.7201 17.8629
39.9099 17.6435
40.0999 17.3974
40.2899 17.1405
40.48 16.9338
40.6703 16.775
40.8607 16.5136
41.0512 16.3432
41.242 16.0565
41.4327 15.9127
41.6236 15.6318
41.8146 15.436
42.0057 15.2347
42.1969 15.0837
42.3882 14.9213
42.5797 14.6528
42.7713 14.4322
42.963 14.2882
43.1549 14.1198
43.3468 13.8297
43.5389 13.6909
43.7312 13.4816
43.9237 13.3355
44.1162 13.1092
44.3088 12.9492
44.5016 12.7649
44.6945 12.5939
44.8875 12.4054
45.0806 12.2816
45.2739 12.0968
45.4673 11.9133
45.6609 11.6875
45.8546 11.5833
46.0484 11.3558
46.2424 11.2452
46.4365 11.0926
46.631 10.9027
46.8254 10.7737
47.0199 10.6262
47.2146 10.4491
47.4095 10.2885
47.6044 10.1262
47.7996 9.97501
47.9948 9.83004
48.1902 9.6947
48.3858 9.5339
48.5815 9.40937
48.7774 9.28701
48.9734 9.18331
49.1696 8.97881
49.3661 8.8481
49.5626 8.73442
49.7592 8.59252
49.956 8.47839
50.153 8.35096
50.3501 8.20185
50.5474 8.08465
50.7448 7.9509
50.9424 7.81708
51.1402 7.72334
51.3381 7.57809
51.5362 7.47487
51.7344 7.34129
51.9328 7.19902
52.1316 7.09159
52.3304 6.99471
52.5293 6.93265
52.7284 6.79878
52.9276 6.64741
53.1271 6.54848
53.3267 6.44388
53.5265 6.29478
53.7264 6.20605
53.9266 6.02923
54.1269 5.9782
54.3274 5.91687
54.528 5.7519
54.7289 5.56707
54.9301 5.3768
55.1314 5.3014
55.3328 5.09066
55.5344 4.89752
55.7361 4.77136