File: XRD/Ni3Fe_FD0533.xy
TT I
1.27165 7.75501
1.45013 5.84309
1.62863 5.37625
1.80712 5.30229
1.98562 4.73832
2.16411 5.08371
2.34263 5.54489
2.52115 6.70474
2.69965 7.42127
2.87818 8.06996
3.05672 11.191
3.23527 15.0418
3.4138 18.7649
3.59237 24.8245
3.77094 26.178
3.9495 30.1625
4.12809 35.4586
4.30669 279.486
4.4853 72.0624
4.6639 55.674
4.84253 67.9073
5.02118 87.7167
5.19981 371.355
5.37848 206.515
5.55716 103.714
5.73586 92.7706
5.91455 95.089
6.09328 4108.49
6.27201 85.8321
6.45075 68.5347
6.62952 63.863
6.8083 59.7913
6.98711 57.1693
7.16591 56.4071
7.34475 105.582
7.5236 55.5839
7.70247 56.8924
7.88135 58.523
8.06026 62.9904
8.23919 70.0925
8.41812 86.7185
8.59709 1099.45
8.77609 102.155
8.9551 94.7326
9.13412 83.0433
9.31318 83.3012
9.49226 85.3473
9.67134 102.418
9.85047 101.268
10.0296 332.251
10.2088 464.683
10.388 106.577
10.5672 494.499
10.7465 87.9157
10.9257 79.7607
11.105 72.9292
11.2844 72.5687
11.4637 65.8645
11.6431 64.6387
11.8225 63.0577
12.002 64.462
12.1814 146.832
12.3609 73.5455
12.5405 65.4754
12.72 72.1183
12.8996 71.8235
13.0792 79.4509
13.2589 225.035
13.4386 132.02
13.6183 233.208
13.7981 103.245
13.9779 76.7973
14.1577 73.7057
14.3376 73.303
14.5175 69.4192
14.6974 71.042
14.8774 108.425
15.0574 160.083
15.2374 72.8093
15.4175 67.2573
15.5976 66.5539
15.7778 93.7059
15.958 164.423
16.1382 64.3278
16.3185 59.831
16.4988 56.4085
16.6792 55.3648
16.8596 56.2185
17.04 56.4922
17.2205 66.3453
17.401 73.7157
17.5815 59.7302
17.7622 61.7957
17.9428 74.0789
18.1237 137.845
18.3044 89.6568
18.4852 81.1083
18.666 61.0761
18.8469 58.7267
19.0278 57.6766
19.2088 60.1526
19.3898 77.0667
19.5709 55.1628
19.752 53.7632
19.9332 56.7508
20.1144 70.5694
20.2957 63.7217
20.477 54.9269
20.6586 50.4256
20.84 49.5508
21.0215 49.2424
21.203 51.2699
21.3846 49.7539
21.5662 49.2884
21.7479 52.851
21.9297 64.9182
22.1115 56.2963
22.2933 50.6905
22.4753 49.6083
22.6572 49.3936
22.8393 52.2369
23.0214 58.3274
23.2037 49.5055
23.3859 50.0184
23.5682 56.9064
23.7505 49.1394
23.9329 45.7947
24.1154 44.7644
24.2979 43.8655
24.4805 43.5504
24.6631 43.3734
24.8458 42.7662
25.0286 43.2537
25.2114 45.0532
25.3943 45.2982
25.5773 41.4653
25.7605 41.0063
25.9436 41.1869
26.1268 42.2554
26.31 40.5912
26.4933 41.1801
26.6767 42.5579
26.8601 40.9355
27.0437 39.2814
27.2272 38.9958
27.4109 38.7838
27.5946 38.7411
27.7784 38.2985
27.9623 38.6336
28.1462 39.4283
28.3304 37.7089
28.5145 36.3476
28.6987 36.0619
28.8829 35.9547
29.0673 35.0442
29.2517 34.7408
29.4361 34.5379
29.6207 33.6461
29.8053 33.24
29.99 32.9209
30.1748 32.8255
30.3597 32.6962
30.5447 32.4396
30.7297 32.5505
30.915 31.9606
31.1002 31.4912
31.2855 31.2123
31.4708 31.0742
31.6563 30.7438
31.8418 30.3778
32.0275 30.1932
32.2132 29.7336
32.399 29.2449
32.5848 28.8308
32.7708 28.4069
32.9569 28.2786
33.143 28.153
33.3293 27.6864
33.5158 27.3997
33.7022 26.9595
33.8887 26.6073
34.0753 26.2644
34.262 25.8918
34.4488 25.643
34.6357 25.3183
34.8227 24.987
35.0098 24.8
35.1969 24.49
35.3842 24.2713
35.5716 24.0689
35.759 23.7245
35.9468 23.3913
36.1345 23.0969
36.3222 22.9202
36.5101 22.7109
36.6981 22.4306
36.8861 22.0595
37.0743 21.7915
37.2626 21.5746
37.451 21.2215
37.6395 21.1166
37.8281 20.6903
38.0168 20.4476
38.2056 20.164
38.3945 19.9545
38.5837 19.6398
38.7728 19.4457
38.9621 19.1706
39.1514 18.9867
39.3409 18.6758
39.5304 18.5345
39.7201 18.2741
39.9099 18.0873
40.0999 17.8076
40.2899 17.6153
40.48 17.3557
40.6703 17.1381
40.8607 16.9159
41.0512 16.7467
41.242 16.5226
41.4327 16.2421
41.6236 16.0142
41.8146 15.8245
42.0057 15.6365
42.1969 15.399
42.3882 15.2862
42.5797 15.0024
42.7713 14.8403
42.963 14.6241
43.1549 14.3968
43.3468 14.1918
43.5389 14.0168
43.7312 13.8102
43.9237 13.6703
44.1162 13.4307
44.3088 13.243
44.5016 13.0481
44.6945 12.9099
44.8875 12.7176
45.0806 12.559
45.2739 12.3397
45.4673 12.2013
45.6609 11.9792
45.8546 11.8111
46.0484 11.7109
46.2424 11.5421
46.4365 11.3254
46.631 11.1519
46.8254 11.0051
47.0199 10.885
47.2146 10.7031
47.4095 10.5208
47.6044 10.3638
47.7996 10.239
47.9948 10.0892
48.1902 9.9193
48.3858 9.79008
48.5815 9.66569
48.7774 9.51838
48.9734 9.38054
49.1696 9.19304
49.3661 9.10826
49.5626 8.92724
49.7592 8.82566
49.956 8.66432
50.153 8.54305
50.3501 8.42212
50.5474 8.28734
50.7448 8.13468
50.9424 8.02137
51.1402 7.89265
51.3381 7.76386
51.5362 7.63764
51.7344 7.52238
51.9328 7.38014
52.1316 7.25991
52.3304 7.14626
52.5293 7.04234
52.7284 6.90188
52.9276 6.81027
53.1271 6.66991
53.3267 6.59975
53.5265 6.48618
53.7264 6.35787
53.9266 6.24629
54.1269 6.12723
54.3274 6.03435
54.528 5.84956
54.7289 5.7118
54.9301 5.56253
55.1314 5.42538
55.3328 5.2084
55.5344 4.98367
55.7361 4.82167