File: XRD/Ni3Fe_FD0578.xy
TT I
1.27165 7.75906
1.45013 5.91751
1.62863 5.30076
1.80712 5.34718
1.98562 4.50805
2.16411 4.80462
2.34263 5.2419
2.52115 7.05797
2.69965 8.29885
2.87818 8.11462
3.05672 10.9131
3.23527 14.5263
3.4138 18.9699
3.59237 23.2195
3.77094 26.595
3.9495 29.5532
4.12809 34.2416
4.30669 125.657
4.4853 56.804
4.6639 56.4646
4.84253 69.1218
5.02118 88.9475
5.19981 468.488
5.37848 198.04
5.55716 104.088
5.73586 93.6936
5.91455 97.2629
6.09328 4437.04
6.27201 82.582
6.45075 68.2399
6.62952 63.0315
6.8083 59.3257
6.98711 56.1398
7.16591 55.643
7.34475 72.9956
7.5236 54.7748
7.70247 56.8437
7.88135 58.1493
8.06026 62.945
8.23919 70.3363
8.41812 85.584
8.59709 1241.57
8.77609 99.3379
8.9551 89.6167
9.13412 82.9971
9.31318 84.2278
9.49226 85.386
9.67134 95.8955
9.85047 101.409
10.0296 382.752
10.2088 367.085
10.388 106.453
10.5672 522.018
10.7465 86.7692
10.9257 78.2981
11.105 71.9971
11.2844 69.3279
11.4637 64.9642
11.6431 64.1358
11.8225 63.107
12.002 64.9636
12.1814 156.388
12.3609 68.2337
12.5405 65.3559
12.72 68.8827
12.8996 71.558
13.0792 81.3514
13.2589 252.739
13.4386 121.368
13.6183 255.952
13.7981 96.4964
13.9779 76.2964
14.1577 72.4806
14.3376 71.1554
14.5175 69.3257
14.6974 71.2247
14.8774 116.592
15.0574 143.348
15.2374 70.419
15.4175 66.7417
15.5976 66.6438
15.7778 99.2507
15.958 149.998
16.1382 61.8381
16.3185 58.3623
16.4988 55.6533
16.6792 54.7832
16.8596 55.3832
17.04 56.8674
17.2205 68.1952
17.401 70.68
17.5815 59.6302
17.7622 61.8161
17.9428 75.8228
18.1237 141.912
18.3044 92.0643
18.4852 76.4274
18.666 60.7741
18.8469 58.5612
19.0278 57.2867
19.2088 60.0919
19.3898 76.0067
19.5709 54.4863
19.752 53.8352
19.9332 56.9734
20.1144 70.1128
20.2957 64.2242
20.477 53.4635
20.6586 49.9531
20.84 49.2357
21.0215 48.9442
21.203 51.2044
21.3846 49.2308
21.5662 49.2792
21.7479 53.3819
21.9297 65.0371
22.1115 56.2638
22.2933 50.167
22.4753 49.2339
22.6572 49.2978
22.8393 52.6095
23.0214 57.3247
23.2037 49.2229
23.3859 50.3422
23.5682 57.4164
23.7505 48.1916
23.9329 45.6117
24.1154 44.1077
24.2979 43.7459
24.4805 43.1487
24.6631 43.0946
24.8458 42.5217
25.0286 43.4292
25.2114 44.9783
25.3943 44.7154
25.5773 41.0294
25.7605 40.7849
25.9436 41.0992
26.1268 42.015
26.31 40.3398
26.4933 40.9355
26.6767 42.3961
26.8601 40.7475
27.0437 39.1552
27.2272 38.8347
27.4109 38.6107
27.5946 38.7676
27.7784 38.0662
27.9623 38.789
28.1462 39.058
28.3304 37.3712
28.5145 36.202
28.6987 35.7434
28.8829 35.6519
29.0673 34.8467
29.2517 34.5801
29.4361 34.4322
29.6207 33.2435
29.8053 33.0104
29.99 32.6815
30.1748 32.6558
30.3597 32.4236
30.5447 32.3816
30.7297 32.4391
30.915 31.8043
31.1002 31.2553
31.2855 31.1213
31.4708 31.0632
31.6563 30.5828
31.8418 30.3042
32.0275 30.095
32.2132 29.6132
32.399 29.0433
32.5848 28.5853
32.7708 28.2152
32.9569 28.1882
33.143 27.9606
33.3293 27.6106
33.5158 27.1649
33.7022 26.7302
33.8887 26.4958
34.0753 26.1146
34.262 25.8607
34.4488 25.4513
34.6357 25.1607
34.8227 24.8161
35.0098 24.6742
35.1969 24.3582
35.3842 24.1699
35.5716 23.9593
35.759 23.5748
35.9468 23.2846
36.1345 23.0842
36.3222 22.7993
36.5101 22.6178
36.6981 22.3052
36.8861 21.8789
37.0743 21.6515
37.2626 21.3732
37.451 21.1184
37.6395 20.9986
37.8281 20.6813
38.0168 20.3259
38.2056 20.0899
38.3945 19.8153
38.5837 19.6082
38.7728 19.299
38.9621 19.0497
39.1514 18.7779
39.3409 18.5218
39.5304 18.3189
39.7201 18.2156
39.9099 17.9553
40.0999 17.6933
40.2899 17.5056
40.48 17.2838
40.6703 17.0428
40.8607 16.8295
41.0512 16.5773
41.242 16.2992
41.4327 16.1283
41.6236 15.87
41.8146 15.7183
42.0057 15.4791
42.1969 15.2492
42.3882 15.1164
42.5797 14.9075
42.7713 14.6667
42.963 14.4662
43.1549 14.319
43.3468 14.096
43.5389 13.9115
43.7312 13.7299
43.9237 13.5339
44.1162 13.3441
44.3088 13.1692
44.5016 12.9521
44.6945 12.823
44.8875 12.5696
45.0806 12.4364
45.2739 12.2609
45.4673 12.0765
45.6609 11.8966
45.8546 11.7204
46.0484 11.6245
46.2424 11.4191
46.4365 11.2854
46.631 11.108
46.8254 10.9302
47.0199 10.7876
47.2146 10.6036
47.4095 10.4337
47.6044 10.2937
47.7996 10.1158
47.9948 9.99652
48.1902 9.85016
48.3858 9.69059
48.5815 9.59492
48.7774 9.44954
48.9734 9.29748
49.1696 9.16408
49.3661 8.99864
49.5626 8.85718
49.7592 8.75358
49.956 8.60639
50.153 8.48055
50.3501 8.33164
50.5474 8.22709
50.7448 8.1154
50.9424 7.95762
51.1402 7.85962
51.3381 7.69694
51.5362 7.59314
51.7344 7.43577
51.9328 7.31147
52.1316 7.20951
52.3304 7.10265
52.5293 6.95175
52.7284 6.85411
52.9276 6.76494
53.1271 6.62298
53.3267 6.52856
53.5265 6.42762
53.7264 6.2663
53.9266 6.18106
54.1269 6.04734
54.3274 5.99147
54.528 5.84223
54.7289 5.65811
54.9301 5.53346
55.1314 5.3724
55.3328 5.18901
55.5344 4.99856
55.7361 4.85036