File: XRD/Ni3Fe_FD0659.xy
TT I
1.27165 7.22507
1.45013 5.71977
1.62863 4.96033
1.80712 4.9956
1.98562 4.69533
2.16411 5.03958
2.34263 4.88826
2.52115 7.08425
2.69965 8.42112
2.87818 8.16986
3.05672 10.6635
3.23527 14.9169
3.4138 18.893
3.59237 24.2035
3.77094 26.4138
3.9495 30.0128
4.12809 34.8839
4.30669 245.087
4.4853 68.1528
4.6639 55.0419
4.84253 67.0435
5.02118 86.4097
5.19981 325.0
5.37848 188.634
5.55716 101.797
5.73586 92.0657
5.91455 93.39
6.09328 4533.71
6.27201 82.7479
6.45075 67.0821
6.62952 63.0259
6.8083 58.8537
6.98711 55.8969
7.16591 55.8755
7.34475 97.0474
7.5236 54.697
7.70247 56.1032
7.88135 57.9062
8.06026 61.9243
8.23919 69.5162
8.41812 85.2552
8.59709 1156.7
8.77609 99.1957
8.9551 92.1276
9.13412 81.6657
9.31318 82.2209
9.49226 83.786
9.67134 99.6542
9.85047 99.3808
10.0296 324.574
10.2088 414.157
10.388 104.436
10.5672 508.971
10.7465 86.4996
10.9257 78.4821
11.105 72.1095
11.2844 70.7381
11.4637 64.722
11.6431 63.4262
11.8225 62.4492
12.002 63.4089
12.1814 150.135
12.3609 70.977
12.5405 64.6833
12.72 70.3659
12.8996 70.8449
13.0792 78.4818
13.2589 233.301
13.4386 121.955
13.6183 242.269
13.7981 95.4543
13.9779 75.6373
14.1577 72.5598
14.3376 71.7465
14.5175 68.7412
14.6974 70.1653
14.8774 107.436
15.0574 148.09
15.2374 71.5064
15.4175 66.3339
15.5976 65.5496
15.7778 92.8618
15.958 157.758
16.1382 62.9907
16.3185 58.7303
16.4988 55.368
16.6792 54.5779
16.8596 55.1193
17.04 55.6289
17.2205 66.1022
17.401 71.0559
17.5815 59.0901
17.7622 61.27
17.9428 72.8399
18.1237 143.134
18.3044 89.8633
18.4852 77.2082
18.666 60.3284
18.8469 58.0007
19.0278 56.7785
19.2088 59.4028
19.3898 77.6075
19.5709 54.1893
19.752 53.1693
19.9332 56.0821
20.1144 70.1208
20.2957 63.83
20.477 53.4598
20.6586 49.7613
20.84 48.8203
21.0215 48.566
21.203 50.875
21.3846 49.0087
21.5662 48.6939
21.7479 52.3963
21.9297 65.0185
22.1115 56.1028
22.2933 49.7827
22.4753 48.8619
22.6572 48.7765
22.8393 51.8069
23.0214 57.7457
23.2037 48.7955
23.3859 49.6168
23.5682 57.2246
23.7505 48.1526
23.9329 45.2515
24.1154 44.2355
24.2979 43.5474
24.4805 42.9104
24.6631 42.772
24.8458 42.2998
25.0286 42.8673
25.2114 44.5758
25.3943 44.598
25.5773 40.9618
25.7605 40.6028
25.9436 40.8614
26.1268 41.8532
26.31 40.0429
26.4933 40.6941
26.6767 42.2435
26.8601 40.4545
27.0437 38.8025
27.2272 38.5953
27.4109 38.3359
27.5946 38.3946
27.7784 37.8979
27.9623 38.5783
28.1462 38.892
28.3304 37.198
28.5145 35.9941
28.6987 35.5146
28.8829 35.4483
29.0673 34.71
29.2517 34.3844
29.4361 34.115
29.6207 33.2314
29.8053 32.9693
29.99 32.5246
30.1748 32.5177
30.3597 32.3171
30.5447 32.2194
30.7297 32.2544
30.915 31.6671
31.1002 31.1906
31.2855 30.9075
31.4708 30.8711
31.6563 30.3939
31.8418 30.1225
32.0275 29.8526
32.2132 29.3588
32.399 28.997
32.5848 28.4256
32.7708 28.1827
32.9569 28.045
33.143 27.7505
33.3293 27.4133
33.5158 27.0191
33.7022 26.6179
33.8887 26.305
34.0753 25.9766
34.262 25.6225
34.4488 25.239
34.6357 25.0343
34.8227 24.7388
35.0098 24.555
35.1969 24.2288
35.3842 24.0607
35.5716 23.7682
35.759 23.4929
35.9468 23.1258
36.1345 22.911
36.3222 22.6642
36.5101 22.4895
36.6981 22.1407
36.8861 21.8417
37.0743 21.5427
37.2626 21.2876
37.451 20.9574
37.6395 20.8133
37.8281 20.4785
38.0168 20.2191
38.2056 19.969
38.3945 19.71
38.5837 19.5199
38.7728 19.264
38.9621 18.9914
39.1514 18.6887
39.3409 18.5409
39.5304 18.3186
39.7201 18.1206
39.9099 17.8751
40.0999 17.6062
40.2899 17.3647
40.48 17.0991
40.6703 16.944
40.8607 16.7472
41.0512 16.5179
41.242 16.2564
41.4327 16.0545
41.6236 15.8889
41.8146 15.6375
42.0057 15.488
42.1969 15.2051
42.3882 15.0995
42.5797 14.84
42.7713 14.6289
42.963 14.4313
43.1549 14.2639
43.3468 14.0178
43.5389 13.8893
43.7312 13.6432
43.9237 13.5099
44.1162 13.3177
44.3088 13.1203
44.5016 12.9291
44.6945 12.7453
44.8875 12.5961
45.0806 12.4219
45.2739 12.2086
45.4673 12.031
45.6609 11.8865
45.8546 11.7177
46.0484 11.5666
46.2424 11.3449
46.4365 11.22
46.631 11.0548
46.8254 10.899
47.0199 10.7497
47.2146 10.5875
47.4095 10.4015
47.6044 10.2098
47.7996 10.1043
47.9948 9.94664
48.1902 9.81544
48.3858 9.67767
48.5815 9.51401
48.7774 9.42837
48.9734 9.24342
49.1696 9.09423
49.3661 8.95994
49.5626 8.84379
49.7592 8.7437
49.956 8.62335
50.153 8.45032
50.3501 8.35479
50.5474 8.17949
50.7448 8.06026
50.9424 7.93131
51.1402 7.80536
51.3381 7.67611
51.5362 7.58316
51.7344 7.47566
51.9328 7.32485
52.1316 7.17049
52.3304 7.08741
52.5293 6.96357
52.7284 6.88208
52.9276 6.70553
53.1271 6.66547
53.3267 6.52159
53.5265 6.38914
53.7264 6.2782
53.9266 6.14559
54.1269 6.05928
54.3274 5.94345
54.528 5.83353
54.7289 5.64915
54.9301 5.50269
55.1314 5.35375
55.3328 5.14547
55.5344 4.95814
55.7361 4.8078