File: XRD/Ni3Fe_FD0295.xy
TT I
1.27165 7.50517
1.45013 6.3128
1.62863 5.47379
1.80712 5.48331
1.98562 4.68442
2.16411 5.36325
2.34263 5.2255
2.52115 6.32272
2.69965 7.25453
2.87818 8.20196
3.05672 11.0659
3.23527 15.7195
3.4138 19.3484
3.59237 25.1278
3.77094 27.0614
3.9495 30.5614
4.12809 36.2934
4.30669 291.193
4.4853 74.3801
4.6639 57.2193
4.84253 69.185
5.02118 91.1338
5.19981 500.411
5.37848 258.606
5.55716 107.648
5.73586 96.6737
5.91455 100.763
6.09328 3698.62
6.27201 90.0942
6.45075 70.4225
6.62952 65.8678
6.8083 61.6909
6.98711 58.1542
7.16591 58.029
7.34475 109.756
7.5236 56.8871
7.70247 58.185
7.88135 60.1078
8.06026 64.7996
8.23919 72.0757
8.41812 89.6475
8.59709 999.952
8.77609 108.393
8.9551 97.5436
9.13412 84.9317
9.31318 85.5637
9.49226 87.8654
9.67134 105.36
9.85047 103.799
10.0296 381.713
10.2088 589.695
10.388 110.813
10.5672 450.537
10.7465 90.9235
10.9257 81.6778
11.105 74.5551
11.2844 74.1741
11.4637 67.1537
11.6431 65.9739
11.8225 64.7339
12.002 65.8669
12.1814 137.271
12.3609 77.1833
12.5405 67.183
12.72 74.22
12.8996 73.6351
13.0792 81.899
13.2589 212.664
13.4386 148.775
13.6183 214.893
13.7981 113.754
13.9779 78.6129
14.1577 75.6379
14.3376 75.011
14.5175 71.1253
14.6974 73.2312
14.8774 109.387
15.0574 176.109
15.2374 74.7315
15.4175 68.7202
15.5976 68.0617
15.7778 95.6917
15.958 178.346
16.1382 66.2197
16.3185 61.4469
16.4988 57.6688
16.6792 56.6691
16.8596 57.5058
17.04 57.9102
17.2205 67.0248
17.401 77.3049
17.5815 61.5003
17.7622 63.4648
17.9428 77.2089
18.1237 137.866
18.3044 88.8273
18.4852 85.7724
18.666 62.9226
18.8469 60.1505
19.0278 59.0025
19.2088 61.7554
19.3898 78.2377
19.5709 56.5233
19.752 55.3395
19.9332 58.1706
20.1144 71.4485
20.2957 64.1517
20.477 56.8775
20.6586 51.5294
20.84 50.8136
21.0215 50.5086
21.203 52.0683
21.3846 51.0041
21.5662 50.5016
21.7479 54.3073
21.9297 66.3533
22.1115 57.6603
22.2933 52.2521
22.4753 50.8377
22.6572 50.6638
22.8393 52.9768
23.0214 60.1639
23.2037 50.8057
23.3859 51.596
23.5682 57.3017
23.7505 51.1677
23.9329 47.0565
24.1154 45.7206
24.2979 45.1606
24.4805 44.4416
24.6631 44.516
24.8458 43.8391
25.0286 44.3
25.2114 46.1244
25.3943 46.4845
25.5773 42.4795
25.7605 41.9042
25.9436 42.2505
26.1268 43.0985
26.31 41.6335
26.4933 42.0069
26.6767 43.5035
26.8601 41.9794
27.0437 40.3253
27.2272 39.9543
27.4109 39.7847
27.5946 39.904
27.7784 39.1854
27.9623 39.5685
28.1462 40.2555
28.3304 38.7017
28.5145 37.3218
28.6987 36.8996
28.8829 36.6831
29.0673 36.0286
29.2517 35.5206
29.4361 35.3908
29.6207 34.3871
29.8053 34.2319
29.99 33.8662
30.1748 33.6324
30.3597 33.5854
30.5447 33.3443
30.7297 33.416
30.915 32.7925
31.1002 32.2898
31.2855 32.0022
31.4708 31.9817
31.6563 31.4638
31.8418 31.1874
32.0275 31.0434
32.2132 30.5098
32.399 30.0605
32.5848 29.4753
32.7708 29.2879
32.9569 29.0396
33.143 28.7558
33.3293 28.4864
33.5158 28.0397
33.7022 27.6334
33.8887 27.359
34.0753 27.0339
34.262 26.5678
34.4488 26.1819
34.6357 25.9586
34.8227 25.6073
35.0098 25.3612
35.1969 25.1594
35.3842 24.8879
35.5716 24.7347
35.759 24.3625
35.9468 23.954
36.1345 23.7583
36.3222 23.5407
36.5101 23.2085
36.6981 22.9619
36.8861 22.5982
37.0743 22.2933
37.2626 22.0665
37.451 21.8103
37.6395 21.6569
37.8281 21.2863
38.0168 20.9643
38.2056 20.7147
38.3945 20.4056
38.5837 20.1693
38.7728 19.9027
38.9621 19.7265
39.1514 19.411
39.3409 19.1709
39.5304 18.9456
39.7201 18.7267
39.9099 18.4451
40.0999 18.2378
40.2899 17.9992
40.48 17.7946
40.6703 17.5941
40.8607 17.3584
41.0512 17.0825
41.242 16.8647
41.4327 16.6711
41.6236 16.3574
41.8146 16.2642
42.0057 15.9815
42.1969 15.8288
42.3882 15.6222
42.5797 15.4152
42.7713 15.1346
42.963 15.0061
43.1549 14.7546
43.3468 14.5418
43.5389 14.3901
43.7312 14.1248
43.9237 13.9683
44.1162 13.7707
44.3088 13.5312
44.5016 13.4219
44.6945 13.2711
44.8875 13.0034
45.0806 12.8678
45.2739 12.6798
45.4673 12.4538
45.6609 12.3055
45.8546 12.1821
46.0484 11.9814
46.2424 11.8061
46.4365 11.6178
46.631 11.4235
46.8254 11.2508
47.0199 11.1148
47.2146 10.9473
47.4095 10.7928
47.6044 10.5962
47.7996 10.4904
47.9948 10.307
48.1902 10.159
48.3858 10.0238
48.5815 9.92253
48.7774 9.73555
48.9734 9.60852
49.1696 9.39746
49.3661 9.28266
49.5626 9.16162
49.7592 9.0448
49.956 8.90946
50.153 8.81105
50.3501 8.63243
50.5474 8.50452
50.7448 8.36936
50.9424 8.22607
51.1402 8.07384
51.3381 7.94371
51.5362 7.84626
51.7344 7.70528
51.9328 7.56095
52.1316 7.4442
52.3304 7.33153
52.5293 7.23438
52.7284 7.08696
52.9276 6.94455
53.1271 6.86634
53.3267 6.75595
53.5265 6.61365
53.7264 6.5033
53.9266 6.38927
54.1269 6.28826
54.3274 6.16404
54.528 5.9841
54.7289 5.81154
54.9301 5.70218
55.1314 5.60545
55.3328 5.35286
55.5344 5.1931
55.7361 4.94959