File: XRD/Ni3Fe_FD0977.xy
TT I
1.27165 7.20445
1.45013 6.14938
1.62863 4.73751
1.80712 4.56504
1.98562 4.37172
2.16411 5.25025
2.34263 5.86705
2.52115 6.86075
2.69965 8.67868
2.87818 8.68919
3.05672 10.9681
3.23527 15.5163
3.4138 18.8241
3.59237 24.0327
3.77094 26.314
3.9495 29.7825
4.12809 34.7481
4.30669 221.292
4.4853 64.9502
4.6639 54.4934
4.84253 66.1691
5.02118 84.5912
5.19981 274.99
5.37848 172.372
5.55716 99.401
5.73586 90.1591
5.91455 90.2967
6.09328 4572.95
6.27201 81.3415
6.45075 66.0173
6.62952 61.9151
6.8083 57.7845
6.98711 55.0428
7.16591 54.7808
7.34475 91.0561
7.5236 53.9575
7.70247 55.4486
7.88135 56.6355
8.06026 61.2462
8.23919 68.2048
8.41812 83.3824
8.59709 1123.27
8.77609 96.7667
8.9551 90.4877
9.13412 80.5997
9.31318 80.9085
9.49226 83.1085
9.67134 96.9017
9.85047 97.976
10.0296 295.317
10.2088 361.061
10.388 101.953
10.5672 525.202
10.7465 84.774
10.9257 76.9277
11.105 70.4508
11.2844 69.4019
11.4637 63.7856
11.6431 62.6759
11.8225 61.2667
12.002 61.9225
12.1814 154.228
12.3609 69.2647
12.5405 63.4117
12.72 68.6822
12.8996 69.4462
13.0792 76.765
13.2589 232.428
13.4386 119.326
13.6183 245.679
13.7981 94.373
13.9779 74.3781
14.1577 70.9002
14.3376 70.3582
14.5175 67.4859
14.6974 68.7528
14.8774 105.089
15.0574 145.738
15.2374 69.8439
15.4175 64.8535
15.5976 64.3384
15.7778 89.9186
15.958 150.855
16.1382 61.4381
16.3185 57.6387
16.4988 54.4568
16.6792 53.4109
16.8596 54.0024
17.04 54.6674
17.2205 64.7879
17.401 68.5342
17.5815 58.1436
17.7622 60.0499
17.9428 70.4893
18.1237 138.979
18.3044 89.2147
18.4852 75.5108
18.666 59.1132
18.8469 56.8259
19.0278 55.7744
19.2088 57.8953
19.3898 75.1068
19.5709 53.0575
19.752 52.1271
19.9332 54.7738
20.1144 68.7604
20.2957 63.337
20.477 52.2537
20.6586 48.7522
20.84 47.9709
21.0215 47.5485
21.203 50.098
21.3846 47.9713
21.5662 47.6364
21.7479 51.2447
21.9297 63.5018
22.1115 55.1861
22.2933 48.7091
22.4753 47.9295
22.6572 47.701
22.8393 50.6571
23.0214 56.2228
23.2037 47.7073
23.3859 48.5559
23.5682 56.4732
23.7505 47.2647
23.9329 44.4039
24.1154 43.277
24.2979 42.6156
24.4805 42.1435
24.6631 41.856
24.8458 41.3069
25.0286 42.1188
25.2114 43.6963
25.3943 43.8063
25.5773 40.096
25.7605 39.6818
25.9436 40.0564
26.1268 40.8691
26.31 39.2484
26.4933 39.867
26.6767 41.3475
26.8601 39.6149
27.0437 38.1631
27.2272 37.7884
27.4109 37.6253
27.5946 37.5853
27.7784 37.1753
27.9623 37.6899
28.1462 38.0432
28.3304 36.391
28.5145 35.3017
28.6987 34.9189
28.8829 34.8023
29.0673 34.0518
29.2517 33.6534
29.4361 33.5278
29.6207 32.5349
29.8053 32.2383
29.99 31.9339
30.1748 31.8801
30.3597 31.6845
30.5447 31.4972
30.7297 31.6289
30.915 30.9251
31.1002 30.5879
31.2855 30.2676
31.4708 30.3185
31.6563 29.755
31.8418 29.4715
32.0275 29.2669
32.2132 28.7528
32.399 28.4189
32.5848 27.9959
32.7708 27.6402
32.9569 27.4912
33.143 27.2373
33.3293 26.8603
33.5158 26.5777
33.7022 26.0462
33.8887 25.8448
34.0753 25.4848
34.262 25.1276
34.4488 24.7434
34.6357 24.5222
34.8227 24.2048
35.0098 24.0315
35.1969 23.7432
35.3842 23.5227
35.5716 23.3626
35.759 22.9969
35.9468 22.6804
36.1345 22.4881
36.3222 22.1923
36.5101 21.9912
36.6981 21.7124
36.8861 21.4515
37.0743 21.1104
37.2626 20.9126
37.451 20.6359
37.6395 20.4727
37.8281 20.1001
38.0168 19.8184
38.2056 19.5722
38.3945 19.3378
38.5837 19.0873
38.7728 18.8036
38.9621 18.6118
39.1514 18.3523
39.3409 18.1576
39.5304 17.96
39.7201 17.7092
39.9099 17.4497
40.0999 17.27
40.2899 17.0383
40.48 16.9163
40.6703 16.6118
40.8607 16.4518
41.0512 16.1985
41.242 15.9787
41.4327 15.7849
41.6236 15.5194
41.8146 15.3784
42.0057 15.1763
42.1969 14.9341
42.3882 14.7727
42.5797 14.5358
42.7713 14.3575
42.963 14.1493
43.1549 13.9536
43.3468 13.7494
43.5389 13.6079
43.7312 13.3475
43.9237 13.2141
44.1162 13.0636
44.3088 12.8593
44.5016 12.6556
44.6945 12.5254
44.8875 12.3191
45.0806 12.0708
45.2739 11.9753
45.4673 11.8319
45.6609 11.637
45.8546 11.5551
46.0484 11.3329
46.2424 11.1253
46.4365 11.0092
46.631 10.8458
46.8254 10.6393
47.0199 10.481
47.2146 10.3943
47.4095 10.1931
47.6044 10.0482
47.7996 9.92123
47.9948 9.74881
48.1902 9.63521
48.3858 9.48504
48.5815 9.37345
48.7774 9.22116
48.9734 9.0972
49.1696 8.93754
49.3661 8.80281
49.5626 8.67113
49.7592 8.51302
49.956 8.40346
50.153 8.31865
50.3501 8.13417
50.5474 8.0283
50.7448 7.90408
50.9424 7.78467
51.1402 7.69828
51.3381 7.54007
51.5362 7.41704
51.7344 7.31232
51.9328 7.16141
52.1316 7.06643
52.3304 6.94053
52.5293 6.85641
52.7284 6.74691
52.9276 6.61104
53.1271 6.51128
53.3267 6.42313
53.5265 6.27652
53.7264 6.18644
53.9266 6.07715
54.1269 5.95376
54.3274 5.8322
54.528 5.69254
54.7289 5.58418
54.9301 5.41788
55.1314 5.25207
55.3328 5.05005
55.5344 4.88778
55.7361 4.72891