File: XRD/Ni3Fe_FD0366.xy
TT I
1.27165 8.02915
1.45013 6.7539
1.62863 5.68906
1.80712 4.93583
1.98562 4.31322
2.16411 4.96499
2.34263 4.55427
2.52115 6.29194
2.69965 7.07809
2.87818 8.40254
3.05672 10.9112
3.23527 15.0211
3.4138 18.9906
3.59237 23.2863
3.77094 26.383
3.9495 29.896
4.12809 34.8605
4.30669 108.419
4.4853 54.9223
4.6639 57.2276
4.84253 69.939
5.02118 92.0041
5.19981 621.528
5.37848 221.459
5.55716 106.7
5.73586 96.8028
5.91455 101.926
6.09328 4067.38
6.27201 85.2563
6.45075 69.7454
6.62952 63.5342
6.8083 60.1418
6.98711 57.0475
7.16591 56.3845
7.34475 69.4608
7.5236 55.5269
7.70247 57.375
7.88135 59.2422
8.06026 64.0957
8.23919 71.3282
8.41812 87.9485
8.59709 1195.64
8.77609 103.847
8.9551 90.8621
9.13412 84.8129
9.31318 86.0299
9.49226 87.1988
9.67134 96.4657
9.85047 103.824
10.0296 448.734
10.2088 451.58
10.388 110.057
10.5672 482.139
10.7465 89.3314
10.9257 79.2145
11.105 73.5546
11.2844 70.5242
11.4637 66.4109
11.6431 65.389
11.8225 64.1721
12.002 66.5652
12.1814 152.052
12.3609 69.3811
12.5405 66.1271
12.72 70.0305
12.8996 73.6041
13.0792 83.3558
13.2589 248.04
13.4386 131.732
13.6183 245.693
13.7981 101.841
13.9779 77.8866
14.1577 73.8933
14.3376 72.2608
14.5175 70.8585
14.6974 72.6468
14.8774 120.636
15.0574 152.463
15.2374 71.8261
15.4175 68.3302
15.5976 68.1474
15.7778 103.711
15.958 160.998
16.1382 63.3124
16.3185 59.5273
16.4988 57.1109
16.6792 55.9256
16.8596 56.3053
17.04 57.7969
17.2205 69.2515
17.401 72.9477
17.5815 60.9069
17.7622 63.2557
17.9428 79.3693
18.1237 139.316
18.3044 91.6899
18.4852 78.7707
18.666 62.0332
18.8469 59.8017
19.0278 58.4203
19.2088 61.6931
19.3898 76.8496
19.5709 55.8771
19.752 54.8719
19.9332 58.317
20.1144 71.389
20.2957 64.4799
20.477 55.0372
20.6586 50.9048
20.84 50.0606
21.0215 49.9072
21.203 52.0378
21.3846 50.2112
21.5662 50.5599
21.7479 54.6819
21.9297 66.0098
22.1115 57.0415
22.2933 51.294
22.4753 50.1553
22.6572 50.5285
22.8393 53.7983
23.0214 58.7151
23.2037 50.3656
23.3859 51.7055
23.5682 57.783
23.7505 49.632
23.9329 46.5008
24.1154 45.2409
24.2979 44.5755
24.4805 44.1818
24.6631 44.0005
24.8458 43.5212
25.0286 44.2893
25.2114 45.8971
25.3943 45.866
25.5773 42.0305
25.7605 41.6679
25.9436 41.9093
26.1268 42.7155
26.31 41.3999
26.4933 41.8858
26.6767 43.3441
26.8601 41.5592
27.0437 39.9226
27.2272 39.6769
27.4109 39.4499
27.5946 39.4732
27.7784 38.9581
27.9623 39.4886
28.1462 39.7357
28.3304 38.2721
28.5145 36.9786
28.6987 36.4984
28.8829 36.3814
29.0673 35.6119
29.2517 35.2698
29.4361 35.0602
29.6207 34.0345
29.8053 33.757
29.99 33.5
30.1748 33.2942
30.3597 33.1599
30.5447 32.991
30.7297 32.9913
30.915 32.5188
31.1002 31.9059
31.2855 31.7699
31.4708 31.6218
31.6563 31.2436
31.8418 30.8902
32.0275 30.7495
32.2132 30.1786
32.399 29.6492
32.5848 29.2678
32.7708 28.8416
32.9569 28.8304
33.143 28.481
33.3293 28.1258
33.5158 27.7871
33.7022 27.3126
33.8887 26.9839
34.0753 26.6877
34.262 26.3138
34.4488 26.0059
34.6357 25.7184
34.8227 25.4193
35.0098 25.1187
35.1969 24.8326
35.3842 24.5571
35.5716 24.3932
35.759 24.0762
35.9468 23.7426
36.1345 23.5378
36.3222 23.2329
36.5101 23.0402
36.6981 22.6195
36.8861 22.3783
37.0743 22.0317
37.2626 21.8223
37.451 21.5136
37.6395 21.3338
37.8281 20.9826
38.0168 20.7645
38.2056 20.4353
38.3945 20.1796
38.5837 19.9872
38.7728 19.6823
38.9621 19.4793
39.1514 19.1797
39.3409 18.9312
39.5304 18.6569
39.7201 18.504
39.9099 18.2745
40.0999 18.0551
40.2899 17.8201
40.48 17.5763
40.6703 17.3542
40.8607 17.16
41.0512 16.865
41.242 16.7206
41.4327 16.4726
41.6236 16.1984
41.8146 16.018
42.0057 15.8206
42.1969 15.5878
42.3882 15.4292
42.5797 15.2458
42.7713 14.9886
42.963 14.7895
43.1549 14.5888
43.3468 14.38
43.5389 14.1395
43.7312 13.9504
43.9237 13.8104
44.1162 13.6178
44.3088 13.4569
44.5016 13.2234
44.6945 13.0524
44.8875 12.891
45.0806 12.6678
45.2739 12.5226
45.4673 12.3716
45.6609 12.1522
45.8546 12.0257
46.0484 11.8198
46.2424 11.6883
46.4365 11.4482
46.631 11.3035
46.8254 11.1113
47.0199 10.9742
47.2146 10.8185
47.4095 10.645
47.6044 10.5109
47.7996 10.343
47.9948 10.1875
48.1902 10.0483
48.3858 9.94586
48.5815 9.7827
48.7774 9.61777
48.9734 9.4663
49.1696 9.31981
49.3661 9.18454
49.5626 9.04898
49.7592 8.93989
49.956 8.79014
50.153 8.6301
50.3501 8.51177
50.5474 8.37711
50.7448 8.25876
50.9424 8.1062
51.1402 7.99959
51.3381 7.87197
51.5362 7.73337
51.7344 7.63345
51.9328 7.4824
52.1316 7.33796
52.3304 7.22716
52.5293 7.12784
52.7284 7.01405
52.9276 6.84873
53.1271 6.77605
53.3267 6.65056
53.5265 6.54972
53.7264 6.45838
53.9266 6.3111
54.1269 6.19937
54.3274 6.11763
54.528 5.95315
54.7289 5.77944
54.9301 5.61811
55.1314 5.50109
55.3328 5.30746
55.5344 5.05107
55.7361 4.95299