File: XRD/Ni3Fe_FD0361.xy
TT I
1.27165 8.09441
1.45013 6.63316
1.62863 5.22901
1.80712 5.15362
1.98562 4.60057
2.16411 4.62385
2.34263 4.61334
2.52115 6.0804
2.69965 7.27402
2.87818 8.46131
3.05672 10.7562
3.23527 14.6473
3.4138 18.813
3.59237 23.1424
3.77094 26.2915
3.9495 30.2044
4.12809 34.9738
4.30669 114.693
4.4853 55.6389
4.6639 56.7355
4.84253 69.8805
5.02118 91.5377
5.19981 618.723
5.37848 220.5
5.55716 106.697
5.73586 96.7489
5.91455 102.197
6.09328 4025.87
6.27201 85.4175
6.45075 69.5469
6.62952 63.7712
6.8083 60.0243
6.98711 56.9106
7.16591 56.6897
7.34475 71.2227
7.5236 55.6633
7.70247 57.3775
7.88135 59.3652
8.06026 64.2057
8.23919 71.4354
8.41812 87.9408
8.59709 1195.51
8.77609 104.145
8.9551 91.0315
9.13412 85.0782
9.31318 85.8982
9.49226 87.2922
9.67134 97.4243
9.85047 103.484
10.0296 446.452
10.2088 448.973
10.388 109.941
10.5672 487.917
10.7465 89.3144
10.9257 79.4167
11.105 73.7126
11.2844 70.3806
11.4637 66.65
11.6431 64.992
11.8225 64.0896
12.002 66.4889
12.1814 151.474
12.3609 69.8188
12.5405 66.2508
12.72 69.9645
12.8996 73.4528
13.0792 83.2467
13.2589 247.711
13.4386 132.588
13.6183 245.248
13.7981 101.449
13.9779 78.1242
14.1577 74.141
14.3376 72.5484
14.5175 70.8499
14.6974 72.8483
14.8774 120.689
15.0574 151.924
15.2374 71.6925
15.4175 68.5056
15.5976 68.283
15.7778 103.533
15.958 161.263
16.1382 63.2342
16.3185 59.5498
16.4988 57.0748
16.6792 56.1316
16.8596 56.3015
17.04 57.9296
17.2205 69.1509
17.401 72.9411
17.5815 61.0331
17.7622 63.451
17.9428 79.0551
18.1237 139.715
18.3044 91.7189
18.4852 79.0072
18.666 62.138
18.8469 59.8094
19.0278 58.4444
19.2088 61.9671
19.3898 76.9056
19.5709 55.8582
19.752 54.8967
19.9332 58.7165
20.1144 71.5046
20.2957 64.4029
20.477 54.9544
20.6586 51.2882
20.84 50.0949
21.0215 50.1689
21.203 51.9959
21.3846 50.3985
21.5662 50.7271
21.7479 54.7138
21.9297 66.0384
22.1115 57.1585
22.2933 51.162
22.4753 50.158
22.6572 50.5315
22.8393 53.7307
23.0214 58.8679
23.2037 50.3154
23.3859 51.6262
23.5682 57.6246
23.7505 49.7273
23.9329 46.4616
24.1154 45.3385
24.2979 44.6622
24.4805 44.1586
24.6631 43.9106
24.8458 43.4439
25.0286 44.2079
25.2114 45.8338
25.3943 45.8533
25.5773 41.9866
25.7605 41.7426
25.9436 42.0885
26.1268 42.7743
26.31 41.2539
26.4933 41.9446
26.6767 43.2903
26.8601 41.6419
27.0437 40.0081
27.2272 39.6671
27.4109 39.5338
27.5946 39.4753
27.7784 38.972
27.9623 39.3463
28.1462 39.838
28.3304 38.2429
28.5145 37.0324
28.6987 36.4776
28.8829 36.4014
29.0673 35.5865
29.2517 35.2116
29.4361 35.0625
29.6207 34.0264
29.8053 33.8921
29.99 33.4951
30.1748 33.2667
30.3597 33.1337
30.5447 33.5261
30.7297 33.0825
30.915 32.5205
31.1002 31.8942
31.2855 31.669
31.4708 31.6463
31.6563 31.1442
31.8418 30.9555
32.0275 30.7809
32.2132 30.1164
32.399 29.7318
32.5848 29.2439
32.7708 28.8398
32.9569 28.7463
33.143 28.5
33.3293 28.2057
33.5158 27.7983
33.7022 27.3142
33.8887 27.0827
34.0753 26.5885
34.262 26.4553
34.4488 25.9682
34.6357 25.696
34.8227 25.3236
35.0098 25.0499
35.1969 24.7994
35.3842 24.6372
35.5716 24.3916
35.759 24.1165
35.9468 23.7204
36.1345 23.5561
36.3222 23.2074
36.5101 22.9881
36.6981 22.6629
36.8861 22.422
37.0743 22.098
37.2626 21.806
37.451 21.5434
37.6395 21.369
37.8281 21.0135
38.0168 20.7798
38.2056 20.4945
38.3945 20.1831
38.5837 20.0025
38.7728 19.7243
38.9621 19.4263
39.1514 19.2696
39.3409 18.9893
39.5304 18.7312
39.7201 18.5833
39.9099 18.2989
40.0999 18.0488
40.2899 17.8223
40.48 17.5875
40.6703 17.3205
40.8607 17.1705
41.0512 16.8874
41.242 16.7114
41.4327 16.4469
41.6236 16.2696
41.8146 16.0993
42.0057 15.8342
42.1969 15.5744
42.3882 15.4385
42.5797 15.2383
42.7713 15.0039
42.963 14.7906
43.1549 14.5881
43.3468 14.4008
43.5389 14.1659
43.7312 13.9844
43.9237 13.774
44.1162 13.6287
44.3088 13.4174
44.5016 13.2185
44.6945 13.0352
44.8875 12.8787
45.0806 12.6935
45.2739 12.5109
45.4673 12.3346
45.6609 12.143
45.8546 11.9564
46.0484 11.8376
46.2424 11.5976
46.4365 11.4765
46.631 11.3197
46.8254 11.1583
47.0199 10.9651
47.2146 10.8507
47.4095 10.605
47.6044 10.4924
47.7996 10.3471
47.9948 10.1823
48.1902 10.0153
48.3858 9.86494
48.5815 9.79106
48.7774 9.66825
48.9734 9.4727
49.1696 9.35698
49.3661 9.21019
49.5626 9.02455
49.7592 8.88807
49.956 8.78249
50.153 8.67635
50.3501 8.47305
50.5474 8.38159
50.7448 8.26647
50.9424 8.13293
51.1402 8.02373
51.3381 7.82543
51.5362 7.74135
51.7344 7.58827
51.9328 7.48399
52.1316 7.33751
52.3304 7.21466
52.5293 7.07452
52.7284 6.97867
52.9276 6.85473
53.1271 6.75636
53.3267 6.66844
53.5265 6.52078
53.7264 6.40072
53.9266 6.32154
54.1269 6.21257
54.3274 6.08987
54.528 5.95094
54.7289 5.76418
54.9301 5.62036
55.1314 5.48413
55.3328 5.29211
55.5344 5.05585
55.7361 4.95551