File: XRD/Ni3Fe_FD0882.xy
TT I
1.27165 7.63279
1.45013 5.2146
1.62863 5.18334
1.80712 4.72144
1.98562 5.49724
2.16411 4.67195
2.34263 6.17866
2.52115 7.03364
2.69965 8.40543
2.87818 9.07226
3.05672 11.3206
3.23527 15.5206
3.4138 19.1107
3.59237 24.0575
3.77094 26.4695
3.9495 29.7512
4.12809 34.6242
4.30669 269.118
4.4853 69.6568
4.6639 54.5895
4.84253 66.1693
5.02118 84.3389
5.19981 285.858
5.37848 181.736
5.55716 100.035
5.73586 90.0717
5.91455 90.3699
6.09328 4314.24
6.27201 82.1195
6.45075 66.6084
6.62952 62.3422
6.8083 58.0394
6.98711 55.1823
7.16591 54.989
7.34475 101.92
7.5236 54.3535
7.70247 55.8835
7.88135 57.0296
8.06026 61.8181
8.23919 68.6746
8.41812 83.2754
8.59709 1070.69
8.77609 97.2643
8.9551 91.6939
9.13412 80.7355
9.31318 81.1326
9.49226 82.8311
9.67134 98.8252
9.85047 97.7598
10.0296 289.245
10.2088 419.139
10.388 102.749
10.5672 505.702
10.7465 85.2632
10.9257 77.8274
11.105 70.7921
11.2844 70.1687
11.4637 63.9739
11.6431 62.5655
11.8225 61.3083
12.002 62.4873
12.1814 147.351
12.3609 71.3552
12.5405 63.4229
12.72 70.1483
12.8996 69.7623
13.0792 76.7806
13.2589 219.841
13.4386 125.001
13.6183 238.072
13.7981 96.5443
13.9779 74.3886
14.1577 71.3941
14.3376 71.0754
14.5175 67.771
14.6974 69.2424
14.8774 103.479
15.0574 150.324
15.2374 70.613
15.4175 65.2604
15.5976 64.6383
15.7778 88.9046
15.958 158.35
16.1382 62.4153
16.3185 58.01
16.4988 54.6037
16.6792 53.5096
16.8596 54.4169
17.04 54.9688
17.2205 64.4569
17.401 69.9448
17.5815 58.022
17.7622 60.319
17.9428 70.5619
18.1237 137.686
18.3044 88.2485
18.4852 76.8051
18.666 59.5152
18.8469 57.1948
19.0278 56.1067
19.2088 58.3919
19.3898 76.4399
19.5709 53.3459
19.752 52.3756
19.9332 54.8364
20.1144 69.2396
20.2957 63.2534
20.477 53.1829
20.6586 48.9952
20.84 48.1435
21.0215 47.8245
21.203 50.078
21.3846 48.2629
21.5662 48.0501
21.7479 51.4615
21.9297 64.0993
22.1115 55.6362
22.2933 49.2777
22.4753 48.408
22.6572 47.9778
22.8393 50.8196
23.0214 56.953
23.2037 48.1482
23.3859 48.8514
23.5682 56.3186
23.7505 47.774
23.9329 44.5962
24.1154 43.4366
24.2979 42.9111
24.4805 42.1257
24.6631 42.2598
24.8458 41.7606
25.0286 42.1633
25.2114 43.9528
25.3943 44.1712
25.5773 40.2515
25.7605 39.9532
25.9436 40.2281
26.1268 41.1218
26.31 39.5585
26.4933 40.019
26.6767 41.665
26.8601 39.8234
27.0437 38.3553
27.2272 37.9711
27.4109 37.8358
27.5946 37.9281
27.7784 37.2287
27.9623 37.8476
28.1462 38.2759
28.3304 36.8176
28.5145 35.4731
28.6987 35.1399
28.8829 35.0976
29.0673 34.2402
29.2517 33.8015
29.4361 33.6986
29.6207 32.5783
29.8053 32.4797
29.99 32.0625
30.1748 32.0338
30.3597 31.8146
30.5447 31.7091
30.7297 31.7618
30.915 31.2152
31.1002 30.6554
31.2855 30.3796
31.4708 30.3849
31.6563 30.0067
31.8418 29.6983
32.0275 29.5231
32.2132 28.9754
32.399 28.6266
32.5848 28.1449
32.7708 27.7748
32.9569 27.6782
33.143 27.3838
33.3293 27.0455
33.5158 26.6697
33.7022 26.2532
33.8887 25.9481
34.0753 25.7008
34.262 25.2865
34.4488 24.9547
34.6357 24.5718
34.8227 24.3845
35.0098 24.1791
35.1969 23.8471
35.3842 23.6475
35.5716 23.4641
35.759 23.107
35.9468 22.7995
36.1345 22.6064
36.3222 22.4279
36.5101 22.1446
36.6981 21.8364
36.8861 21.5353
37.0743 21.2479
37.2626 20.9619
37.451 20.7638
37.6395 20.5674
37.8281 20.2376
38.0168 19.9739
38.2056 19.6448
38.3945 19.4443
38.5837 19.2171
38.7728 18.9586
38.9621 18.6659
39.1514 18.4022
39.3409 18.2634
39.5304 18.0722
39.7201 17.868
39.9099 17.5983
40.0999 17.3011
40.2899 17.1674
40.48 16.8985
40.6703 16.6761
40.8607 16.5292
41.0512 16.2664
41.242 16.0144
41.4327 15.8768
41.6236 15.6425
41.8146 15.4858
42.0057 15.2492
42.1969 15.0786
42.3882 14.8774
42.5797 14.6288
42.7713 14.4394
42.963 14.2662
43.1549 14.0874
43.3468 13.8478
43.5389 13.674
43.7312 13.4685
43.9237 13.3137
44.1162 13.1233
44.3088 12.9569
44.5016 12.7361
44.6945 12.5763
44.8875 12.3978
45.0806 12.2559
45.2739 12.0619
45.4673 11.9014
45.6609 11.772
45.8546 11.5383
46.0484 11.3821
46.2424 11.2033
46.4365 11.1104
46.631 10.8958
46.8254 10.7615
47.0199 10.5852
47.2146 10.4404
47.4095 10.2446
47.6044 10.1389
47.7996 9.9667
47.9948 9.84087
48.1902 9.69214
48.3858 9.54298
48.5815 9.38936
48.7774 9.29151
48.9734 9.13279
49.1696 9.0032
49.3661 8.8312
49.5626 8.73402
49.7592 8.58036
49.956 8.47383
50.153 8.3453
50.3501 8.20449
50.5474 8.08739
50.7448 7.93729
50.9424 7.79388
51.1402 7.74231
51.3381 7.53915
51.5362 7.48268
51.7344 7.36916
51.9328 7.18503
52.1316 7.08813
52.3304 6.98032
52.5293 6.83608
52.7284 6.80194
52.9276 6.62483
53.1271 6.56253
53.3267 6.40188
53.5265 6.32817
53.7264 6.2144
53.9266 6.09034
54.1269 5.97492
54.3274 5.88708
54.528 5.77608
54.7289 5.58438
54.9301 5.46192
55.1314 5.28181
55.3328 5.11376
55.5344 4.924
55.7361 4.73233