File: XRD/Ni3Fe_FD0748.xy
TT I
1.27165 7.63492
1.45013 5.54329
1.62863 5.04584
1.80712 4.96131
1.98562 4.66402
2.16411 4.93659
2.34263 5.24641
2.52115 7.56887
2.69965 8.04594
2.87818 8.59723
3.05672 11.2528
3.23527 15.2566
3.4138 19.1713
3.59237 24.8051
3.77094 26.1844
3.9495 29.5261
4.12809 34.867
4.30669 234.466
4.4853 66.9778
4.6639 54.798
4.84253 66.6156
5.02118 85.792
5.19981 315.23
5.37848 186.035
5.55716 101.127
5.73586 91.415
5.91455 92.3526
6.09328 4349.8
6.27201 82.9898
6.45075 67.2277
6.62952 62.7825
6.8083 58.6811
6.98711 56.1952
7.16591 55.6146
7.34475 94.678
7.5236 55.0475
7.70247 56.0605
7.88135 57.8814
8.06026 61.7961
8.23919 69.527
8.41812 84.6418
8.59709 1146.08
8.77609 98.8129
8.9551 91.8086
9.13412 81.888
9.31318 81.9275
9.49226 83.4318
9.67134 99.1277
9.85047 99.2953
10.0296 316.09
10.2088 401.885
10.388 103.739
10.5672 507.873
10.7465 86.0875
10.9257 78.2545
11.105 71.6408
11.2844 70.3854
11.4637 64.6436
11.6431 63.3609
11.8225 62.1759
12.002 62.9595
12.1814 150.077
12.3609 70.9613
12.5405 64.2077
12.72 69.9869
12.8996 70.5574
13.0792 78.1209
13.2589 231.156
13.4386 125.14
13.6183 244.438
13.7981 97.4598
13.9779 75.1179
14.1577 71.9782
14.3376 71.4768
14.5175 68.2765
14.6974 69.9173
14.8774 107.251
15.0574 151.146
15.2374 70.7581
15.4175 65.8131
15.5976 65.0125
15.7778 92.3044
15.958 155.882
16.1382 62.5889
16.3185 58.4454
16.4988 55.2402
16.6792 54.2311
16.8596 54.8087
17.04 55.4634
17.2205 65.8002
17.401 70.961
17.5815 58.8302
17.7622 60.7978
17.9428 72.179
18.1237 138.534
18.3044 90.1046
18.4852 77.4534
18.666 59.9925
18.8469 57.5513
19.0278 56.5372
19.2088 58.9679
19.3898 76.1849
19.5709 53.9099
19.752 52.7856
19.9332 55.6985
20.1144 69.1824
20.2957 63.5996
20.477 53.6851
20.6586 49.2556
20.84 48.6609
21.0215 48.1034
21.203 50.4357
21.3846 48.7455
21.5662 48.4155
21.7479 52.0741
21.9297 64.2452
22.1115 55.7013
22.2933 49.5832
22.4753 48.4639
22.6572 48.4217
22.8393 51.5548
23.0214 56.8019
23.2037 48.3636
23.3859 49.2277
23.5682 56.7815
23.7505 47.9942
23.9329 44.8917
24.1154 43.8683
24.2979 43.1622
24.4805 42.7005
24.6631 42.5062
24.8458 42.0876
25.0286 42.5357
25.2114 44.3714
25.3943 44.424
25.5773 40.6618
25.7605 40.103
25.9436 40.4314
26.1268 41.4317
26.31 39.8003
26.4933 40.4759
26.6767 41.8829
26.8601 40.2919
27.0437 38.673
27.2272 38.3007
27.4109 38.0886
27.5946 38.1435
27.7784 37.5338
27.9623 38.1331
28.1462 38.4675
28.3304 36.8648
28.5145 35.7986
28.6987 35.5284
28.8829 35.1732
29.0673 34.4575
29.2517 34.21
29.4361 33.9805
29.6207 33.0085
29.8053 32.6267
29.99 32.3294
30.1748 32.2857
30.3597 32.0448
30.5447 31.9489
30.7297 31.9138
30.915 31.5927
31.1002 30.9807
31.2855 30.6144
31.4708 30.7277
31.6563 30.2272
31.8418 29.9615
32.0275 29.6851
32.2132 29.1968
32.399 28.7882
32.5848 28.3877
32.7708 27.8926
32.9569 27.8476
33.143 27.5554
33.3293 27.2455
33.5158 26.9224
33.7022 26.3065
33.8887 26.1623
34.0753 25.8462
34.262 25.5295
34.4488 25.1898
34.6357 24.8357
34.8227 24.5554
35.0098 24.3857
35.1969 24.0238
35.3842 23.8599
35.5716 23.644
35.759 23.2472
35.9468 23.0459
36.1345 22.7403
36.3222 22.5943
36.5101 22.3381
36.6981 21.9628
36.8861 21.6379
37.0743 21.3442
37.2626 21.2242
37.451 20.8735
37.6395 20.7552
37.8281 20.3678
38.0168 20.067
38.2056 19.8784
38.3945 19.5856
38.5837 19.2849
38.7728 19.1463
38.9621 18.8664
39.1514 18.6072
39.3409 18.3667
39.5304 18.1104
39.7201 17.9852
39.9099 17.7527
40.0999 17.5094
40.2899 17.2846
40.48 17.1086
40.6703 16.8398
40.8607 16.6281
41.0512 16.3696
41.242 16.1903
41.4327 15.9623
41.6236 15.7664
41.8146 15.5733
42.0057 15.3078
42.1969 15.1628
42.3882 14.9963
42.5797 14.7224
42.7713 14.5662
42.963 14.3284
43.1549 14.1592
43.3468 13.9743
43.5389 13.7158
43.7312 13.5534
43.9237 13.3946
44.1162 13.211
44.3088 13.0053
44.5016 12.8476
44.6945 12.6374
44.8875 12.5047
45.0806 12.3136
45.2739 12.1548
45.4673 11.9945
45.6609 11.7719
45.8546 11.6312
46.0484 11.4755
46.2424 11.3057
46.4365 11.1659
46.631 10.9845
46.8254 10.8146
47.0199 10.6438
47.2146 10.4889
47.4095 10.3523
47.6044 10.2092
47.7996 10.0238
47.9948 9.86804
48.1902 9.74889
48.3858 9.60308
48.5815 9.47873
48.7774 9.32734
48.9734 9.20572
49.1696 9.06207
49.3661 8.8954
49.5626 8.75622
49.7592 8.62558
49.956 8.54682
50.153 8.44976
50.3501 8.23886
50.5474 8.12718
50.7448 8.00303
50.9424 7.8693
51.1402 7.75271
51.3381 7.62149
51.5362 7.53718
51.7344 7.39091
51.9328 7.27284
52.1316 7.14186
52.3304 7.05756
52.5293 6.9185
52.7284 6.79033
52.9276 6.69622
53.1271 6.59278
53.3267 6.49152
53.5265 6.34014
53.7264 6.27218
53.9266 6.15759
54.1269 6.03505
54.3274 5.9178
54.528 5.78667
54.7289 5.62708
54.9301 5.48843
55.1314 5.39153
55.3328 5.11136
55.5344 4.91402
55.7361 4.79089