File: XRD/Ni3Fe_FD0451.xy
TT I
1.27165 7.47626
1.45013 6.3965
1.62863 5.56556
1.80712 5.25567
1.98562 4.7828
2.16411 4.66619
2.34263 5.12655
2.52115 6.44572
2.69965 7.60539
2.87818 8.34104
3.05672 10.9903
3.23527 15.3848
3.4138 18.8546
3.59237 23.5241
3.77094 26.0062
3.9495 30.2382
4.12809 34.7678
4.30669 145.919
4.4853 59.2926
4.6639 56.2995
4.84253 68.8253
5.02118 89.92
5.19981 503.856
5.37848 203.568
5.55716 104.855
5.73586 94.855
5.91455 99.2931
6.09328 4291.91
6.27201 84.2436
6.45075 68.1292
6.62952 62.8131
6.8083 58.8658
6.98711 56.8917
7.16591 55.4765
7.34475 77.8674
7.5236 55.3655
7.70247 57.0701
7.88135 58.7627
8.06026 63.0294
8.23919 70.5257
8.41812 86.995
8.59709 1237.09
8.77609 101.9
8.9551 91.0281
9.13412 83.3486
9.31318 84.3903
9.49226 86.0727
9.67134 97.4823
9.85047 101.999
10.0296 406.671
10.2088 419.408
10.388 107.787
10.5672 494.343
10.7465 88.0681
10.9257 79.1988
11.105 72.7262
11.2844 70.3924
11.4637 65.7767
11.6431 64.3537
11.8225 63.3852
12.002 65.2983
12.1814 155.934
12.3609 69.6432
12.5405 65.8359
12.72 69.7981
12.8996 72.2714
13.0792 81.5821
13.2589 249.576
13.4386 125.493
13.6183 251.528
13.7981 97.9967
13.9779 76.8533
14.1577 73.2229
14.3376 72.1437
14.5175 70.3801
14.6974 71.7753
14.8774 117.652
15.0574 149.648
15.2374 71.3421
15.4175 67.4806
15.5976 67.4424
15.7778 100.88
15.958 156.905
16.1382 62.886
16.3185 59.0934
16.4988 56.4945
16.6792 55.3804
16.8596 55.9308
17.04 57.2749
17.2205 68.4357
17.401 71.7905
17.5815 60.3227
17.7622 62.5077
17.9428 76.9975
18.1237 139.304
18.3044 91.8756
18.4852 78.2368
18.666 61.4725
18.8469 59.1109
19.0278 57.7288
19.2088 60.9894
19.3898 76.8491
19.5709 55.1453
19.752 54.2153
19.9332 57.6523
20.1144 70.8085
20.2957 64.3508
20.477 54.379
20.6586 50.3612
20.84 49.6454
21.0215 49.6137
21.203 51.6426
21.3846 49.9508
21.5662 50.0547
21.7479 54.0451
21.9297 65.5482
22.1115 56.771
22.2933 50.6723
22.4753 49.6541
22.6572 49.8649
22.8393 53.1493
23.0214 58.0954
23.2037 49.6701
23.3859 50.8747
23.5682 57.4381
23.7505 48.973
23.9329 45.8593
24.1154 44.7792
24.2979 44.1699
24.4805 43.6362
24.6631 43.6793
24.8458 43.0441
25.0286 43.7775
25.2114 45.4232
25.3943 45.4008
25.5773 41.6381
25.7605 41.1806
25.9436 41.5029
26.1268 42.4368
26.31 40.7009
26.4933 41.3614
26.6767 42.9001
26.8601 41.1111
27.0437 39.6389
27.2272 39.1978
27.4109 39.1438
27.5946 39.0696
27.7784 38.4263
27.9623 39.0823
28.1462 39.4247
28.3304 37.7455
28.5145 36.5684
28.6987 36.2528
28.8829 36.0543
29.0673 35.2837
29.2517 34.9081
29.4361 34.6591
29.6207 33.7078
29.8053 33.4497
29.99 33.2539
30.1748 33.006
30.3597 32.7361
30.5447 32.7801
30.7297 32.7896
30.915 32.0936
31.1002 31.7243
31.2855 31.3158
31.4708 31.3259
31.6563 30.914
31.8418 30.6231
32.0275 30.3902
32.2132 29.9203
32.399 29.3696
32.5848 28.897
32.7708 28.6687
32.9569 28.5343
33.143 28.3369
33.3293 27.8613
33.5158 27.4934
33.7022 27.0571
33.8887 26.728
34.0753 26.4438
34.262 26.1883
34.4488 25.6444
34.6357 25.4304
34.8227 25.0287
35.0098 24.9018
35.1969 24.6315
35.3842 24.3762
35.5716 24.1876
35.759 23.8472
35.9468 23.4686
36.1345 23.2053
36.3222 23.0108
36.5101 22.779
36.6981 22.5159
36.8861 22.222
37.0743 21.8445
37.2626 21.6712
37.451 21.2803
37.6395 21.1812
37.8281 20.8442
38.0168 20.549
38.2056 20.2607
38.3945 19.9733
38.5837 19.7011
38.7728 19.4703
38.9621 19.2699
39.1514 19.0181
39.3409 18.7008
39.5304 18.5881
39.7201 18.4116
39.9099 18.1533
40.0999 17.885
40.2899 17.6899
40.48 17.477
40.6703 17.1965
40.8607 16.96
41.0512 16.7517
41.242 16.4931
41.4327 16.2588
41.6236 16.0282
41.8146 15.9189
42.0057 15.6535
42.1969 15.4621
42.3882 15.3202
42.5797 15.0941
42.7713 14.8743
42.963 14.6707
43.1549 14.4309
43.3468 14.2221
43.5389 14.0595
43.7312 13.8422
43.9237 13.666
44.1162 13.5407
44.3088 13.3114
44.5016 13.0591
44.6945 12.941
44.8875 12.7353
45.0806 12.5448
45.2739 12.3883
45.4673 12.1813
45.6609 12.0368
45.8546 11.8741
46.0484 11.6783
46.2424 11.5378
46.4365 11.379
46.631 11.1934
46.8254 10.9757
47.0199 10.8446
47.2146 10.6951
47.4095 10.5622
47.6044 10.3977
47.7996 10.2193
47.9948 10.0626
48.1902 9.96429
48.3858 9.78395
48.5815 9.70831
48.7774 9.51493
48.9734 9.38954
49.1696 9.22244
49.3661 9.11217
49.5626 8.92448
49.7592 8.82677
49.956 8.73002
50.153 8.59974
50.3501 8.3911
50.5474 8.31386
50.7448 8.16967
50.9424 8.04247
51.1402 7.93265
51.3381 7.78375
51.5362 7.68414
51.7344 7.53654
51.9328 7.4282
52.1316 7.28424
52.3304 7.18784
52.5293 7.0323
52.7284 6.96761
52.9276 6.80839
53.1271 6.6956
53.3267 6.60298
53.5265 6.45682
53.7264 6.38352
53.9266 6.23344
54.1269 6.15975
54.3274 6.04357
54.528 5.9024
54.7289 5.74705
54.9301 5.51847
55.1314 5.43702
55.3328 5.19604
55.5344 5.08733
55.7361 4.8502