File: XRD/Ni3Fe_FD0376.xy
TT I
1.27165 7.71433
1.45013 6.57575
1.62863 5.10705
1.80712 4.74286
1.98562 4.74504
2.16411 4.4714
2.34263 5.20209
2.52115 5.7275
2.69965 6.96856
2.87818 8.59087
3.05672 11.0661
3.23527 15.3286
3.4138 19.1763
3.59237 24.3079
3.77094 26.3453
3.9495 30.3832
4.12809 35.4135
4.30669 176.683
4.4853 62.3474
4.6639 56.86
4.84253 68.9792
5.02118 90.0712
5.19981 495.984
5.37848 227.643
5.55716 106.093
5.73586 95.5726
5.91455 99.9109
6.09328 3984.15
6.27201 86.4733
6.45075 69.5507
6.62952 64.4034
6.8083 60.0912
6.98711 56.7883
7.16591 56.7361
7.34475 83.9995
7.5236 56.1871
7.70247 57.3878
7.88135 59.0214
8.06026 63.9842
8.23919 71.6243
8.41812 88.3803
8.59709 1173.99
8.77609 104.794
8.9551 92.5954
9.13412 84.1098
9.31318 85.4116
9.49226 86.9895
9.67134 99.3551
9.85047 103.024
10.0296 407.703
10.2088 518.743
10.388 108.893
10.5672 480.231
10.7465 89.9048
10.9257 80.251
11.105 73.6163
11.2844 71.3399
11.4637 66.6364
11.6431 65.4008
11.8225 64.1042
12.002 65.7376
12.1814 149.773
12.3609 72.4139
12.5405 66.1715
12.72 71.0063
12.8996 72.9953
13.0792 81.9551
13.2589 243.351
13.4386 142.353
13.6183 243.712
13.7981 107.822
13.9779 78.0995
14.1577 74.3143
14.3376 73.3392
14.5175 70.9083
14.6974 72.4514
14.8774 117.211
15.0574 161.006
15.2374 72.6058
15.4175 68.4186
15.5976 67.7305
15.7778 100.497
15.958 167.875
16.1382 64.2126
16.3185 60.1257
16.4988 57.1735
16.6792 56.1287
16.8596 56.6444
17.04 57.4304
17.2205 68.8533
17.401 74.4225
17.5815 60.8529
17.7622 63.1487
17.9428 77.7455
18.1237 135.205
18.3044 92.1269
18.4852 82.3196
18.666 62.1898
18.8469 59.7767
19.0278 58.6093
19.2088 61.5816
19.3898 75.8922
19.5709 55.9693
19.752 54.8291
19.9332 58.0883
20.1144 70.718
20.2957 64.5894
20.477 55.9103
20.6586 51.2129
20.84 50.2168
21.0215 50.0967
21.203 51.9669
21.3846 50.7687
21.5662 50.1673
21.7479 54.424
21.9297 65.508
22.1115 57.1569
22.2933 51.8011
22.4753 50.1354
22.6572 50.4286
22.8393 53.5836
23.0214 58.6161
23.2037 50.2055
23.3859 51.4222
23.5682 57.3703
23.7505 50.3835
23.9329 46.5218
24.1154 45.4477
24.2979 44.7047
24.4805 44.0944
24.6631 44.1078
24.8458 43.5059
25.0286 44.2029
25.2114 46.0006
25.3943 45.8002
25.5773 42.1522
25.7605 41.6367
25.9436 42.0454
26.1268 42.7768
26.31 41.3624
26.4933 41.8906
26.6767 43.1535
26.8601 41.6253
27.0437 40.0303
27.2272 39.5596
27.4109 39.3881
27.5946 39.3813
27.7784 38.9714
27.9623 39.3695
28.1462 39.8985
28.3304 38.4082
28.5145 37.0475
28.6987 36.5628
28.8829 36.3068
29.0673 35.6906
29.2517 35.3935
29.4361 34.9806
29.6207 34.0312
29.8053 33.7781
29.99 33.5125
30.1748 33.3857
30.3597 33.1222
30.5447 33.052
30.7297 33.0206
30.915 32.4819
31.1002 32.0058
31.2855 31.7808
31.4708 31.6436
31.6563 31.2981
31.8418 30.9817
32.0275 30.7496
32.2132 30.1433
32.399 29.7543
32.5848 29.1648
32.7708 28.94
32.9569 28.7305
33.143 28.5397
33.3293 28.1845
33.5158 27.7753
33.7022 27.3388
33.8887 27.0366
34.0753 26.6693
34.262 26.3373
34.4488 26.0794
34.6357 25.5847
34.8227 25.3657
35.0098 25.1457
35.1969 24.8347
35.3842 24.6276
35.5716 24.4501
35.759 24.1117
35.9468 23.6773
36.1345 23.5447
36.3222 23.2925
36.5101 23.0188
36.6981 22.6955
36.8861 22.4088
37.0743 22.0924
37.2626 21.8371
37.451 21.6108
37.6395 21.3832
37.8281 20.9966
38.0168 20.7724
38.2056 20.4648
38.3945 20.2838
38.5837 20.0294
38.7728 19.7735
38.9621 19.4469
39.1514 19.1674
39.3409 18.9695
39.5304 18.7618
39.7201 18.5297
39.9099 18.322
40.0999 18.1022
40.2899 17.8276
40.48 17.5737
40.6703 17.3407
40.8607 17.1399
41.0512 16.9943
41.242 16.6905
41.4327 16.4969
41.6236 16.2604
41.8146 16.0251
42.0057 15.8338
42.1969 15.6459
42.3882 15.4848
42.5797 15.2134
42.7713 15.038
42.963 14.7681
43.1549 14.5765
43.3468 14.3825
43.5389 14.218
43.7312 13.9805
43.9237 13.8308
44.1162 13.5757
44.3088 13.463
44.5016 13.2507
44.6945 13.0968
44.8875 12.8811
45.0806 12.693
45.2739 12.5335
45.4673 12.3853
45.6609 12.1719
45.8546 12.0118
46.0484 11.8671
46.2424 11.6514
46.4365 11.5306
46.631 11.3441
46.8254 11.1818
47.0199 11.0039
47.2146 10.8016
47.4095 10.6678
47.6044 10.5091
47.7996 10.3757
47.9948 10.2204
48.1902 10.0558
48.3858 9.93329
48.5815 9.79624
48.7774 9.6408
48.9734 9.50145
49.1696 9.35934
49.3661 9.21877
49.5626 9.05993
49.7592 8.94904
49.956 8.82109
50.153 8.67508
50.3501 8.52083
50.5474 8.39785
50.7448 8.23589
50.9424 8.12188
51.1402 8.00517
51.3381 7.86913
51.5362 7.7865
51.7344 7.62186
51.9328 7.51327
52.1316 7.35819
52.3304 7.27841
52.5293 7.11983
52.7284 7.04337
52.9276 6.88805
53.1271 6.80374
53.3267 6.68915
53.5265 6.53777
53.7264 6.40994
53.9266 6.32923
54.1269 6.23463
54.3274 6.06169
54.528 5.96308
54.7289 5.81852
54.9301 5.59636
55.1314 5.57071
55.3328 5.29332
55.5344 5.09386
55.7361 4.95754