File: XRD/Ni3Fe_FD0899.xy
TT I
1.27165 7.13767
1.45013 6.06202
1.62863 5.54845
1.80712 5.01405
1.98562 4.66985
2.16411 4.61661
2.34263 5.53638
2.52115 7.08864
2.69965 8.5935
2.87818 9.2742
3.05672 11.2565
3.23527 14.8081
3.4138 18.9082
3.59237 23.241
3.77094 26.287
3.9495 29.4514
4.12809 34.2407
4.30669 168.69
4.4853 59.9086
4.6639 55.0283
4.84253 66.2077
5.02118 85.5283
5.19981 321.937
5.37848 169.268
5.55716 99.6479
5.73586 90.0341
5.91455 92.4054
6.09328 4552.83
6.27201 79.9739
6.45075 66.0867
6.62952 61.3809
6.8083 57.4895
6.98711 55.0189
7.16591 54.4739
7.34475 80.2567
7.5236 53.9199
7.70247 55.1375
7.88135 56.7833
8.06026 61.0665
8.23919 68.2089
8.41812 83.0784
8.59709 1186.75
8.77609 95.3541
8.9551 88.5259
9.13412 80.7903
9.31318 81.3364
9.49226 83.0659
9.67134 94.394
9.85047 98.1993
10.0296 321.446
10.2088 334.316
10.388 102.407
10.5672 537.057
10.7465 84.1543
10.9257 76.4582
11.105 70.3468
11.2844 68.0705
11.4637 63.6357
11.6431 62.4763
11.8225 61.3645
12.002 62.5526
12.1814 157.473
12.3609 67.9308
12.5405 63.4786
12.72 67.7144
12.8996 69.5319
13.0792 77.8203
13.2589 239.628
13.4386 114.441
13.6183 253.332
13.7981 91.5878
13.9779 74.3015
14.1577 70.6465
14.3376 69.7854
14.5175 67.7081
14.6974 69.31
14.8774 108.003
15.0574 136.458
15.2374 69.0242
15.4175 65.0824
15.5976 64.5944
15.7778 92.3311
15.958 149.183
16.1382 60.8118
16.3185 57.2895
16.4988 54.4435
16.6792 53.3989
16.8596 54.1332
17.04 54.6985
17.2205 65.5388
17.401 67.9154
17.5815 57.6603
17.7622 59.961
17.9428 71.6809
18.1237 139.67
18.3044 90.2391
18.4852 73.4909
18.666 58.8879
18.8469 56.9399
19.0278 55.7865
19.2088 58.094
19.3898 75.8225
19.5709 53.1629
19.752 52.1646
19.9332 55.22
20.1144 69.3307
20.2957 63.9509
20.477 52.195
20.6586 48.786
20.84 47.7658
21.0215 47.7856
21.203 50.1231
21.3846 47.9619
21.5662 47.941
21.7479 51.5482
21.9297 64.1141
22.1115 55.5337
22.2933 48.852
22.4753 47.9802
22.6572 47.9158
22.8393 51.0928
23.0214 56.3457
23.2037 47.9702
23.3859 48.8876
23.5682 56.8776
23.7505 47.0699
23.9329 44.3255
24.1154 43.2956
24.2979 42.5009
24.4805 42.1618
24.6631 42.084
24.8458 41.5435
25.0286 42.1026
25.2114 43.9496
25.3943 43.7823
25.5773 40.0506
25.7605 39.6437
25.9436 40.1388
26.1268 41.0854
26.31 39.336
26.4933 40.1236
26.6767 41.4952
26.8601 39.7765
27.0437 38.122
27.2272 37.8707
27.4109 37.8078
27.5946 37.6664
27.7784 37.1361
27.9623 37.8413
28.1462 38.0979
28.3304 36.4842
28.5145 35.4509
28.6987 34.9566
28.8829 34.8813
29.0673 33.9637
29.2517 33.868
29.4361 33.5629
29.6207 32.5929
29.8053 32.3415
29.99 32.067
30.1748 31.8522
30.3597 31.6812
30.5447 31.6976
30.7297 31.6824
30.915 31.0353
31.1002 30.6022
31.2855 30.2815
31.4708 30.4224
31.6563 29.7758
31.8418 29.5266
32.0275 29.3802
32.2132 28.8748
32.399 28.4212
32.5848 28.1206
32.7708 27.6142
32.9569 27.3824
33.143 27.3138
33.3293 26.891
33.5158 26.512
33.7022 26.1917
33.8887 25.8655
34.0753 25.5371
34.262 25.2061
34.4488 24.8954
34.6357 24.5198
34.8227 24.1894
35.0098 24.1276
35.1969 23.7886
35.3842 23.5784
35.5716 23.424
35.759 23.1062
35.9468 22.7758
36.1345 22.4718
36.3222 22.2811
36.5101 21.9817
36.6981 21.7988
36.8861 21.3778
37.0743 21.1603
37.2626 20.926
37.451 20.6206
37.6395 20.4881
37.8281 20.0703
38.0168 19.8771
38.2056 19.6318
38.3945 19.3406
38.5837 19.1009
38.7728 18.8979
38.9621 18.7112
39.1514 18.4341
39.3409 18.1642
39.5304 17.9364
39.7201 17.6575
39.9099 17.5396
40.0999 17.2443
40.2899 17.084
40.48 16.7942
40.6703 16.6118
40.8607 16.5016
41.0512 16.2258
41.242 16.0141
41.4327 15.8022
41.6236 15.5898
41.8146 15.4174
42.0057 15.138
42.1969 14.9572
42.3882 14.8314
42.5797 14.6112
42.7713 14.4007
42.963 14.1754
43.1549 13.9795
43.3468 13.8129
43.5389 13.5967
43.7312 13.4338
43.9237 13.2433
44.1162 13.0413
44.3088 12.891
44.5016 12.6945
44.6945 12.4951
44.8875 12.3563
45.0806 12.1943
45.2739 11.951
45.4673 11.8269
45.6609 11.6186
45.8546 11.4925
46.0484 11.3507
46.2424 11.1639
46.4365 11.0148
46.631 10.8403
46.8254 10.721
47.0199 10.5301
47.2146 10.39
47.4095 10.2486
47.6044 10.0811
47.7996 9.90912
47.9948 9.74102
48.1902 9.62474
48.3858 9.53888
48.5815 9.38537
48.7774 9.23871
48.9734 9.08242
49.1696 8.94492
49.3661 8.80287
49.5626 8.67958
49.7592 8.52885
49.956 8.44188
50.153 8.2854
50.3501 8.16139
50.5474 8.02368
50.7448 7.90973
50.9424 7.8065
51.1402 7.68286
51.3381 7.55248
51.5362 7.42823
51.7344 7.28314
51.9328 7.1517
52.1316 7.04426
52.3304 6.94962
52.5293 6.86322
52.7284 6.7361
52.9276 6.61301
53.1271 6.54986
53.3267 6.37871
53.5265 6.25915
53.7264 6.18691
53.9266 6.06058
54.1269 5.98075
54.3274 5.86686
54.528 5.71651
54.7289 5.57573
54.9301 5.36777
55.1314 5.26657
55.3328 5.07532
55.5344 4.90998
55.7361 4.71848