File: XRD/Ni3Fe_FD0337.xy
TT I
1.27165 8.08175
1.45013 6.62953
1.62863 5.3898
1.80712 4.64503
1.98562 5.12299
2.16411 4.38581
2.34263 5.38833
2.52115 6.08505
2.69965 7.2718
2.87818 7.94664
3.05672 10.9844
3.23527 15.1677
3.4138 19.1601
3.59237 23.9742
3.77094 26.3013
3.9495 30.4096
4.12809 35.7398
4.30669 152.992
4.4853 60.4598
4.6639 57.1708
4.84253 70.0847
5.02118 92.1247
5.19981 581.185
5.37848 224.734
5.55716 106.917
5.73586 96.4587
5.91455 102.044
6.09328 4107.9
6.27201 86.5352
6.45075 69.6226
6.62952 64.2728
6.8083 60.2079
6.98711 57.4864
7.16591 56.986
7.34475 79.9502
7.5236 55.9509
7.70247 58.1526
7.88135 59.6024
8.06026 63.9699
8.23919 71.7312
8.41812 89.1446
8.59709 1176.39
8.77609 104.787
8.9551 92.5039
9.13412 85.0981
9.31318 85.7354
9.49226 87.6343
9.67134 99.4962
9.85047 103.981
10.0296 433.094
10.2088 478.918
10.388 109.951
10.5672 484.504
10.7465 89.8085
10.9257 80.1031
11.105 73.7816
11.2844 71.6472
11.4637 66.7716
11.6431 65.4986
11.8225 64.5315
12.002 66.2815
12.1814 149.716
12.3609 71.355
12.5405 66.6446
12.72 71.0251
12.8996 73.378
13.0792 83.0367
13.2589 245.968
13.4386 132.482
13.6183 242.594
13.7981 102.323
13.9779 78.0969
14.1577 74.21
14.3376 73.01
14.5175 71.2315
14.6974 72.9845
14.8774 119.153
15.0574 154.789
15.2374 72.6055
15.4175 68.615
15.5976 68.3346
15.7778 102.532
15.958 164.161
16.1382 63.9818
16.3185 60.0145
16.4988 57.2135
16.6792 56.0226
16.8596 56.8785
17.04 57.8538
17.2205 69.0874
17.401 73.8666
17.5815 61.0976
17.7622 63.3647
17.9428 78.7023
18.1237 139.95
18.3044 91.7914
18.4852 80.0777
18.666 62.2771
18.8469 59.8377
19.0278 58.6776
19.2088 61.9099
19.3898 77.1274
19.5709 55.9011
19.752 55.0026
19.9332 58.5636
20.1144 71.5698
20.2957 64.4782
20.477 55.2489
20.6586 51.1992
20.84 50.4725
21.0215 50.3384
21.203 52.1157
21.3846 50.753
21.5662 50.4996
21.7479 54.8388
21.9297 66.3745
22.1115 57.1363
22.2933 51.5318
22.4753 50.445
22.6572 50.5742
22.8393 53.8067
23.0214 59.1907
23.2037 50.3557
23.3859 51.5076
23.5682 57.6001
23.7505 49.8675
23.9329 46.5854
24.1154 45.4688
24.2979 44.8447
24.4805 44.2337
24.6631 44.2472
24.8458 43.4982
25.0286 44.2043
25.2114 45.8739
25.3943 46.0732
25.5773 42.1918
25.7605 41.7609
25.9436 42.0839
26.1268 42.9393
26.31 41.4533
26.4933 42.0058
26.6767 43.4437
26.8601 41.633
27.0437 40.1413
27.2272 39.7375
27.4109 39.5542
27.5946 39.4636
27.7784 38.8917
27.9623 39.4625
28.1462 39.9127
28.3304 38.278
28.5145 37.0085
28.6987 36.6679
28.8829 36.5088
29.0673 35.7122
29.2517 35.3269
29.4361 35.1993
29.6207 34.0781
29.8053 33.8427
29.99 33.5832
30.1748 33.4751
30.3597 33.2599
30.5447 33.1408
30.7297 33.1658
30.915 32.5607
31.1002 32.022
31.2855 31.805
31.4708 31.6733
31.6563 31.3059
31.8418 31.0724
32.0275 30.797
32.2132 30.2157
32.399 29.7354
32.5848 29.3128
32.7708 29.022
32.9569 28.856
33.143 28.6756
33.3293 28.2094
33.5158 27.7348
33.7022 27.4649
33.8887 27.0775
34.0753 26.7465
34.262 26.4141
34.4488 26.0174
34.6357 25.7113
34.8227 25.3884
35.0098 25.1278
35.1969 24.8651
35.3842 24.6948
35.5716 24.5074
35.759 24.0593
35.9468 23.782
36.1345 23.5967
36.3222 23.2475
36.5101 23.1028
36.6981 22.739
36.8861 22.4282
37.0743 22.0783
37.2626 21.8203
37.451 21.603
37.6395 21.458
37.8281 21.0842
38.0168 20.8171
38.2056 20.5576
38.3945 20.303
38.5837 20.0058
38.7728 19.7189
38.9621 19.5643
39.1514 19.2696
39.3409 18.9857
39.5304 18.7342
39.7201 18.5169
39.9099 18.3587
40.0999 18.0969
40.2899 17.8267
40.48 17.5825
40.6703 17.3694
40.8607 17.2544
41.0512 17.021
41.242 16.7279
41.4327 16.5408
41.6236 16.243
41.8146 16.0749
42.0057 15.8455
42.1969 15.6413
42.3882 15.4439
42.5797 15.252
42.7713 15.063
42.963 14.8441
43.1549 14.6618
43.3468 14.394
43.5389 14.1936
43.7312 14.0435
43.9237 13.8614
44.1162 13.6383
44.3088 13.4512
44.5016 13.2829
44.6945 13.1031
44.8875 12.8982
45.0806 12.7427
45.2739 12.5514
45.4673 12.3323
45.6609 12.2103
45.8546 12.0249
46.0484 11.8487
46.2424 11.6552
46.4365 11.5232
46.631 11.3267
46.8254 11.1383
47.0199 10.9718
47.2146 10.8503
47.4095 10.6651
47.6044 10.4955
47.7996 10.3674
47.9948 10.2104
48.1902 10.064
48.3858 9.9347
48.5815 9.81667
48.7774 9.64679
48.9734 9.50603
49.1696 9.36097
49.3661 9.19441
49.5626 9.0547
49.7592 8.96031
49.956 8.81005
50.153 8.64713
50.3501 8.53837
50.5474 8.39942
50.7448 8.30073
50.9424 8.16391
51.1402 8.04554
51.3381 7.87955
51.5362 7.72454
51.7344 7.6339
51.9328 7.47509
52.1316 7.38008
52.3304 7.2515
52.5293 7.12143
52.7284 7.01255
52.9276 6.89433
53.1271 6.8203
53.3267 6.6772
53.5265 6.56766
53.7264 6.46079
53.9266 6.37354
54.1269 6.22303
54.3274 6.09555
54.528 5.98497
54.7289 5.78206
54.9301 5.58803
55.1314 5.51415
55.3328 5.27402
55.5344 5.11334
55.7361 4.94215