File: XRD/Ni3Fe_FD1075.xy
TT I
1.27165 7.09565
1.45013 6.27434
1.62863 4.89665
1.80712 4.49561
1.98562 4.16706
2.16411 3.93519
2.34263 5.17047
2.52115 7.78999
2.69965 8.23877
2.87818 8.54227
3.05672 10.653
3.23527 15.0743
3.4138 18.1202
3.59237 21.2558
3.77094 24.7204
3.9495 27.956
4.12809 32.1059
4.30669 56.2643
4.4853 46.5196
4.6639 52.6695
4.84253 64.4795
5.02118 82.6892
5.19981 230.725
5.37848 204.909
5.55716 97.7265
5.73586 87.9331
5.91455 88.7386
6.09328 4487.43
6.27201 76.1969
6.45075 63.5016
6.62952 58.0424
6.8083 54.4706
6.98711 52.3505
7.16591 51.5989
7.34475 55.987
7.5236 58.0898
7.70247 53.1844
7.88135 54.9584
8.06026 59.3835
8.23919 65.9055
8.41812 77.9647
8.59709 1115.02
8.77609 95.2255
8.9551 82.5672
9.13412 79.1801
9.31318 88.0705
9.49226 81.0532
9.67134 86.9125
9.85047 94.4247
10.0296 352.149
10.2088 444.458
10.388 97.9971
10.5672 513.611
10.7465 86.1921
10.9257 73.5289
11.105 68.228
11.2844 65.0814
11.4637 62.1662
11.6431 60.9281
11.8225 59.7406
12.002 65.9292
12.1814 147.104
12.3609 64.5143
12.5405 61.5877
12.72 63.8642
12.8996 68.0593
13.0792 76.5609
13.2589 230.932
13.4386 126.118
13.6183 237.54
13.7981 99.9823
13.9779 73.7315
14.1577 75.1736
14.3376 67.3758
14.5175 66.1822
14.6974 67.5622
14.8774 110.85
15.0574 158.662
15.2374 66.787
15.4175 64.2406
15.5976 63.4473
15.7778 95.4483
15.958 169.113
16.1382 59.8751
16.3185 55.7859
16.4988 53.6373
16.6792 52.7135
16.8596 53.122
17.04 53.8251
17.2205 64.9934
17.401 72.2071
17.5815 57.1711
17.7622 60.2009
17.9428 73.7467
18.1237 142.483
18.3044 89.0936
18.4852 78.7649
18.666 59.0763
18.8469 56.5358
19.0278 55.1545
19.2088 58.3304
19.3898 75.9941
19.5709 52.9473
19.752 51.9697
19.9332 55.2433
20.1144 70.5539
20.2957 63.4964
20.477 52.8304
20.6586 48.2928
20.84 47.8718
21.0215 47.502
21.203 49.7506
21.3846 48.101
21.5662 47.6661
21.7479 51.8527
21.9297 65.2093
22.1115 55.916
22.2933 49.1065
22.4753 47.5262
22.6572 47.962
22.8393 51.2935
23.0214 57.5035
23.2037 47.9425
23.3859 49.4783
23.5682 57.2706
23.7505 48.2705
23.9329 44.3814
24.1154 43.182
24.2979 42.5869
24.4805 42.1076
24.6631 41.8514
24.8458 41.3644
25.0286 42.1036
25.2114 44.3029
25.3943 44.3204
25.5773 40.2563
25.7605 39.5977
25.9436 40.1388
26.1268 41.2729
26.31 39.4158
26.4933 40.1365
26.6767 42.0149
26.8601 40.0881
27.0437 38.2959
27.2272 37.9446
27.4109 37.8315
27.5946 38.0033
27.7784 37.3849
27.9623 38.0533
28.1462 38.6868
28.3304 36.93
28.5145 35.4298
28.6987 35.0955
28.8829 34.8952
29.0673 34.248
29.2517 33.6674
29.4361 33.5577
29.6207 32.6233
29.8053 32.3455
29.99 32.0516
30.1748 31.9396
30.3597 31.7066
30.5447 31.6172
30.7297 31.9841
30.915 31.2382
31.1002 30.7483
31.2855 30.4151
31.4708 30.5789
31.6563 29.9892
31.8418 29.7168
32.0275 29.6566
32.2132 29.0478
32.399 28.4995
32.5848 28.0722
32.7708 27.8415
32.9569 27.6453
33.143 27.3809
33.3293 27.0926
33.5158 26.7327
33.7022 26.209
33.8887 25.9869
34.0753 25.5614
34.262 25.2228
34.4488 24.969
34.6357 24.6194
34.8227 24.2946
35.0098 24.1292
35.1969 23.9068
35.3842 23.6542
35.5716 23.5546
35.759 23.1637
35.9468 22.8114
36.1345 22.5798
36.3222 22.4037
36.5101 22.1629
36.6981 21.8987
36.8861 21.5689
37.0743 21.2085
37.2626 20.9481
37.451 20.7149
37.6395 20.5691
37.8281 20.2025
38.0168 19.9869
38.2056 19.6985
38.3945 19.3939
38.5837 19.2271
38.7728 18.9373
38.9621 18.6778
39.1514 18.4745
39.3409 18.2607
39.5304 17.9928
39.7201 17.8337
39.9099 17.6238
40.0999 17.36
40.2899 17.1098
40.48 16.9386
40.6703 16.6876
40.8607 16.5311
41.0512 16.2523
41.242 16.0537
41.4327 15.8605
41.6236 15.5988
41.8146 15.4328
42.0057 15.2082
42.1969 14.9838
42.3882 14.8319
42.5797 14.6208
42.7713 14.4328
42.963 14.2493
43.1549 14.0666
43.3468 13.8693
43.5389 13.6493
43.7312 13.452
43.9237 13.3033
44.1162 13.1191
44.3088 12.8963
44.5016 12.7239
44.6945 12.5564
44.8875 12.3872
45.0806 12.2006
45.2739 12.0544
45.4673 11.8644
45.6609 11.6909
45.8546 11.5774
46.0484 11.3842
46.2424 11.2202
46.4365 11.0096
46.631 10.9149
46.8254 10.7024
47.0199 10.5244
47.2146 10.3687
47.4095 10.2304
47.6044 10.0992
47.7996 9.93833
47.9948 9.79084
48.1902 9.65646
48.3858 9.51893
48.5815 9.385
48.7774 9.26007
48.9734 9.10649
49.1696 8.95576
49.3661 8.85787
49.5626 8.67197
49.7592 8.57936
49.956 8.43453
50.153 8.30985
50.3501 8.2018
50.5474 8.05045
50.7448 7.94597
50.9424 7.83512
51.1402 7.71124
51.3381 7.53882
51.5362 7.43114
51.7344 7.31432
51.9328 7.194
52.1316 7.10091
52.3304 6.94763
52.5293 6.88122
52.7284 6.72699
52.9276 6.63508
53.1271 6.51554
53.3267 6.38154
53.5265 6.25597
53.7264 6.18547
53.9266 6.0822
54.1269 5.98447
54.3274 5.88789
54.528 5.69195
54.7289 5.54942
54.9301 5.4431
55.1314 5.27715
55.3328 5.10281
55.5344 4.91868
55.7361 4.74632