File: XRD/Ni3Fe_FD0430.xy
TT I
1.27165 7.34207
1.45013 6.15273
1.62863 5.85563
1.80712 4.88826
1.98562 4.9896
2.16411 4.84096
2.34263 5.45403
2.52115 6.11609
2.69965 7.47851
2.87818 8.08342
3.05672 10.9413
3.23527 15.2763
3.4138 19.0834
3.59237 24.5707
3.77094 26.3897
3.9495 30.4246
4.12809 35.6857
4.30669 228.603
4.4853 67.4743
4.6639 56.2037
4.84253 68.3795
5.02118 89.2329
5.19981 425.305
5.37848 209.173
5.55716 103.773
5.73586 94.137
5.91455 97.794
6.09328 4184.33
6.27201 85.3273
6.45075 68.5749
6.62952 64.0041
6.8083 59.9082
6.98711 56.8047
7.16591 56.4459
7.34475 94.4719
7.5236 55.497
7.70247 57.0753
7.88135 58.5579
8.06026 63.3019
8.23919 70.6415
8.41812 87.4452
8.59709 1171.16
8.77609 102.317
8.9551 93.5995
9.13412 83.1155
9.31318 83.6727
9.49226 85.7772
9.67134 100.732
9.85047 101.755
10.0296 367.819
10.2088 439.186
10.388 107.222
10.5672 501.714
10.7465 88.414
10.9257 79.9994
11.105 73.2709
11.2844 71.8256
11.4637 66.1693
11.6431 64.6959
11.8225 63.798
12.002 64.8282
12.1814 151.718
12.3609 72.4265
12.5405 65.8203
12.72 71.4638
12.8996 72.2284
13.0792 80.6365
13.2589 235.397
13.4386 129.249
13.6183 242.564
13.7981 99.9788
13.9779 77.1399
14.1577 73.8741
14.3376 73.0414
14.5175 70.1798
14.6974 71.8361
14.8774 112.55
15.0574 155.707
15.2374 72.7107
15.4175 67.5594
15.5976 66.9778
15.7778 97.2156
15.958 161.055
16.1382 64.0545
16.3185 59.7541
16.4988 56.6687
16.6792 55.4158
16.8596 56.2777
17.04 56.8231
17.2205 67.8145
17.401 72.4801
17.5815 60.3231
17.7622 62.3663
17.9428 75.7584
18.1237 140.743
18.3044 90.7714
18.4852 79.4416
18.666 61.5355
18.8469 58.9516
19.0278 57.9377
19.2088 61.0836
19.3898 77.8327
19.5709 55.1389
19.752 54.2388
19.9332 57.4712
20.1144 71.0703
20.2957 64.3441
20.477 55.0062
20.6586 50.6678
20.84 49.9081
21.0215 49.5024
21.203 51.7807
21.3846 50.1222
21.5662 49.7904
21.7479 53.5831
21.9297 65.7593
22.1115 56.8178
22.2933 50.9297
22.4753 49.8645
22.6572 49.8943
22.8393 52.8561
23.0214 58.6639
23.2037 49.6813
23.3859 50.8404
23.5682 57.7111
23.7505 49.3683
23.9329 45.9608
24.1154 45.0043
24.2979 44.2531
24.4805 43.5831
24.6631 43.5463
24.8458 42.9892
25.0286 43.6275
25.2114 45.4612
25.3943 45.6229
25.5773 41.7516
25.7605 41.3279
25.9436 41.6738
26.1268 42.553
26.31 40.8904
26.4933 41.5378
26.6767 42.9751
26.8601 41.3375
27.0437 39.6459
27.2272 39.2353
27.4109 39.1206
27.5946 39.2438
27.7784 38.5276
27.9623 39.0898
28.1462 39.5874
28.3304 37.9147
28.5145 36.678
28.6987 36.3207
28.8829 36.1299
29.0673 35.428
29.2517 35.0149
29.4361 34.7777
29.6207 33.7941
29.8053 33.6208
29.99 33.1934
30.1748 32.9977
30.3597 32.913
30.5447 32.7298
30.7297 32.7744
30.915 32.2228
31.1002 31.7174
31.2855 31.4543
31.4708 31.3216
31.6563 30.9697
31.8418 30.5947
32.0275 30.4033
32.2132 30.0088
32.399 29.591
32.5848 29.076
32.7708 28.6719
32.9569 28.52
33.143 28.2873
33.3293 27.8996
33.5158 27.596
33.7022 27.1036
33.8887 26.8443
34.0753 26.4276
34.262 26.1695
34.4488 25.825
34.6357 25.4452
34.8227 25.1563
35.0098 24.9721
35.1969 24.6461
35.3842 24.4102
35.5716 24.2015
35.759 23.9039
35.9468 23.583
36.1345 23.2958
36.3222 23.1529
36.5101 22.8657
36.6981 22.4442
36.8861 22.226
37.0743 21.8986
37.2626 21.6239
37.451 21.3956
37.6395 21.2069
37.8281 20.8861
38.0168 20.6157
38.2056 20.3263
38.3945 20.068
38.5837 19.7782
38.7728 19.6161
38.9621 19.2959
39.1514 19.0783
39.3409 18.7805
39.5304 18.6106
39.7201 18.4094
39.9099 18.1781
40.0999 17.9644
40.2899 17.648
40.48 17.4372
40.6703 17.2509
40.8607 17.0075
41.0512 16.8094
41.242 16.5261
41.4327 16.3907
41.6236 16.1552
41.8146 15.9543
42.0057 15.7506
42.1969 15.4703
42.3882 15.3706
42.5797 15.1219
42.7713 14.932
42.963 14.645
43.1549 14.4699
43.3468 14.299
43.5389 14.1159
43.7312 13.9011
43.9237 13.6909
44.1162 13.554
44.3088 13.3331
44.5016 13.1242
44.6945 12.9874
44.8875 12.7914
45.0806 12.5768
45.2739 12.3912
45.4673 12.2479
45.6609 12.0639
45.8546 11.9654
46.0484 11.7199
46.2424 11.5827
46.4365 11.4286
46.631 11.2409
46.8254 11.073
47.0199 10.9052
47.2146 10.7227
47.4095 10.5797
47.6044 10.431
47.7996 10.2918
47.9948 10.1334
48.1902 10.0023
48.3858 9.865
48.5815 9.71692
48.7774 9.58119
48.9734 9.40657
49.1696 9.29268
49.3661 9.14455
49.5626 9.00539
49.7592 8.86276
49.956 8.72756
50.153 8.62506
50.3501 8.44087
50.5474 8.33132
50.7448 8.22955
50.9424 8.06325
51.1402 7.95796
51.3381 7.8326
51.5362 7.68664
51.7344 7.53938
51.9328 7.41753
52.1316 7.31036
52.3304 7.2014
52.5293 7.08674
52.7284 6.95121
52.9276 6.84227
53.1271 6.71977
53.3267 6.62468
53.5265 6.49704
53.7264 6.39589
53.9266 6.24719
54.1269 6.15897
54.3274 6.04343
54.528 5.8933
54.7289 5.73996
54.9301 5.61204
55.1314 5.42413
55.3328 5.2207
55.5344 5.07432
55.7361 4.93122