File: XRD/Ni3Fe_FD0895.xy
TT I
1.27165 7.61726
1.45013 6.21715
1.62863 5.31832
1.80712 4.99772
1.98562 5.14844
2.16411 5.32701
2.34263 5.98158
2.52115 6.94711
2.69965 8.25529
2.87818 8.48828
3.05672 11.6515
3.23527 14.7624
3.4138 18.8547
3.59237 23.5959
3.77094 26.0652
3.9495 29.9459
4.12809 34.8572
4.30669 185.075
4.4853 61.7065
4.6639 54.5952
4.84253 66.2545
5.02118 85.003
5.19981 308.946
5.37848 166.815
5.55716 99.7277
5.73586 90.024
5.91455 91.8941
6.09328 4545.64
6.27201 79.995
6.45075 66.0037
6.62952 61.3781
6.8083 57.3547
6.98711 54.875
7.16591 54.3493
7.34475 83.4403
7.5236 53.9263
7.70247 55.4029
7.88135 57.0273
8.06026 61.0263
8.23919 68.6123
8.41812 83.171
8.59709 1181.18
8.77609 95.8374
8.9551 89.129
9.13412 80.2264
9.31318 80.9085
9.49226 82.8395
9.67134 95.6546
9.85047 98.3404
10.0296 318.119
10.2088 332.638
10.388 101.95
10.5672 532.288
10.7465 84.5698
10.9257 77.0722
11.105 70.4958
11.2844 68.8233
11.4637 63.5815
11.6431 62.4154
11.8225 61.4487
12.002 62.4484
12.1814 157.147
12.3609 67.8871
12.5405 63.3211
12.72 68.2207
12.8996 69.5714
13.0792 77.8851
13.2589 237.346
13.4386 113.986
13.6183 252.793
13.7981 91.0695
13.9779 74.5289
14.1577 70.9005
14.3376 69.8282
14.5175 67.5798
14.6974 69.0152
14.8774 107.689
15.0574 136.431
15.2374 69.4641
15.4175 65.2122
15.5976 64.5637
15.7778 91.965
15.958 148.79
16.1382 61.174
16.3185 57.3223
16.4988 54.348
16.6792 53.4681
16.8596 53.9388
17.04 54.7057
17.2205 65.3337
17.401 67.8606
17.5815 58.148
17.7622 60.2711
17.9428 71.7211
18.1237 139.393
18.3044 90.0854
18.4852 73.2754
18.666 59.2068
18.8469 56.9598
19.0278 55.8903
19.2088 58.1172
19.3898 75.9503
19.5709 53.0428
19.752 52.2088
19.9332 55.1735
20.1144 69.3115
20.2957 64.1434
20.477 52.1889
20.6586 48.7979
20.84 48.0368
21.0215 47.5842
21.203 50.1269
21.3846 47.7074
21.5662 47.7661
21.7479 51.5601
21.9297 63.9916
22.1115 55.5487
22.2933 48.7258
22.4753 47.9422
22.6572 47.9083
22.8393 51.1115
23.0214 56.3581
23.2037 47.8944
23.3859 48.7899
23.5682 56.9393
23.7505 46.9928
23.9329 44.3713
24.1154 43.3406
24.2979 42.5766
24.4805 42.133
24.6631 42.1262
24.8458 41.5096
25.0286 42.1574
25.2114 43.9165
25.3943 43.7496
25.5773 40.1791
25.7605 39.8253
25.9436 40.0357
26.1268 41.1328
26.31 39.3245
26.4933 40.0677
26.6767 41.4654
26.8601 39.6848
27.0437 38.1346
27.2272 37.8504
27.4109 37.7514
27.5946 37.6213
27.7784 37.2175
27.9623 37.8043
28.1462 37.9804
28.3304 36.4238
28.5145 35.4023
28.6987 34.9859
28.8829 34.9085
29.0673 34.1236
29.2517 33.7649
29.4361 33.5193
29.6207 32.507
29.8053 32.285
29.99 32.0146
30.1748 31.8974
30.3597 31.7208
30.5447 31.5958
30.7297 31.6594
30.915 31.0657
31.1002 30.4696
31.2855 30.304
31.4708 30.3716
31.6563 29.7488
31.8418 29.6453
32.0275 29.3874
32.2132 28.8963
32.399 28.4431
32.5848 27.9746
32.7708 27.6462
32.9569 27.4836
33.143 27.3097
33.3293 26.8605
33.5158 26.5801
33.7022 26.1655
33.8887 25.8125
34.0753 25.4821
34.262 25.1997
34.4488 24.8754
34.6357 24.5633
34.8227 24.2459
35.0098 24.0778
35.1969 23.7096
35.3842 23.6081
35.5716 23.322
35.759 23.0327
35.9468 22.751
36.1345 22.5005
36.3222 22.2658
36.5101 22.0339
36.6981 21.757
36.8861 21.5034
37.0743 21.0945
37.2626 20.8574
37.451 20.645
37.6395 20.4332
37.8281 20.1197
38.0168 19.8562
38.2056 19.6157
38.3945 19.3232
38.5837 19.1229
38.7728 18.8704
38.9621 18.6069
39.1514 18.3743
39.3409 18.1327
39.5304 17.8723
39.7201 17.7801
39.9099 17.5444
40.0999 17.2782
40.2899 17.0997
40.48 16.8072
40.6703 16.642
40.8607 16.4061
41.0512 16.235
41.242 16.0002
41.4327 15.7381
41.6236 15.5667
41.8146 15.4053
42.0057 15.206
42.1969 14.9834
42.3882 14.8095
42.5797 14.5441
42.7713 14.387
42.963 14.1825
43.1549 13.9808
43.3468 13.7847
43.5389 13.5854
43.7312 13.3825
43.9237 13.2364
44.1162 13.0252
44.3088 12.8871
44.5016 12.6642
44.6945 12.5244
44.8875 12.3549
45.0806 12.1556
45.2739 11.9874
45.4673 11.8164
45.6609 11.6428
45.8546 11.5214
46.0484 11.3306
46.2424 11.1826
46.4365 11.0296
46.631 10.8779
46.8254 10.6712
47.0199 10.5119
47.2146 10.3845
47.4095 10.1906
47.6044 10.0263
47.7996 9.90441
47.9948 9.79728
48.1902 9.65354
48.3858 9.49469
48.5815 9.35772
48.7774 9.26104
48.9734 9.09286
49.1696 8.95739
49.3661 8.7818
49.5626 8.64346
49.7592 8.55198
49.956 8.38466
50.153 8.29706
50.3501 8.13936
50.5474 8.05372
50.7448 7.92675
50.9424 7.81141
51.1402 7.67404
51.3381 7.55523
51.5362 7.4243
51.7344 7.29752
51.9328 7.16559
52.1316 7.05335
52.3304 6.93469
52.5293 6.80366
52.7284 6.73265
52.9276 6.62583
53.1271 6.49366
53.3267 6.39759
53.5265 6.2731
53.7264 6.16568
53.9266 6.0782
54.1269 5.96645
54.3274 5.8818
54.528 5.74267
54.7289 5.51452
54.9301 5.38721
55.1314 5.30718
55.3328 5.08471
55.5344 4.84884
55.7361 4.71741