File: XRD/Ni3Fe_FD0791.xy
TT I
1.27165 7.12556
1.45013 5.78487
1.62863 5.17708
1.80712 4.96462
1.98562 4.64723
2.16411 5.12099
2.34263 5.33774
2.52115 7.42175
2.69965 8.90018
2.87818 8.32109
3.05672 11.4558
3.23527 14.8695
3.4138 18.9059
3.59237 23.2082
3.77094 25.6524
3.9495 29.7412
4.12809 34.5497
4.30669 148.646
4.4853 58.4098
4.6639 55.0793
4.84253 67.2803
5.02118 86.7278
5.19981 362.007
5.37848 177.955
5.55716 100.894
5.73586 91.6147
5.91455 93.7247
6.09328 4552.9
6.27201 80.2403
6.45075 66.7488
6.62952 61.9151
6.8083 58.4434
6.98711 54.7623
7.16591 54.7683
7.34475 77.0844
7.5236 54.0734
7.70247 56.0665
7.88135 57.1508
8.06026 61.8144
8.23919 68.7804
8.41812 83.9871
8.59709 1205.19
8.77609 97.0906
8.9551 89.0094
9.13412 81.6123
9.31318 82.4047
9.49226 83.9859
9.67134 95.0222
9.85047 99.1994
10.0296 345.131
10.2088 342.217
10.388 103.602
10.5672 536.65
10.7465 85.3525
10.9257 77.1124
11.105 70.82
11.2844 68.8251
11.4637 64.3192
11.6431 62.7618
11.8225 61.8188
12.002 63.4515
12.1814 157.859
12.3609 67.1756
12.5405 63.8457
12.72 68.0908
12.8996 70.56
13.0792 78.8342
13.2589 246.795
13.4386 116.766
13.6183 257.083
13.7981 92.6537
13.9779 75.2109
14.1577 71.2973
14.3376 70.2662
14.5175 68.117
14.6974 69.9012
14.8774 111.596
15.0574 140.39
15.2374 69.1241
15.4175 65.8036
15.5976 65.4848
15.7778 94.6396
15.958 146.814
16.1382 61.2486
16.3185 57.4542
16.4988 54.9548
16.6792 53.7191
16.8596 54.5896
17.04 55.2971
17.2205 66.6819
17.401 68.7839
17.5815 58.6927
17.7622 60.7978
17.9428 72.9744
18.1237 141.095
18.3044 91.0174
18.4852 73.9425
18.666 59.497
18.8469 57.1505
19.0278 56.2914
19.2088 58.6184
19.3898 75.8198
19.5709 53.5918
19.752 52.8083
19.9332 55.662
20.1144 69.5399
20.2957 64.1671
20.477 52.5464
20.6586 49.2553
20.84 48.3182
21.0215 48.1335
21.203 50.5007
21.3846 48.4101
21.5662 48.259
21.7479 52.3689
21.9297 64.3317
22.1115 55.6926
22.2933 49.1281
22.4753 48.1912
22.6572 48.4632
22.8393 51.4965
23.0214 56.5698
23.2037 48.3132
23.3859 49.3222
23.5682 57.1607
23.7505 47.3561
23.9329 44.7877
24.1154 43.7228
24.2979 43.1624
24.4805 42.4766
24.6631 42.3945
24.8458 41.7944
25.0286 42.5406
25.2114 44.2676
25.3943 44.0585
25.5773 40.4693
25.7605 40.0972
25.9436 40.4219
26.1268 41.3265
26.31 39.4974
26.4933 40.3865
26.6767 41.8116
26.8601 40.0171
27.0437 38.3855
27.2272 38.0377
27.4109 38.0797
27.5946 38.1446
27.7784 37.4259
27.9623 38.2118
28.1462 38.3559
28.3304 36.7358
28.5145 35.4632
28.6987 35.2796
28.8829 35.0678
29.0673 34.2753
29.2517 33.9564
29.4361 33.8148
29.6207 32.7566
29.8053 32.5068
29.99 32.248
30.1748 32.1336
30.3597 31.9112
30.5447 31.8431
30.7297 31.8268
30.915 31.2372
31.1002 30.8303
31.2855 30.481
31.4708 30.481
31.6563 30.0179
31.8418 29.851
32.0275 29.6061
32.2132 29.0814
32.399 28.6557
32.5848 28.2927
32.7708 27.8089
32.9569 27.6863
33.143 27.5775
33.3293 27.1484
33.5158 26.7294
33.7022 26.3308
33.8887 26.0657
34.0753 25.713
34.262 25.494
34.4488 25.0769
34.6357 24.7231
34.8227 24.4663
35.0098 24.2727
35.1969 23.9375
35.3842 23.8165
35.5716 23.5171
35.759 23.2583
35.9468 22.8513
36.1345 22.643
36.3222 22.4038
36.5101 22.2321
36.6981 21.9066
36.8861 21.547
37.0743 21.2811
37.2626 21.0683
37.451 20.7515
37.6395 20.6395
37.8281 20.2274
38.0168 19.979
38.2056 19.7688
38.3945 19.4913
38.5837 19.2747
38.7728 19.0154
38.9621 18.7701
39.1514 18.5248
39.3409 18.3116
39.5304 18.0122
39.7201 17.9056
39.9099 17.5671
40.0999 17.4714
40.2899 17.1561
40.48 16.9193
40.6703 16.7661
40.8607 16.5676
41.0512 16.3381
41.242 16.0695
41.4327 15.9107
41.6236 15.6836
41.8146 15.4781
42.0057 15.2683
42.1969 15.043
42.3882 14.8542
42.5797 14.6718
42.7713 14.5024
42.963 14.3125
43.1549 14.1113
43.3468 13.8511
43.5389 13.6725
43.7312 13.4403
43.9237 13.2798
44.1162 13.1041
44.3088 12.9568
44.5016 12.7684
44.6945 12.6072
44.8875 12.376
45.0806 12.2572
45.2739 12.0681
45.4673 11.8901
45.6609 11.7192
45.8546 11.6032
46.0484 11.428
46.2424 11.2543
46.4365 11.1494
46.631 10.9091
46.8254 10.7569
47.0199 10.6059
47.2146 10.4556
47.4095 10.2659
47.6044 10.1498
47.7996 9.98299
47.9948 9.84863
48.1902 9.67972
48.3858 9.56226
48.5815 9.40165
48.7774 9.28557
48.9734 9.16349
49.1696 9.00018
49.3661 8.84469
49.5626 8.73111
49.7592 8.61063
49.956 8.50594
50.153 8.34284
50.3501 8.17588
50.5474 8.11813
50.7448 7.98833
50.9424 7.86042
51.1402 7.75232
51.3381 7.58775
51.5362 7.45952
51.7344 7.34235
51.9328 7.20741
52.1316 7.08633
52.3304 7.0377
52.5293 6.881
52.7284 6.74611
52.9276 6.67437
53.1271 6.58877
53.3267 6.40234
53.5265 6.29305
53.7264 6.23192
53.9266 6.12534
54.1269 6.00903
54.3274 5.88068
54.528 5.73948
54.7289 5.61838
54.9301 5.42407
55.1314 5.35037
55.3328 5.16016
55.5344 4.93507
55.7361 4.77264