File: XRD/Ni3Fe_FD0240.xy
TT I
1.27165 7.79643
1.45013 6.38303
1.62863 5.95781
1.80712 5.18664
1.98562 4.67856
2.16411 4.69891
2.34263 4.46961
2.52115 4.68509
2.69965 6.21537
2.87818 8.46227
3.05672 10.8629
3.23527 15.0363
3.4138 19.3254
3.59237 22.1569
3.77094 25.8619
3.9495 30.0319
4.12809 34.9994
4.30669 40.718
4.4853 48.2366
4.6639 58.0637
4.84253 71.6306
5.02118 96.0786
5.19981 885.879
5.37848 270.236
5.55716 111.527
5.73586 100.264
5.91455 109.682
6.09328 3664.64
6.27201 88.545
6.45075 70.7651
6.62952 64.1704
6.8083 59.8592
6.98711 57.4713
7.16591 56.5707
7.34475 55.6375
7.5236 56.2094
7.70247 58.2061
7.88135 60.1147
8.06026 65.4706
8.23919 73.1067
8.41812 90.1925
8.59709 1077.51
8.77609 110.211
8.9551 90.9289
9.13412 86.7758
9.31318 88.0733
9.49226 89.3508
9.67134 95.2855
9.85047 106.436
10.0296 513.299
10.2088 538.402
10.388 115.18
10.5672 451.228
10.7465 91.8982
10.9257 80.6585
11.105 74.8267
11.2844 70.6014
11.4637 67.7187
11.6431 66.1867
11.8225 65.2557
12.002 68.9179
12.1814 141.38
12.3609 69.9218
12.5405 67.4083
12.72 69.5037
12.8996 74.896
13.0792 86.6626
13.2589 231.039
13.4386 149.65
13.6183 228.417
13.7981 110.671
13.9779 79.6544
14.1577 75.3177
14.3376 73.1586
14.5175 72.353
14.6974 74.7826
14.8774 120.18
15.0574 170.269
15.2374 72.0979
15.4175 69.7029
15.5976 69.7878
15.7778 103.771
15.958 173.792
16.1382 63.8953
16.3185 60.1911
16.4988 57.7843
16.6792 56.9834
16.8596 57.2707
17.04 59.1552
17.2205 69.0573
17.401 76.9482
17.5815 62.1428
17.7622 64.4315
17.9428 82.6155
18.1237 139.288
18.3044 90.4939
18.4852 83.4803
18.666 63.23
18.8469 60.7907
19.0278 59.5485
19.2088 62.9556
19.3898 76.4008
19.5709 57.0354
19.752 56.0021
19.9332 59.3859
20.1144 72.6377
20.2957 64.53
20.477 56.4024
20.6586 51.7937
20.84 51.0459
21.0215 51.2833
21.203 52.6023
21.3846 51.657
21.5662 51.7988
21.7479 55.3812
21.9297 66.8939
22.1115 57.6979
22.2933 52.4463
22.4753 50.8044
22.6572 51.7951
22.8393 54.2826
23.0214 59.9011
23.2037 51.4135
23.3859 52.49
23.5682 57.6911
23.7505 51.0622
23.9329 47.3675
24.1154 46.1459
24.2979 45.4934
24.4805 44.9308
24.6631 44.7575
24.8458 44.2158
25.0286 44.9929
25.2114 46.5887
25.3943 46.7075
25.5773 42.7872
25.7605 42.3747
25.9436 42.5086
26.1268 43.5393
26.31 42.1763
26.4933 42.6445
26.6767 43.8597
26.8601 42.2226
27.0437 40.8075
27.2272 40.3037
27.4109 40.1527
27.5946 40.148
27.7784 39.7259
27.9623 40.0006
28.1462 40.5586
28.3304 39.0006
28.5145 37.5626
28.6987 37.1091
28.8829 36.877
29.0673 36.3324
29.2517 35.8186
29.4361 35.5852
29.6207 34.5099
29.8053 34.4955
29.99 34.0951
30.1748 33.7552
30.3597 33.7299
30.5447 33.6467
30.7297 33.6006
30.915 33.0438
31.1002 32.5621
31.2855 32.3031
31.4708 32.1597
31.6563 31.6856
31.8418 31.4389
32.0275 31.1932
32.2132 30.7062
32.399 30.2263
32.5848 29.7646
32.7708 29.415
32.9569 29.3449
33.143 28.9611
33.3293 28.5666
33.5158 28.2684
33.7022 27.7592
33.8887 27.4607
34.0753 27.1051
34.262 26.8164
34.4488 26.4482
34.6357 26.0435
34.8227 25.7998
35.0098 25.5483
35.1969 25.1883
35.3842 25.0434
35.5716 24.8423
35.759 24.3835
35.9468 24.1479
36.1345 23.9096
36.3222 23.7233
36.5101 23.4113
36.6981 23.0456
36.8861 22.8337
37.0743 22.4796
37.2626 22.1531
37.451 21.9246
37.6395 21.8025
37.8281 21.3595
38.0168 21.0439
38.2056 20.8703
38.3945 20.5844
38.5837 20.3038
38.7728 20.0582
38.9621 19.8155
39.1514 19.5537
39.3409 19.295
39.5304 19.0923
39.7201 18.7827
39.9099 18.6172
40.0999 18.4079
40.2899 18.084
40.48 17.8651
40.6703 17.6229
40.8607 17.4938
41.0512 17.2621
41.242 16.9648
41.4327 16.7736
41.6236 16.5473
41.8146 16.3029
42.0057 16.0978
42.1969 15.885
42.3882 15.6721
42.5797 15.4291
42.7713 15.2628
42.963 15.0047
43.1549 14.8516
43.3468 14.6221
43.5389 14.4653
43.7312 14.2398
43.9237 14.018
44.1162 13.8169
44.3088 13.691
44.5016 13.4315
44.6945 13.266
44.8875 13.0803
45.0806 12.8698
45.2739 12.7054
45.4673 12.5588
45.6609 12.3153
45.8546 12.1737
46.0484 12.0347
46.2424 11.7878
46.4365 11.6769
46.631 11.5581
46.8254 11.2894
47.0199 11.1404
47.2146 10.9827
47.4095 10.8016
47.6044 10.6604
47.7996 10.5273
47.9948 10.3581
48.1902 10.1909
48.3858 10.0616
48.5815 9.90763
48.7774 9.80269
48.9734 9.634
49.1696 9.48328
49.3661 9.34902
49.5626 9.17022
49.7592 9.03707
49.956 8.89336
50.153 8.78426
50.3501 8.64701
50.5474 8.51699
50.7448 8.40901
50.9424 8.26868
51.1402 8.13197
51.3381 7.96711
51.5362 7.88976
51.7344 7.71454
51.9328 7.58849
52.1316 7.45802
52.3304 7.34505
52.5293 7.21528
52.7284 7.08189
52.9276 6.97638
53.1271 6.86144
53.3267 6.75903
53.5265 6.6623
53.7264 6.53377
53.9266 6.39665
54.1269 6.24645
54.3274 6.2036
54.528 6.02045
54.7289 5.83385
54.9301 5.66555
55.1314 5.49355
55.3328 5.2794
55.5344 5.11346
55.7361 5.01162