File: XRD/Ni3Fe_FD0777.xy
TT I
1.27165 7.42048
1.45013 5.58276
1.62863 5.35502
1.80712 5.25847
1.98562 4.96328
2.16411 5.21952
2.34263 5.11036
2.52115 7.46186
2.69965 8.09677
2.87818 9.20543
3.05672 11.338
3.23527 15.0687
3.4138 19.1092
3.59237 23.6206
3.77094 25.8944
3.9495 29.6329
4.12809 34.7201
4.30669 203.13
4.4853 63.8513
4.6639 54.813
4.84253 66.6692
5.02118 85.6201
5.19981 312.328
5.37848 177.744
5.55716 100.38
5.73586 90.5463
5.91455 92.823
6.09328 4444.28
6.27201 81.1549
6.45075 66.5851
6.62952 61.842
6.8083 57.9267
6.98711 55.5549
7.16591 54.7634
7.34475 88.2859
7.5236 54.1299
7.70247 55.6285
7.88135 57.5375
8.06026 61.6437
8.23919 69.2468
8.41812 84.0853
8.59709 1177.41
8.77609 97.2726
8.9551 90.1163
9.13412 80.6481
9.31318 81.7836
9.49226 83.9119
9.67134 96.6015
9.85047 98.6477
10.0296 320.502
10.2088 353.013
10.388 102.835
10.5672 533.951
10.7465 85.8085
10.9257 77.3778
11.105 70.7903
11.2844 69.5145
11.4637 64.1722
11.6431 63.0653
11.8225 61.689
12.002 62.8416
12.1814 156.817
12.3609 68.9746
12.5405 63.7253
12.72 69.3678
12.8996 70.2421
13.0792 79.0402
13.2589 237.114
13.4386 118.204
13.6183 248.895
13.7981 93.3019
13.9779 74.9303
14.1577 71.6416
14.3376 70.6682
14.5175 68.0809
14.6974 69.9395
14.8774 108.182
15.0574 143.808
15.2374 69.9558
15.4175 65.4301
15.5976 64.982
15.7778 92.3452
15.958 151.091
16.1382 61.8721
16.3185 57.9285
16.4988 54.8558
16.6792 53.878
16.8596 54.6212
17.04 55.0732
17.2205 65.9941
17.401 68.4951
17.5815 58.445
17.7622 60.7545
17.9428 72.4829
18.1237 142.051
18.3044 90.2248
18.4852 75.0633
18.666 59.6543
18.8469 57.309
19.0278 56.3379
19.2088 58.7212
19.3898 76.4234
19.5709 53.4258
19.752 52.7366
19.9332 55.4091
20.1144 69.4281
20.2957 64.1018
20.477 52.6939
20.6586 48.9601
20.84 48.117
21.0215 48.0386
21.203 50.4918
21.3846 48.2694
21.5662 48.211
21.7479 51.8324
21.9297 64.3211
22.1115 55.8026
22.2933 49.248
22.4753 48.4174
22.6572 48.2648
22.8393 51.212
23.0214 56.9594
23.2037 48.0577
23.3859 49.278
23.5682 56.9745
23.7505 47.5097
23.9329 44.7798
24.1154 43.7141
24.2979 42.9932
24.4805 42.5765
24.6631 42.1645
24.8458 41.6574
25.0286 42.4169
25.2114 44.092
25.3943 44.248
25.5773 40.3595
25.7605 39.948
25.9436 40.3655
26.1268 41.2739
26.31 39.6279
26.4933 40.378
26.6767 41.7482
26.8601 40.1085
27.0437 38.5251
27.2272 38.1167
27.4109 38.0191
27.5946 37.946
27.7784 37.4636
27.9623 38.0586
28.1462 38.4142
28.3304 36.6751
28.5145 35.658
28.6987 35.2383
28.8829 35.0056
29.0673 34.3075
29.2517 34.0147
29.4361 33.8253
29.6207 32.8407
29.8053 32.5502
29.99 32.228
30.1748 32.0658
30.3597 31.916
30.5447 31.8708
30.7297 31.9561
30.915 31.23
31.1002 30.8115
31.2855 30.5192
31.4708 30.5211
31.6563 29.9964
31.8418 29.8858
32.0275 29.6007
32.2132 29.0619
32.399 28.6356
32.5848 28.1456
32.7708 27.929
32.9569 27.7067
33.143 27.4756
33.3293 27.1166
33.5158 26.7468
33.7022 26.329
33.8887 26.1018
34.0753 25.7813
34.262 25.3842
34.4488 25.11
34.6357 24.6906
34.8227 24.4481
35.0098 24.2268
35.1969 23.9967
35.3842 23.7448
35.5716 23.6047
35.759 23.2577
35.9468 22.9301
36.1345 22.6762
36.3222 22.4595
36.5101 22.172
36.6981 21.903
36.8861 21.5415
37.0743 21.302
37.2626 21.1099
37.451 20.7876
37.6395 20.651
37.8281 20.2331
38.0168 20.008
38.2056 19.7667
38.3945 19.4763
38.5837 19.2252
38.7728 19.0576
38.9621 18.7244
39.1514 18.4762
39.3409 18.2324
39.5304 18.0235
39.7201 17.8925
39.9099 17.6802
40.0999 17.4523
40.2899 17.2179
40.48 16.9241
40.6703 16.7661
40.8607 16.5934
41.0512 16.3843
41.242 16.095
41.4327 15.8921
41.6236 15.693
41.8146 15.4985
42.0057 15.3075
42.1969 15.0682
42.3882 14.898
42.5797 14.7157
42.7713 14.446
42.963 14.2458
43.1549 14.1172
43.3468 13.8885
43.5389 13.6614
43.7312 13.5176
43.9237 13.3586
44.1162 13.1629
44.3088 12.9592
44.5016 12.7536
44.6945 12.6121
44.8875 12.4054
45.0806 12.254
45.2739 12.0741
45.4673 11.9295
45.6609 11.7236
45.8546 11.6168
46.0484 11.4289
46.2424 11.2938
46.4365 11.0803
46.631 10.9716
46.8254 10.7595
47.0199 10.6124
47.2146 10.4409
47.4095 10.2787
47.6044 10.1589
47.7996 9.99273
47.9948 9.89348
48.1902 9.70002
48.3858 9.60317
48.5815 9.44954
48.7774 9.33461
48.9734 9.1563
49.1696 9.02291
49.3661 8.88924
49.5626 8.75689
49.7592 8.60381
49.956 8.51885
50.153 8.35754
50.3501 8.23282
50.5474 8.09952
50.7448 7.99977
50.9424 7.84397
51.1402 7.70933
51.3381 7.56431
51.5362 7.46714
51.7344 7.37164
51.9328 7.22676
52.1316 7.10922
52.3304 7.01218
52.5293 6.86178
52.7284 6.78687
52.9276 6.68066
53.1271 6.55424
53.3267 6.45029
53.5265 6.2945
53.7264 6.24721
53.9266 6.12597
54.1269 6.00063
54.3274 5.84837
54.528 5.74349
54.7289 5.55743
54.9301 5.47703
55.1314 5.311
55.3328 5.10318
55.5344 4.92933
55.7361 4.78947