File: XRD/Ni3Fe_FD0329.xy
TT I
1.27165 7.50598
1.45013 6.45809
1.62863 5.5138
1.80712 5.29962
1.98562 4.76301
2.16411 5.03777
2.34263 5.45649
2.52115 5.84395
2.69965 7.60253
2.87818 8.84198
3.05672 11.4068
3.23527 15.4988
3.4138 18.9517
3.59237 23.8638
3.77094 26.4902
3.9495 30.461
4.12809 35.1637
4.30669 177.656
4.4853 62.5887
4.6639 56.6984
4.84253 69.6711
5.02118 91.1484
5.19981 552.026
5.37848 229.062
5.55716 106.218
5.73586 96.1015
5.91455 101.705
6.09328 4034.28
6.27201 86.3156
6.45075 69.5469
6.62952 64.001
6.8083 60.45
6.98711 56.9139
7.16591 56.3475
7.34475 84.7083
7.5236 55.9619
7.70247 57.8234
7.88135 59.2861
8.06026 63.9322
8.23919 71.5825
8.41812 88.9307
8.59709 1154.91
8.77609 105.204
8.9551 93.2134
9.13412 84.6235
9.31318 85.7658
9.49226 87.4974
9.67134 99.5409
9.85047 103.285
10.0296 420.134
10.2088 493.993
10.388 109.439
10.5672 482.049
10.7465 89.7983
10.9257 80.3618
11.105 73.7549
11.2844 71.8996
11.4637 66.7581
11.6431 65.5673
11.8225 64.1789
12.002 65.92
12.1814 149.165
12.3609 72.1536
12.5405 66.3725
12.72 71.0515
12.8996 73.2196
13.0792 82.2795
13.2589 242.066
13.4386 133.947
13.6183 239.399
13.7981 103.106
13.9779 78.1443
14.1577 74.5041
14.3376 73.2792
14.5175 71.1418
14.6974 72.7206
14.8774 117.812
15.0574 157.854
15.2374 72.5561
15.4175 68.4552
15.5976 67.9779
15.7778 101.397
15.958 166.308
16.1382 64.0801
16.3185 60.2332
16.4988 57.1137
16.6792 56.1065
16.8596 56.8345
17.04 57.716
17.2205 68.9121
17.401 74.4362
17.5815 60.9572
17.7622 63.3949
17.9428 78.4145
18.1237 139.69
18.3044 91.5526
18.4852 80.7225
18.666 62.2916
18.8469 59.7183
19.0278 58.7644
19.2088 61.9768
19.3898 77.3617
19.5709 55.9234
19.752 55.1654
19.9332 58.501
20.1144 71.3219
20.2957 64.365
20.477 55.7201
20.6586 51.221
20.84 50.2827
21.0215 50.0638
21.203 52.148
21.3846 50.6008
21.5662 50.679
21.7479 54.5054
21.9297 66.4266
22.1115 57.2361
22.2933 51.6006
22.4753 50.32
22.6572 50.5948
22.8393 53.6429
23.0214 59.221
23.2037 50.3709
23.3859 51.6347
23.5682 57.5312
23.7505 50.0241
23.9329 46.7005
24.1154 45.5774
24.2979 44.744
24.4805 44.1725
24.6631 44.0822
24.8458 43.5309
25.0286 44.2328
25.2114 46.1162
25.3943 46.0971
25.5773 42.217
25.7605 41.723
25.9436 42.1383
26.1268 42.9604
26.31 41.4061
26.4933 41.976
26.6767 43.4457
26.8601 41.6027
27.0437 40.1703
27.2272 39.8668
27.4109 39.5694
27.5946 39.5631
27.7784 39.0609
27.9623 39.4956
28.1462 40.0711
28.3304 38.3999
28.5145 37.1085
28.6987 36.7251
28.8829 36.4786
29.0673 35.7233
29.2517 35.3478
29.4361 35.1318
29.6207 34.1381
29.8053 33.8824
29.99 33.6294
30.1748 33.4694
30.3597 33.3574
30.5447 33.2397
30.7297 33.2228
30.915 32.6159
31.1002 32.1265
31.2855 31.7811
31.4708 31.7736
31.6563 31.2288
31.8418 31.0684
32.0275 30.8195
32.2132 30.2946
32.399 29.8054
32.5848 29.4034
32.7708 29.0576
32.9569 28.8725
33.143 28.6413
33.3293 28.3106
33.5158 27.9145
33.7022 27.4058
33.8887 27.1581
34.0753 26.847
34.262 26.4413
34.4488 26.0415
34.6357 25.7664
34.8227 25.4446
35.0098 25.273
35.1969 24.9754
35.3842 24.7057
35.5716 24.4514
35.759 24.1833
35.9468 23.7936
36.1345 23.6295
36.3222 23.3125
36.5101 23.048
36.6981 22.827
36.8861 22.4251
37.0743 22.1414
37.2626 21.9418
37.451 21.5755
37.6395 21.4744
37.8281 21.092
38.0168 20.8608
38.2056 20.4754
38.3945 20.2844
38.5837 20.0303
38.7728 19.7678
38.9621 19.5655
39.1514 19.2874
39.3409 19.0518
39.5304 18.7903
39.7201 18.5929
39.9099 18.3772
40.0999 18.091
40.2899 17.9093
40.48 17.5893
40.6703 17.3635
40.8607 17.2839
41.0512 16.9809
41.242 16.7012
41.4327 16.569
41.6236 16.262
41.8146 16.1023
42.0057 15.8818
42.1969 15.6566
42.3882 15.4844
42.5797 15.2835
42.7713 15.0527
42.963 14.8625
43.1549 14.6686
43.3468 14.4017
43.5389 14.2139
43.7312 14.0494
43.9237 13.8422
44.1162 13.6754
44.3088 13.4532
44.5016 13.3101
44.6945 13.1098
44.8875 12.9225
45.0806 12.7105
45.2739 12.5303
45.4673 12.3775
45.6609 12.2211
45.8546 12.0721
46.0484 11.8991
46.2424 11.6682
46.4365 11.5082
46.631 11.3194
46.8254 11.1732
47.0199 11.0299
47.2146 10.8629
47.4095 10.6815
47.6044 10.5051
47.7996 10.3639
47.9948 10.1999
48.1902 10.0922
48.3858 9.94787
48.5815 9.79437
48.7774 9.65366
48.9734 9.52875
49.1696 9.37747
49.3661 9.24215
49.5626 9.10407
49.7592 8.94562
49.956 8.82022
50.153 8.68548
50.3501 8.54344
50.5474 8.41462
50.7448 8.2938
50.9424 8.14397
51.1402 7.99983
51.3381 7.89228
51.5362 7.79287
51.7344 7.62603
51.9328 7.51092
52.1316 7.37874
52.3304 7.27438
52.5293 7.15704
52.7284 7.06792
52.9276 6.90126
53.1271 6.80006
53.3267 6.65807
53.5265 6.55983
53.7264 6.44667
53.9266 6.33921
54.1269 6.21836
54.3274 6.11237
54.528 5.9562
54.7289 5.79042
54.9301 5.61771
55.1314 5.49896
55.3328 5.29322
55.5344 5.12295
55.7361 4.91762