File: XRD/Ni3Fe_FD0057.xy
TT I
1.27165 32.8003
1.45013 26.3666
1.62863 22.8372
1.80712 20.7294
1.98562 21.0045
2.16411 20.0982
2.34263 20.6276
2.52115 21.7268
2.69965 25.8051
2.87818 36.1383
3.05672 64.0921
3.23527 65.8685
3.4138 33.6966
3.59237 26.4301
3.77094 25.886
3.9495 27.1342
4.12809 29.4288
4.30669 37.3049
4.4853 37.657
4.6639 43.2284
4.84253 55.9975
5.02118 105.125
5.19981 324.897
5.37848 2964.8
5.55716 149.177
5.73586 104.113
5.91455 120.874
6.09328 592.559
6.27201 208.564
6.45075 64.3601
6.62952 48.0901
6.8083 42.1517
6.98711 41.6047
7.16591 43.273
7.34475 39.852
7.5236 62.7467
7.70247 44.0995
7.88135 39.2703
8.06026 41.5874
8.23919 47.2504
8.41812 60.3478
8.59709 191.612
8.77609 333.597
8.9551 74.7249
9.13412 65.8054
9.31318 312.826
9.49226 59.8277
9.67134 58.5469
9.85047 64.7135
10.0296 125.257
10.2088 698.84
10.388 97.8981
10.5672 100.537
10.7465 185.313
10.9257 52.1936
11.105 45.6151
11.2844 43.4042
11.4637 40.4975
11.6431 39.8745
11.8225 40.525
12.002 116.805
12.1814 51.1406
12.3609 82.132
12.5405 42.6276
12.72 40.6904
12.8996 42.1802
13.0792 49.2306
13.2589 69.6885
13.4386 188.922
13.6183 79.813
13.7981 178.964
13.9779 54.6552
14.1577 68.2622
14.3376 46.9721
14.5175 42.6355
14.6974 42.2999
14.8774 49.7489
15.0574 80.6478
15.2374 57.98
15.4175 42.6041
15.5976 41.3376
15.7778 46.426
15.958 66.9577
16.1382 75.3566
16.3185 38.4447
16.4988 35.3345
16.6792 34.3037
16.8596 34.4418
17.04 41.4978
17.2205 36.2855
17.401 41.6706
17.5815 39.0545
17.7622 38.7662
17.9428 41.5302
18.1237 46.484
18.3044 77.4493
18.4852 56.8041
18.666 47.5089
18.8469 37.2546
19.0278 35.9358
19.2088 36.1261
19.3898 47.5328
19.5709 43.6963
19.752 34.4208
19.9332 33.7826
20.1144 34.5555
20.2957 41.8533
20.477 39.3985
20.6586 33.2786
20.84 35.1163
21.0215 30.6025
21.203 30.2903
21.3846 31.6091
21.5662 31.601
21.7479 31.1386
21.9297 32.6483
22.1115 40.3684
22.2933 36.7904
22.4753 31.7445
22.6572 30.6962
22.8393 32.1402
23.0214 32.0746
23.2037 36.5012
23.3859 31.8009
23.5682 33.0125
23.7505 35.929
23.9329 31.2095
24.1154 29.5102
24.2979 28.1466
24.4805 27.5549
24.6631 27.8857
24.8458 27.546
25.0286 26.9879
25.2114 27.2284
25.3943 28.4734
25.5773 28.9568
25.7605 26.5757
25.9436 26.7012
26.1268 26.0387
26.31 26.9069
26.4933 26.0773
26.6767 25.9079
26.8601 27.4494
27.0437 27.2268
27.2272 25.5254
27.4109 24.9825
27.5946 24.9718
27.7784 24.9668
27.9623 24.455
28.1462 25.2228
28.3304 25.3735
28.5145 24.5605
28.6987 23.5669
28.8829 23.0829
29.0673 22.8627
29.2517 22.6417
29.4361 22.074
29.6207 22.0939
29.8053 21.5847
29.99 21.3424
30.1748 21.4723
30.3597 20.9977
30.5447 21.0719
30.7297 20.8608
30.915 21.1111
31.1002 21.0402
31.2855 20.4241
31.4708 20.1785
31.6563 20.3211
31.8418 20.1759
32.0275 19.8244
32.2132 19.8387
32.399 19.5214
32.5848 19.1037
32.7708 18.7741
32.9569 18.7405
33.143 18.4592
33.3293 18.2001
33.5158 18.2496
33.7022 17.8438
33.8887 17.5438
34.0753 17.3991
34.262 17.1282
34.4488 16.9279
34.6357 16.6954
34.8227 16.5341
35.0098 16.3537
35.1969 16.179
35.3842 16.0288
35.5716 15.8878
35.759 15.925
35.9468 15.5711
36.1345 15.3516
36.3222 15.2779
36.5101 15.0862
36.6981 14.9156
36.8861 14.7439
37.0743 14.5503
37.2626 14.3102
37.451 14.1475
37.6395 14.0913
37.8281 13.8612
38.0168 13.6938
38.2056 13.5346
38.3945 13.3137
38.5837 13.1607
38.7728 13.0349
38.9621 12.8333
39.1514 12.7081
39.3409 12.4837
39.5304 12.3774
39.7201 12.3095
39.9099 12.1551
40.0999 11.995
40.2899 11.8197
40.48 11.6941
40.6703 11.5561
40.8607 11.4218
41.0512 11.2863
41.242 11.1489
41.4327 10.9582
41.6236 10.8826
41.8146 10.7028
42.0057 10.6082
42.1969 10.4685
42.3882 10.3586
42.5797 10.1891
42.7713 10.0848
42.963 9.88386
43.1549 9.82847
43.3468 9.66564
43.5389 9.50634
43.7312 9.36014
43.9237 9.29388
44.1162 9.13716
44.3088 9.03482
44.5016 8.87286
44.6945 8.86051
44.8875 8.65652
45.0806 8.57837
45.2739 8.44619
45.4673 8.34668
45.6609 8.22924
45.8546 8.12282
46.0484 8.00683
46.2424 7.88046
46.4365 7.78921
46.631 7.64885
46.8254 7.56844
47.0199 7.45702
47.2146 7.36304
47.4095 7.2492
47.6044 7.14371
47.7996 7.05231
47.9948 6.93638
48.1902 6.83785
48.3858 6.76853
48.5815 6.65382
48.7774 6.59212
48.9734 6.50036
49.1696 6.37465
49.3661 6.2871
49.5626 6.18898
49.7592 6.10611
49.956 6.02719
50.153 5.89918
50.3501 5.85368
50.5474 5.78132
50.7448 5.70515
50.9424 5.578
51.1402 5.51401
51.3381 5.43875
51.5362 5.35364
51.7344 5.26076
51.9328 5.20109
52.1316 5.09464
52.3304 5.03907
52.5293 4.95465
52.7284 4.86096
52.9276 4.80075
53.1271 4.71079
53.3267 4.6774
53.5265 4.58087
53.7264 4.52113
53.9266 4.42928
54.1269 4.29953
54.3274 4.24384
54.528 4.07718
54.7289 3.98866
54.9301 3.81438
55.1314 3.74382
55.3328 3.52321
55.5344 3.43503
55.7361 3.35345