File: XRD/Ni3Fe_FD1005.xy
TT I
1.27165 7.00816
1.45013 5.9695
1.62863 5.09972
1.80712 4.63949
1.98562 4.52948
2.16411 4.83922
2.34263 5.63356
2.52115 7.89448
2.69965 8.74764
2.87818 8.94948
3.05672 11.4039
3.23527 15.5314
3.4138 18.8507
3.59237 23.9349
3.77094 26.0487
3.9495 29.3203
4.12809 34.0343
4.30669 281.944
4.4853 70.0837
4.6639 53.1896
4.84253 64.4176
5.02118 82.2417
5.19981 256.379
5.37848 174.496
5.55716 96.9823
5.73586 88.0847
5.91455 87.9558
6.09328 4423.87
6.27201 79.9956
6.45075 65.2143
6.62952 61.1226
6.8083 57.2601
6.98711 53.8827
7.16591 53.9965
7.34475 107.843
7.5236 53.2078
7.70247 54.5001
7.88135 55.7564
8.06026 60.2303
8.23919 67.11
8.41812 81.0444
8.59709 1006.59
8.77609 95.7372
8.9551 90.4385
9.13412 78.831
9.31318 79.3664
9.49226 80.9522
9.67134 97.4849
9.85047 95.2826
10.0296 264.17
10.2088 412.218
10.388 101.258
10.5672 511.961
10.7465 83.1263
10.9257 75.7471
11.105 69.4366
11.2844 69.2724
11.4637 62.5079
11.6431 61.703
11.8225 60.2953
12.002 60.9453
12.1814 143.612
12.3609 71.1606
12.5405 62.2773
12.72 69.9521
12.8996 68.0856
13.0792 75.2051
13.2589 211.792
13.4386 124.519
13.6183 226.852
13.7981 96.7439
13.9779 73.0495
14.1577 70.2106
14.3376 69.8567
14.5175 66.1601
14.6974 68.0947
14.8774 99.3928
15.0574 156.136
15.2374 69.2056
15.4175 63.9964
15.5976 63.4259
15.7778 86.5541
15.958 164.796
16.1382 61.8884
16.3185 56.8136
16.4988 53.8984
16.6792 52.7887
16.8596 53.5078
17.04 53.8567
17.2205 63.5458
17.401 70.1595
17.5815 57.2681
17.7622 59.1646
17.9428 69.0259
18.1237 139.507
18.3044 86.2906
18.4852 77.7395
18.666 58.8249
18.8469 56.2706
19.0278 55.1512
19.2088 57.1603
19.3898 75.8239
19.5709 52.8627
19.752 51.5343
19.9332 54.2015
20.1144 68.9954
20.2957 62.6275
20.477 52.638
20.6586 48.1862
20.84 47.565
21.0215 46.8543
21.203 49.3613
21.3846 47.6765
21.5662 47.2222
21.7479 50.5001
21.9297 63.8513
22.1115 55.1016
22.2933 48.7238
22.4753 47.7636
22.6572 47.2512
22.8393 50.0501
23.0214 56.9631
23.2037 47.5523
23.3859 48.0959
23.5682 56.2615
23.7505 47.5744
23.9329 44.0032
24.1154 42.9589
24.2979 42.2241
24.4805 41.6292
24.6631 41.7448
24.8458 41.0627
25.0286 41.5872
25.2114 43.5852
25.3943 43.9465
25.5773 40.0096
25.7605 39.2883
25.9436 39.7676
26.1268 40.9424
26.31 39.1272
26.4933 39.7906
26.6767 41.3075
26.8601 39.7308
27.0437 37.9643
27.2272 37.4965
27.4109 37.4292
27.5946 37.5109
27.7784 36.986
27.9623 37.4322
28.1462 38.0264
28.3304 36.4719
28.5145 35.0701
28.6987 34.7727
28.8829 34.6677
29.0673 33.9348
29.2517 33.4601
29.4361 33.3992
29.6207 32.4138
29.8053 32.0583
29.99 31.7666
30.1748 31.691
30.3597 31.5314
30.5447 31.3442
30.7297 31.4296
30.915 30.8969
31.1002 30.339
31.2855 30.133
31.4708 30.1126
31.6563 29.5922
31.8418 29.4011
32.0275 29.2387
32.2132 28.6453
32.399 28.2206
32.5848 27.9119
32.7708 27.5332
32.9569 27.3184
33.143 27.2145
33.3293 26.6863
33.5158 26.4111
33.7022 26.0404
33.8887 25.6608
34.0753 25.3934
34.262 25.1038
34.4488 24.7331
34.6357 24.4109
34.8227 24.1628
35.0098 23.9498
35.1969 23.6699
35.3842 23.4624
35.5716 23.2573
35.759 22.901
35.9468 22.5935
36.1345 22.4002
36.3222 22.1567
36.5101 21.8605
36.6981 21.6016
36.8861 21.3105
37.0743 21.027
37.2626 20.7694
37.451 20.4914
37.6395 20.4131
37.8281 19.9992
38.0168 19.7445
38.2056 19.5759
38.3945 19.2466
38.5837 18.9852
38.7728 18.783
38.9621 18.5335
39.1514 18.3349
39.3409 18.0736
39.5304 17.7983
39.7201 17.6171
39.9099 17.4041
40.0999 17.2131
40.2899 17.0024
40.48 16.7136
40.6703 16.5277
40.8607 16.3858
41.0512 16.084
41.242 15.8862
41.4327 15.7562
41.6236 15.504
41.8146 15.316
42.0057 15.16
42.1969 14.8907
42.3882 14.7445
42.5797 14.4833
42.7713 14.3441
42.963 14.158
43.1549 13.9185
43.3468 13.7741
43.5389 13.5479
43.7312 13.3704
43.9237 13.1954
44.1162 12.9817
44.3088 12.7672
44.5016 12.638
44.6945 12.4836
44.8875 12.2765
45.0806 12.1197
45.2739 11.9481
45.4673 11.8077
45.6609 11.5915
45.8546 11.419
46.0484 11.3069
46.2424 11.1406
46.4365 11.0049
46.631 10.7769
46.8254 10.6174
47.0199 10.5069
47.2146 10.3622
47.4095 10.1906
47.6044 10.0203
47.7996 9.90949
47.9948 9.71445
48.1902 9.61054
48.3858 9.48756
48.5815 9.35889
48.7774 9.17486
48.9734 9.08577
49.1696 8.9334
49.3661 8.77419
49.5626 8.63951
49.7592 8.51549
49.956 8.38532
50.153 8.28529
50.3501 8.1078
50.5474 7.99574
50.7448 7.88196
50.9424 7.76636
51.1402 7.64349
51.3381 7.527
51.5362 7.41512
51.7344 7.26995
51.9328 7.16041
52.1316 7.02695
52.3304 6.92376
52.5293 6.79733
52.7284 6.66472
52.9276 6.62695
53.1271 6.5304
53.3267 6.40718
53.5265 6.2635
53.7264 6.15538
53.9266 6.08195
54.1269 5.92605
54.3274 5.83807
54.528 5.66787
54.7289 5.53055
54.9301 5.40741
55.1314 5.2322
55.3328 5.03702
55.5344 4.84483
55.7361 4.76193