File: XRD/Ni3Fe_FD0113.xy
TT I
1.27165 8.32155
1.45013 6.95549
1.62863 6.02183
1.80712 5.20927
1.98562 5.1466
2.16411 4.77641
2.34263 4.34904
2.52115 4.03652
2.69965 5.19805
2.87818 6.97039
3.05672 10.9423
3.23527 15.1225
3.4138 18.5308
3.59237 21.6531
3.77094 24.7809
3.9495 28.1986
4.12809 32.1898
4.30669 37.277
4.4853 44.2861
4.6639 53.8055
4.84253 66.3656
5.02118 92.1808
5.19981 622.705
5.37848 562.49
5.55716 109.225
5.73586 96.9298
5.91455 108.493
6.09328 2418.67
6.27201 92.5782
6.45075 66.5025
6.62952 59.4495
6.8083 55.2795
6.98711 52.8425
7.16591 51.9867
7.34475 51.5963
7.5236 57.2197
7.70247 53.5242
7.88135 55.9102
8.06026 60.2845
8.23919 67.7392
8.41812 83.6374
8.59709 812.217
8.77609 122.222
8.9551 85.1586
9.13412 81.1021
9.31318 90.2409
9.49226 82.9241
9.67134 88.2623
9.85047 98.4469
10.0296 572.758
10.2088 1099.95
10.388 104.651
10.5672 292.435
10.7465 92.5355
10.9257 75.1296
11.105 69.5293
11.2844 65.5539
11.4637 62.9843
11.6431 61.9338
11.8225 60.6967
12.002 67.0931
12.1814 109.728
12.3609 78.3932
12.5405 62.7823
12.72 64.4147
12.8996 69.0469
13.0792 78.9123
13.2589 192.721
13.4386 230.584
13.6183 177.86
13.7981 168.754
13.9779 75.3668
14.1577 75.13
14.3376 68.5764
14.5175 67.8546
14.6974 69.2373
14.8774 120.081
15.0574 205.721
15.2374 68.5391
15.4175 65.7624
15.5976 65.0797
15.7778 107.238
15.958 181.719
16.1382 61.9549
16.3185 56.8894
16.4988 54.3745
16.6792 53.4394
16.8596 53.7013
17.04 54.8004
17.2205 63.9642
17.401 81.106
17.5815 58.5724
17.7622 61.0132
17.9428 84.7049
18.1237 106.541
18.3044 86.9658
18.4852 97.1209
18.666 60.521
18.8469 57.4539
19.0278 56.228
19.2088 61.5706
19.3898 66.8218
19.5709 56.6808
19.752 52.8048
19.9332 57.682
20.1144 64.8456
20.2957 60.0984
20.477 59.6459
20.6586 49.434
20.84 48.6721
21.0215 48.6065
21.203 49.0187
21.3846 50.3227
21.5662 48.4557
21.7479 53.5811
21.9297 60.3086
22.1115 55.6424
22.2933 52.6265
22.4753 48.4163
22.6572 48.5937
22.8393 51.2683
23.0214 55.7251
23.2037 49.7913
23.3859 51.5194
23.5682 52.2717
23.7505 53.8517
23.9329 45.4156
24.1154 44.038
24.2979 43.2469
24.4805 42.6194
24.6631 42.7594
24.8458 42.1297
25.0286 42.6111
25.2114 43.9669
25.3943 44.0936
25.5773 41.6011
25.7605 40.5181
25.9436 40.6376
26.1268 41.0741
26.31 40.6575
26.4933 40.397
26.6767 41.3811
26.8601 40.9523
27.0437 39.2125
27.2272 38.5937
27.4109 38.2782
27.5946 38.2856
27.7784 38.3379
27.9623 38.0754
28.1462 38.9109
28.3304 37.6643
28.5145 36.0528
28.6987 35.5802
28.8829 35.1411
29.0673 34.8778
29.2517 34.2851
29.4361 33.9792
29.6207 33.3646
29.8053 32.787
29.99 32.4274
30.1748 32.2472
30.3597 32.412
30.5447 32.0396
30.7297 31.8707
30.915 31.8002
31.1002 31.1905
31.2855 30.8008
31.4708 30.6911
31.6563 30.5324
31.8418 30.1102
32.0275 29.9495
32.2132 29.5115
32.399 28.9222
32.5848 28.4495
32.7708 28.0467
32.9569 27.9023
33.143 27.5774
33.3293 27.3632
33.5158 27.0234
33.7022 26.5858
33.8887 26.2558
34.0753 25.9267
34.262 25.4905
34.4488 25.2115
34.6357 24.9474
34.8227 24.6614
35.0098 24.3705
35.1969 24.1917
35.3842 23.8852
35.5716 23.7311
35.759 23.4772
35.9468 23.0459
36.1345 22.8027
36.3222 22.6043
36.5101 22.3052
36.6981 22.0438
36.8861 21.8138
37.0743 21.3977
37.2626 21.2086
37.451 20.9154
37.6395 20.7393
37.8281 20.4564
38.0168 20.1199
38.2056 19.8789
38.3945 19.641
38.5837 19.3832
38.7728 19.1063
38.9621 18.9027
39.1514 18.6465
39.3409 18.4126
39.5304 18.2477
39.7201 18.0509
39.9099 17.7928
40.0999 17.5367
40.2899 17.2798
40.48 17.0351
40.6703 16.8664
40.8607 16.6876
41.0512 16.4093
41.242 16.2068
41.4327 16.0132
41.6236 15.799
41.8146 15.595
42.0057 15.3874
42.1969 15.21
42.3882 14.9761
42.5797 14.7853
42.7713 14.617
42.963 14.3975
43.1549 14.2216
43.3468 13.9818
43.5389 13.8267
43.7312 13.5642
43.9237 13.4108
44.1162 13.2168
44.3088 13.0692
44.5016 12.8601
44.6945 12.6964
44.8875 12.488
45.0806 12.3112
45.2739 12.16
45.4673 11.9949
45.6609 11.8304
45.8546 11.6543
46.0484 11.4792
46.2424 11.3151
46.4365 11.1617
46.631 10.9717
46.8254 10.8474
47.0199 10.6779
47.2146 10.5608
47.4095 10.3584
47.6044 10.2178
47.7996 10.0493
47.9948 9.87631
48.1902 9.76389
48.3858 9.65659
48.5815 9.48499
48.7774 9.36924
48.9734 9.2409
49.1696 9.07834
49.3661 8.92209
49.5626 8.78352
49.7592 8.67888
49.956 8.60766
50.153 8.44078
50.3501 8.298
50.5474 8.1688
50.7448 8.02517
50.9424 7.90879
51.1402 7.77882
51.3381 7.67279
51.5362 7.52525
51.7344 7.39711
51.9328 7.28875
52.1316 7.16213
52.3304 7.05957
52.5293 6.93617
52.7284 6.82341
52.9276 6.72558
53.1271 6.61641
53.3267 6.50414
53.5265 6.38152
53.7264 6.24354
53.9266 6.14075
54.1269 6.02173
54.3274 5.90753
54.528 5.7571
54.7289 5.54149
54.9301 5.376
55.1314 5.25076
55.3328 5.00908
55.5344 4.82298
55.7361 4.724