File: XRD/Ni3Fe_FD0550.xy
TT I
1.27165 7.19315
1.45013 6.11506
1.62863 5.42278
1.80712 5.19566
1.98562 4.93549
2.16411 5.26551
2.34263 5.44966
2.52115 6.37858
2.69965 8.04154
2.87818 8.42185
3.05672 11.333
3.23527 14.6523
3.4138 19.0386
3.59237 23.8975
3.77094 26.1189
3.9495 30.225
4.12809 34.8819
4.30669 187.653
4.4853 62.6342
4.6639 55.7403
4.84253 67.7505
5.02118 87.8482
5.19981 390.014
5.37848 196.014
5.55716 102.491
5.73586 92.6758
5.91455 96.2333
6.09328 4391.94
6.27201 83.701
6.45075 67.3977
6.62952 63.202
6.8083 58.6388
6.98711 55.9509
7.16591 55.5029
7.34475 86.7392
7.5236 55.1602
7.70247 56.4963
7.88135 57.9186
8.06026 62.8296
8.23919 69.8652
8.41812 85.8953
8.59709 1215.88
8.77609 100.301
8.9551 91.1414
9.13412 81.9625
9.31318 83.0198
9.49226 85.0166
9.67134 97.7796
9.85047 100.6
10.0296 363.851
10.2088 395.951
10.388 105.374
10.5672 511.076
10.7465 86.4895
10.9257 78.3892
11.105 72.1975
11.2844 70.5018
11.4637 65.4619
11.6431 63.7103
11.8225 62.7502
12.002 64.1783
12.1814 153.407
12.3609 70.1304
12.5405 64.8662
12.72 70.2628
12.8996 71.3927
13.0792 79.6031
13.2589 244.079
13.4386 122.363
13.6183 251.85
13.7981 97.0961
13.9779 76.2216
14.1577 72.7966
14.3376 71.7217
14.5175 69.394
14.6974 70.8731
14.8774 112.798
15.0574 148.666
15.2374 71.1648
15.4175 66.8728
15.5976 66.2739
15.7778 97.3713
15.958 155.53
16.1382 62.9102
16.3185 58.8921
16.4988 55.8656
16.6792 54.9681
16.8596 55.6558
17.04 56.0889
17.2205 67.548
17.401 71.5135
17.5815 59.5283
17.7622 61.6737
17.9428 74.9606
18.1237 141.534
18.3044 90.9751
18.4852 77.6214
18.666 60.8511
18.8469 58.4111
19.0278 57.0745
19.2088 59.9233
19.3898 77.2501
19.5709 54.5027
19.752 53.6018
19.9332 56.7296
20.1144 70.743
20.2957 64.4799
20.477 53.7338
20.6586 49.9996
20.84 49.1305
21.0215 48.8922
21.203 51.2487
21.3846 49.1519
21.5662 49.0592
21.7479 53.1427
21.9297 65.1985
22.1115 56.3581
22.2933 50.2091
22.4753 49.2706
22.6572 49.1301
22.8393 52.3902
23.0214 57.6065
23.2037 49.0183
23.3859 50.2236
23.5682 57.3955
23.7505 48.4265
23.9329 45.4506
24.1154 44.3961
24.2979 43.8069
24.4805 43.1533
24.6631 43.061
24.8458 42.4583
25.0286 43.1514
25.2114 44.9179
25.3943 44.8705
25.5773 41.1773
25.7605 40.7648
25.9436 41.2062
26.1268 42.1001
26.31 40.4719
26.4933 40.9434
26.6767 42.4948
26.8601 40.7432
27.0437 39.1124
27.2272 38.7244
27.4109 38.6929
27.5946 38.603
27.7784 38.1454
27.9623 38.8165
28.1462 39.1423
28.3304 37.4538
28.5145 36.2317
28.6987 35.8785
28.8829 35.6555
29.0673 34.971
29.2517 34.5745
29.4361 34.3638
29.6207 33.4606
29.8053 33.1079
29.99 32.7861
30.1748 32.5369
30.3597 32.446
30.5447 32.3395
30.7297 32.3698
30.915 31.8873
31.1002 31.2866
31.2855 31.0806
31.4708 31.0935
31.6563 30.551
31.8418 30.3811
32.0275 30.1686
32.2132 29.6826
32.399 29.0564
32.5848 28.6756
32.7708 28.3823
32.9569 28.2742
33.143 28.0302
33.3293 27.5345
33.5158 27.2344
33.7022 26.7702
33.8887 26.4968
34.0753 26.2123
34.262 25.8494
34.4488 25.4735
34.6357 25.1606
34.8227 24.8826
35.0098 24.6946
35.1969 24.3563
35.3842 24.1295
35.5716 23.9549
35.759 23.625
35.9468 23.2472
36.1345 23.0421
36.3222 22.7982
36.5101 22.5577
36.6981 22.2937
36.8861 21.9765
37.0743 21.6928
37.2626 21.4197
37.451 21.1374
37.6395 20.9969
37.8281 20.6577
38.0168 20.3942
38.2056 20.0588
38.3945 19.8616
38.5837 19.5815
38.7728 19.3205
38.9621 19.0807
39.1514 18.8677
39.3409 18.5741
39.5304 18.3972
39.7201 18.1778
39.9099 17.9768
40.0999 17.6379
40.2899 17.4935
40.48 17.2472
40.6703 17.0266
40.8607 16.842
41.0512 16.6376
41.242 16.3816
41.4327 16.1704
41.6236 15.9541
41.8146 15.814
42.0057 15.4938
42.1969 15.3339
42.3882 15.1304
42.5797 14.9679
42.7713 14.7413
42.963 14.512
43.1549 14.2865
43.3468 14.1128
43.5389 13.9262
43.7312 13.7383
43.9237 13.6087
44.1162 13.3657
44.3088 13.1195
44.5016 12.9624
44.6945 12.808
44.8875 12.6354
45.0806 12.5009
45.2739 12.2281
45.4673 12.1344
45.6609 11.9164
45.8546 11.7859
46.0484 11.6083
46.2424 11.3954
46.4365 11.3086
46.631 11.1161
46.8254 10.9245
47.0199 10.7689
47.2146 10.6374
47.4095 10.4434
47.6044 10.2978
47.7996 10.1652
47.9948 9.9654
48.1902 9.85744
48.3858 9.73189
48.5815 9.54501
48.7774 9.46158
48.9734 9.31381
49.1696 9.15268
49.3661 9.05166
49.5626 8.86858
49.7592 8.752
49.956 8.60686
50.153 8.49322
50.3501 8.34901
50.5474 8.22313
50.7448 8.12763
50.9424 7.97171
51.1402 7.84234
51.3381 7.75668
51.5362 7.60335
51.7344 7.4736
51.9328 7.3607
52.1316 7.19619
52.3304 7.12052
52.5293 7.01344
52.7284 6.87033
52.9276 6.75941
53.1271 6.68624
53.3267 6.53907
53.5265 6.3888
53.7264 6.37625
53.9266 6.21333
54.1269 6.05322
54.3274 5.97941
54.528 5.8349
54.7289 5.69221
54.9301 5.51998
55.1314 5.37422
55.3328 5.22006
55.5344 4.98447
55.7361 4.90426