File: XRD/Ni3Fe_FD0063.xy
TT I
1.27165 31.6325
1.45013 25.3245
1.62863 21.691
1.80712 20.2665
1.98562 19.7035
2.16411 19.5468
2.34263 19.8722
2.52115 20.7863
2.69965 25.0374
2.87818 35.569
3.05672 62.1199
3.23527 61.8386
3.4138 32.5319
3.59237 26.2354
3.77094 25.6771
3.9495 26.7664
4.12809 29.5237
4.30669 37.7222
4.4853 37.6858
4.6639 43.7521
4.84253 56.4399
5.02118 106.099
5.19981 347.26
5.37848 2696.24
5.55716 147.002
5.73586 104.06
5.91455 122.615
6.09328 632.236
6.27201 193.58
6.45075 63.8434
6.62952 48.2313
6.8083 42.9138
6.98711 41.8685
7.16591 43.1945
7.34475 40.3564
7.5236 67.4737
7.70247 44.0295
7.88135 40.252
8.06026 42.1061
8.23919 48.1024
8.41812 62.1114
8.59709 204.059
8.77609 287.76
8.9551 74.27
9.13412 67.1671
9.31318 284.971
9.49226 60.8058
9.67134 59.9033
9.85047 66.6947
10.0296 137.011
10.2088 707.652
10.388 94.1879
10.5672 104.012
10.7465 166.141
10.9257 52.8316
11.105 46.7572
11.2844 43.9718
11.4637 41.6399
11.6431 41.1219
11.8225 41.4905
12.002 115.096
12.1814 51.8709
12.3609 77.6192
12.5405 42.8817
12.72 41.3974
12.8996 43.0588
13.0792 50.9179
13.2589 71.2468
13.4386 186.554
13.6183 79.0388
13.7981 170.137
13.9779 53.5808
14.1577 73.2819
14.3376 46.8086
14.5175 43.2309
14.6974 43.0954
14.8774 51.2883
15.0574 85.5351
15.2374 54.7734
15.4175 42.8574
15.5976 41.8933
15.7778 47.7694
15.958 70.3186
16.1382 68.4515
16.3185 38.6258
16.4988 35.7978
16.6792 34.7371
16.8596 34.8126
17.04 40.3587
17.2205 36.6268
17.401 42.9293
17.5815 38.6157
17.7622 39.6871
17.9428 41.7897
18.1237 47.3465
18.3044 70.9629
18.4852 57.4923
18.666 45.1243
18.8469 37.6531
19.0278 36.0944
19.2088 36.4978
19.3898 47.3829
19.5709 42.0403
19.752 34.4261
19.9332 34.0267
20.1144 34.9131
20.2957 40.6973
20.477 39.5039
20.6586 32.9096
20.84 35.2036
21.0215 30.82
21.203 30.6619
21.3846 31.8253
21.5662 31.5404
21.7479 31.3599
21.9297 32.7986
22.1115 39.0874
22.2933 35.8584
22.4753 31.434
22.6572 30.8286
22.8393 32.2103
23.0214 32.1128
23.2037 35.2198
23.3859 31.7654
23.5682 32.325
23.7505 35.7042
23.9329 30.7115
24.1154 29.3427
24.2979 28.1079
24.4805 27.6111
24.6631 28.1009
24.8458 27.4927
25.0286 27.1282
25.2114 27.1653
25.3943 28.2511
25.5773 28.3239
25.7605 26.3968
25.9436 26.3852
26.1268 25.894
26.31 26.6184
26.4933 25.9295
26.6767 25.7966
26.8601 27.1379
27.0437 26.6245
27.2272 25.1811
27.4109 24.7153
27.5946 24.7213
27.7784 24.846
27.9623 24.4701
28.1462 24.8715
28.3304 24.9925
28.5145 24.1061
28.6987 23.403
28.8829 22.8582
29.0673 22.7559
29.2517 22.4713
29.4361 21.9754
29.6207 21.9016
29.8053 21.5209
29.99 21.3319
30.1748 21.2333
30.3597 21.1045
30.5447 20.8334
30.7297 20.6768
30.915 20.9384
31.1002 20.8056
31.2855 20.25
31.4708 20.0712
31.6563 20.1355
31.8418 19.9111
32.0275 19.6616
32.2132 19.5995
32.399 19.2158
32.5848 18.9201
32.7708 18.6427
32.9569 18.5583
33.143 18.3408
33.3293 18.0873
33.5158 18.0788
33.7022 17.7115
33.8887 17.4915
34.0753 17.271
34.262 17.0604
34.4488 16.7925
34.6357 16.6483
34.8227 16.3705
35.0098 16.2553
35.1969 16.0665
35.3842 15.8642
35.5716 15.818
35.759 15.7538
35.9468 15.4366
36.1345 15.2725
36.3222 15.0592
36.5101 14.9825
36.6981 14.8208
36.8861 14.6173
37.0743 14.4314
37.2626 14.2571
37.451 14.0657
37.6395 13.9591
37.8281 13.7046
38.0168 13.5527
38.2056 13.4032
38.3945 13.2106
38.5837 13.051
38.7728 12.9302
38.9621 12.7228
39.1514 12.5832
39.3409 12.4138
39.5304 12.2568
39.7201 12.1923
39.9099 12.0955
40.0999 11.9035
40.2899 11.7482
40.48 11.5823
40.6703 11.4396
40.8607 11.3196
41.0512 11.1669
41.242 11.0316
41.4327 10.8873
41.6236 10.7871
41.8146 10.6586
42.0057 10.5605
42.1969 10.3525
42.3882 10.2396
42.5797 10.0586
42.7713 9.96347
42.963 9.82949
43.1549 9.68866
43.3468 9.54945
43.5389 9.46587
43.7312 9.331
43.9237 9.18034
44.1162 9.06984
44.3088 8.97093
44.5016 8.82689
44.6945 8.73087
44.8875 8.58733
45.0806 8.50612
45.2739 8.35792
45.4673 8.24175
45.6609 8.16437
45.8546 8.03012
46.0484 7.94368
46.2424 7.78306
46.4365 7.70489
46.631 7.591
46.8254 7.50617
47.0199 7.40929
47.2146 7.26731
47.4095 7.15693
47.6044 7.07034
47.7996 6.95365
47.9948 6.87483
48.1902 6.82017
48.3858 6.66789
48.5815 6.62226
48.7774 6.5138
48.9734 6.43875
49.1696 6.32728
49.3661 6.19815
49.5626 6.11032
49.7592 6.06638
49.956 5.98936
50.153 5.87877
50.3501 5.78671
50.5474 5.71562
50.7448 5.61364
50.9424 5.5554
51.1402 5.48369
51.3381 5.41719
51.5362 5.27832
51.7344 5.20872
51.9328 5.13265
52.1316 5.01955
52.3304 4.98242
52.5293 4.91791
52.7284 4.86042
52.9276 4.75235
53.1271 4.65657
53.3267 4.60054
53.5265 4.52893
53.7264 4.42507
53.9266 4.33906
54.1269 4.27603
54.3274 4.14625
54.528 4.07258
54.7289 3.91217
54.9301 3.76029
55.1314 3.68518
55.3328 3.50817
55.5344 3.42083
55.7361 3.32277