File: XRD/Ni3Fe_FD0170.xy
TT I
1.27165 8.36844
1.45013 6.57936
1.62863 5.82948
1.80712 4.72241
1.98562 5.15498
2.16411 4.93391
2.34263 4.16753
2.52115 4.67819
2.69965 4.59193
2.87818 8.4665
3.05672 11.48
3.23527 15.3615
3.4138 18.7758
3.59237 21.4967
3.77094 24.8995
3.9495 29.143
4.12809 32.8622
4.30669 37.9293
4.4853 45.2943
4.6639 54.3437
4.84253 66.5131
5.02118 90.3491
5.19981 528.615
5.37848 415.427
5.55716 107.121
5.73586 95.5102
5.91455 104.459
6.09328 2860.85
6.27201 88.6144
6.45075 66.6643
6.62952 60.1297
6.8083 55.9183
6.98711 53.938
7.16591 52.3736
7.34475 52.4549
7.5236 55.7938
7.70247 54.4401
7.88135 56.5852
8.06026 60.8667
8.23919 68.0294
8.41812 84.0205
8.59709 908.39
8.77609 115.875
8.9551 85.4773
9.13412 81.7306
9.31318 85.9731
9.49226 83.7534
9.67134 88.7039
9.85047 99.3446
10.0296 537.817
10.2088 958.456
10.388 104.587
10.5672 343.129
10.7465 90.7605
10.9257 75.9359
11.105 70.2982
11.2844 66.489
11.4637 63.7809
11.6431 62.2354
11.8225 61.6066
12.002 65.0888
12.1814 120.66
12.3609 74.9201
12.5405 63.2102
12.72 65.3351
12.8996 69.9556
13.0792 79.4606
13.2589 208.756
13.4386 205.653
13.6183 197.696
13.7981 150.031
13.9779 76.2826
14.1577 74.3923
14.3376 69.6201
14.5175 68.655
14.6974 70.0651
14.8774 121.771
15.0574 205.599
15.2374 69.3897
15.4175 66.3773
15.5976 66.1032
15.7778 107.465
15.958 186.829
16.1382 61.8121
16.3185 57.6177
16.4988 55.3713
16.6792 54.1775
16.8596 54.3369
17.04 55.4184
17.2205 65.8156
17.401 81.3281
17.5815 59.1869
17.7622 61.5726
17.9428 83.8239
18.1237 117.485
18.3044 88.9391
18.4852 94.9444
18.666 61.2665
18.8469 58.404
19.0278 56.9345
19.2088 61.9131
19.3898 70.0204
19.5709 56.6413
19.752 53.6155
19.9332 58.3438
20.1144 68.0394
20.2957 61.5598
20.477 59.0092
20.6586 50.1657
20.84 49.2236
21.0215 49.33
21.203 50.0482
21.3846 50.7886
21.5662 49.2781
21.7479 54.3493
21.9297 62.909
22.1115 56.8028
22.2933 52.6566
22.4753 49.0929
22.6572 49.3927
22.8393 52.4464
23.0214 57.7667
23.2037 50.1949
23.3859 51.9156
23.5682 54.1687
23.7505 53.1595
23.9329 45.9395
24.1154 44.6621
24.2979 43.8528
24.4805 43.3346
24.6631 43.4753
24.8458 42.78
25.0286 43.361
25.2114 45.0005
25.3943 45.4003
25.5773 42.0634
25.7605 41.0441
25.9436 41.4084
26.1268 42.0054
26.31 41.1459
26.4933 41.2222
26.6767 42.4975
26.8601 41.5706
27.0437 39.7631
27.2272 39.1086
27.4109 38.7607
27.5946 38.9831
27.7784 38.7295
27.9623 38.9255
28.1462 39.7606
28.3304 38.34
28.5145 36.5764
28.6987 36.1728
28.8829 35.8256
29.0673 35.4223
29.2517 34.7915
29.4361 34.4837
29.6207 33.8226
29.8053 33.3569
29.99 33.0557
30.1748 32.8634
30.3597 32.9732
30.5447 32.646
30.7297 32.5896
30.915 32.3404
31.1002 31.6235
31.2855 31.4054
31.4708 31.2434
31.6563 31.1194
31.8418 30.6358
32.0275 30.4873
32.2132 29.9943
32.399 29.3975
32.5848 28.9155
32.7708 28.6496
32.9569 28.4401
33.143 28.1959
33.3293 27.8596
33.5158 27.5618
33.7022 27.0222
33.8887 26.6927
34.0753 26.4469
34.262 26.013
34.4488 25.7066
34.6357 25.389
34.8227 25.0881
35.0098 24.8171
35.1969 24.6166
35.3842 24.2781
35.5716 24.1622
35.759 23.8562
35.9468 23.5334
36.1345 23.2507
36.3222 22.9876
36.5101 22.7821
36.6981 22.4742
36.8861 22.1054
37.0743 21.8313
37.2626 21.5536
37.451 21.2857
37.6395 21.1071
37.8281 20.8181
38.0168 20.5436
38.2056 20.2786
38.3945 19.9691
38.5837 19.7282
38.7728 19.5343
38.9621 19.2267
39.1514 18.9752
39.3409 18.7428
39.5304 18.4809
39.7201 18.2876
39.9099 18.1119
40.0999 17.8831
40.2899 17.6284
40.48 17.3568
40.6703 17.2251
40.8607 17.0285
41.0512 16.802
41.242 16.5206
41.4327 16.3369
41.6236 15.9879
41.8146 15.8984
42.0057 15.6378
42.1969 15.4502
42.3882 15.2732
42.5797 15.0603
42.7713 14.8398
42.963 14.59
43.1549 14.3994
43.3468 14.2559
43.5389 14.0169
43.7312 13.8391
43.9237 13.6366
44.1162 13.4481
44.3088 13.3286
44.5016 13.0938
44.6945 12.9241
44.8875 12.7294
45.0806 12.5241
45.2739 12.3929
45.4673 12.2045
45.6609 12.0374
45.8546 11.8814
46.0484 11.7009
46.2424 11.5199
46.4365 11.4158
46.631 11.1863
46.8254 10.9808
47.0199 10.8465
47.2146 10.7185
47.4095 10.5364
47.6044 10.3977
47.7996 10.2015
47.9948 10.0817
48.1902 9.95239
48.3858 9.77639
48.5815 9.65267
48.7774 9.5361
48.9734 9.3398
49.1696 9.19579
49.3661 9.08559
49.5626 8.9329
49.7592 8.82642
49.956 8.69905
50.153 8.55987
50.3501 8.41993
50.5474 8.26696
50.7448 8.13447
50.9424 8.05693
51.1402 7.93523
51.3381 7.79538
51.5362 7.66927
51.7344 7.5411
51.9328 7.39409
52.1316 7.2789
52.3304 7.18476
52.5293 7.031
52.7284 6.94718
52.9276 6.83117
53.1271 6.74225
53.3267 6.60511
53.5265 6.46926
53.7264 6.3748
53.9266 6.26168
54.1269 6.12283
54.3274 5.93923
54.528 5.86004
54.7289 5.67818
54.9301 5.46139
55.1314 5.30128
55.3328 5.12967
55.5344 4.91268
55.7361 4.77235