File: XRD/Ni3Fe_FD0509.xy
TT I
1.27165 7.3389
1.45013 6.53472
1.62863 5.43854
1.80712 4.8285
1.98562 5.1333
2.16411 5.51911
2.34263 5.06063
2.52115 6.55823
2.69965 8.37574
2.87818 8.79987
3.05672 11.2761
3.23527 15.5
3.4138 19.3009
3.59237 24.3618
3.77094 26.1759
3.9495 30.1623
4.12809 35.4644
4.30669 222.465
4.4853 66.6714
4.6639 56.364
4.84253 67.9414
5.02118 87.9991
5.19981 390.843
5.37848 205.088
5.55716 104.205
5.73586 93.433
5.91455 95.664
6.09328 4103.63
6.27201 84.9701
6.45075 68.104
6.62952 63.6241
6.8083 59.6957
6.98711 56.6055
7.16591 56.4089
7.34475 93.3389
7.5236 55.8111
7.70247 57.1284
7.88135 58.4874
8.06026 63.0124
8.23919 70.6772
8.41812 86.7007
8.59709 1151.6
8.77609 102.238
8.9551 93.1532
9.13412 82.7494
9.31318 83.6382
9.49226 85.7331
9.67134 100.476
9.85047 101.168
10.0296 355.493
10.2088 445.364
10.388 106.499
10.5672 493.813
10.7465 87.8806
10.9257 79.578
11.105 72.6641
11.2844 71.8102
11.4637 65.836
11.6431 64.7425
11.8225 63.1346
12.002 64.4111
12.1814 153.226
12.3609 72.1162
12.5405 65.5481
12.72 71.1738
12.8996 71.9893
13.0792 80.0617
13.2589 236.303
13.4386 131.44
13.6183 242.854
13.7981 102.986
13.9779 77.0847
14.1577 73.4447
14.3376 72.8872
14.5175 69.85
14.6974 71.4196
14.8774 111.832
15.0574 155.122
15.2374 72.0772
15.4175 67.2284
15.5976 66.5857
15.7778 96.0433
15.958 159.679
16.1382 63.7291
16.3185 59.5536
16.4988 56.4086
16.6792 55.1998
16.8596 56.0237
17.04 56.4888
17.2205 67.2575
17.401 72.7056
17.5815 59.7567
17.7622 62.0356
17.9428 74.8837
18.1237 137.413
18.3044 91.0812
18.4852 80.4556
18.666 61.133
18.8469 58.7414
19.0278 57.7538
19.2088 60.579
19.3898 76.6046
19.5709 55.0776
19.752 54.0453
19.9332 56.9056
20.1144 70.0851
20.2957 64.2595
20.477 54.8811
20.6586 50.4849
20.84 49.435
21.0215 49.3675
21.203 51.3532
21.3846 49.8449
21.5662 49.388
21.7479 53.1946
21.9297 64.6792
22.1115 56.5335
22.2933 50.7575
22.4753 49.5309
22.6572 49.4908
22.8393 52.6183
23.0214 58.0145
23.2037 49.477
23.3859 50.4759
23.5682 56.9689
23.7505 49.2907
23.9329 45.7132
24.1154 44.812
24.2979 44.1156
24.4805 43.558
24.6631 43.1337
24.8458 42.847
25.0286 43.5212
25.2114 45.1496
25.3943 45.292
25.5773 41.5197
25.7605 40.9967
25.9436 41.3583
26.1268 42.1968
26.31 40.8214
26.4933 41.3791
26.6767 42.78
26.8601 40.9619
27.0437 39.4347
27.2272 38.9888
27.4109 38.9386
27.5946 38.9194
27.7784 38.5027
27.9623 38.924
28.1462 39.366
28.3304 37.6471
28.5145 36.4939
28.6987 36.0511
28.8829 35.9201
29.0673 35.0221
29.2517 34.7826
29.4361 34.7034
29.6207 33.6287
29.8053 33.418
29.99 33.042
30.1748 32.961
30.3597 32.7426
30.5447 32.6794
30.7297 32.6034
30.915 32.0478
31.1002 31.6816
31.2855 31.253
31.4708 31.3452
31.6563 30.7043
31.8418 30.391
32.0275 30.3094
32.2132 29.7885
32.399 29.3049
32.5848 28.8323
32.7708 28.5436
32.9569 28.3597
33.143 28.1648
33.3293 27.6346
33.5158 27.3946
33.7022 26.9295
33.8887 26.7174
34.0753 26.3476
34.262 25.9602
34.4488 25.653
34.6357 25.3367
34.8227 24.9996
35.0098 24.7813
35.1969 24.5918
35.3842 24.2741
35.5716 24.1013
35.759 23.8139
35.9468 23.4175
36.1345 23.1895
36.3222 22.9615
36.5101 22.7073
36.6981 22.3929
36.8861 22.1623
37.0743 21.8287
37.2626 21.5546
37.451 21.2992
37.6395 21.1454
37.8281 20.7622
38.0168 20.4782
38.2056 20.223
38.3945 19.946
38.5837 19.7114
38.7728 19.4294
38.9621 19.2996
39.1514 18.9753
39.3409 18.6904
39.5304 18.4787
39.7201 18.299
39.9099 18.073
40.0999 17.8072
40.2899 17.6227
40.48 17.2991
40.6703 17.1236
40.8607 16.9739
41.0512 16.7458
41.242 16.4558
41.4327 16.291
41.6236 15.9891
41.8146 15.9042
42.0057 15.6201
42.1969 15.4214
42.3882 15.2496
42.5797 15.1139
42.7713 14.8114
42.963 14.6487
43.1549 14.4649
43.3468 14.1964
43.5389 14.0568
43.7312 13.8078
43.9237 13.6342
44.1162 13.4309
44.3088 13.2659
44.5016 13.065
44.6945 12.8704
44.8875 12.7032
45.0806 12.5044
45.2739 12.3506
45.4673 12.1783
45.6609 12.0206
45.8546 11.8673
46.0484 11.6539
46.2424 11.4945
46.4365 11.4009
46.631 11.1652
46.8254 11.0079
47.0199 10.8535
47.2146 10.6665
47.4095 10.5357
47.6044 10.3774
47.7996 10.2165
47.9948 10.0451
48.1902 9.98011
48.3858 9.76134
48.5815 9.67471
48.7774 9.47538
48.9734 9.4322
49.1696 9.2441
49.3661 9.09542
49.5626 8.92805
49.7592 8.77607
49.956 8.72854
50.153 8.56711
50.3501 8.41096
50.5474 8.28866
50.7448 8.1736
50.9424 8.0436
51.1402 7.91697
51.3381 7.76267
51.5362 7.69985
51.7344 7.54104
51.9328 7.39848
52.1316 7.22982
52.3304 7.12257
52.5293 7.03426
52.7284 6.93755
52.9276 6.80763
53.1271 6.71914
53.3267 6.61636
53.5265 6.52261
53.7264 6.37547
53.9266 6.23071
54.1269 6.14873
54.3274 6.015
54.528 5.86756
54.7289 5.69672
54.9301 5.58131
55.1314 5.41014
55.3328 5.23606
55.5344 5.01454
55.7361 4.90186