File: XRD/Ni3Fe_FD0737.xy
TT I
1.27165 7.75009
1.45013 6.25571
1.62863 5.50137
1.80712 4.68016
1.98562 4.61506
2.16411 5.10164
2.34263 5.19897
2.52115 7.54042
2.69965 8.60477
2.87818 8.14211
3.05672 10.7299
3.23527 15.1151
3.4138 19.1741
3.59237 23.9791
3.77094 26.1464
3.9495 29.9254
4.12809 34.8595
4.30669 213.332
4.4853 64.9485
4.6639 55.4704
4.84253 66.6832
5.02118 85.8871
5.19981 321.29
5.37848 184.373
5.55716 101.826
5.73586 91.8382
5.91455 92.842
6.09328 4615.27
6.27201 82.6156
6.45075 67.3406
6.62952 62.7498
6.8083 58.3912
6.98711 55.5484
7.16591 55.1776
7.34475 89.7103
7.5236 54.7354
7.70247 55.9023
7.88135 57.5602
8.06026 61.9227
8.23919 69.137
8.41812 84.7721
8.59709 1155.41
8.77609 98.8638
8.9551 91.3565
9.13412 80.8029
9.31318 81.8894
9.49226 84.1838
9.67134 97.8686
9.85047 99.4292
10.0296 325.934
10.2088 409.927
10.388 104.025
10.5672 513.869
10.7465 86.1819
10.9257 78.1843
11.105 71.4501
11.2844 70.1084
11.4637 64.8456
11.6431 63.5609
11.8225 61.9264
12.002 63.1188
12.1814 152.441
12.3609 70.2395
12.5405 64.2139
12.72 69.7186
12.8996 70.3211
13.0792 78.3408
13.2589 237.063
13.4386 126.327
13.6183 248.573
13.7981 97.6585
13.9779 75.5229
14.1577 72.0095
14.3376 71.1681
14.5175 68.3874
14.6974 70.1358
14.8774 108.947
15.0574 149.639
15.2374 70.7064
15.4175 65.9743
15.5976 65.4388
15.7778 93.5471
15.958 155.992
16.1382 62.2988
16.3185 58.3542
16.4988 55.4554
16.6792 54.2698
16.8596 54.995
17.04 55.5219
17.2205 66.4142
17.401 70.5247
17.5815 58.8158
17.7622 60.847
17.9428 72.7372
18.1237 138.23
18.3044 90.4013
18.4852 77.117
18.666 59.9405
18.8469 57.7599
19.0278 56.5006
19.2088 58.8402
19.3898 75.7766
19.5709 53.9505
19.752 53.1515
19.9332 55.8283
20.1144 69.4041
20.2957 63.9307
20.477 53.5377
20.6586 49.6261
20.84 48.5332
21.0215 48.4473
21.203 50.6046
21.3846 48.7862
21.5662 48.4253
21.7479 52.364
21.9297 64.2688
22.1115 55.8156
22.2933 49.777
22.4753 48.7066
22.6572 48.7775
22.8393 51.6224
23.0214 56.7918
23.2037 48.4124
23.3859 49.2953
23.5682 56.8818
23.7505 48.215
23.9329 45.0576
24.1154 44.0102
24.2979 43.2581
24.4805 42.6659
24.6631 42.7728
24.8458 42.0162
25.0286 42.6076
25.2114 44.487
25.3943 44.3503
25.5773 40.7836
25.7605 40.2735
25.9436 40.6958
26.1268 41.5906
26.31 39.9797
26.4933 40.5416
26.6767 41.955
26.8601 40.2278
27.0437 38.6938
27.2272 38.2958
27.4109 38.1319
27.5946 38.2316
27.7784 37.6545
27.9623 38.1762
28.1462 38.6286
28.3304 36.9767
28.5145 35.7935
28.6987 35.4609
28.8829 35.3139
29.0673 34.5565
29.2517 34.2006
29.4361 33.9839
29.6207 32.9575
29.8053 32.8842
29.99 32.3986
30.1748 32.2279
30.3597 32.0423
30.5447 32.0786
30.7297 32.1199
30.915 31.4785
31.1002 30.996
31.2855 30.7938
31.4708 30.6929
31.6563 30.3125
31.8418 30.1375
32.0275 29.6626
32.2132 29.1676
32.399 28.7935
32.5848 28.335
32.7708 28.0874
32.9569 27.9538
33.143 27.6969
33.3293 27.3302
33.5158 26.8714
33.7022 26.5317
33.8887 26.1671
34.0753 25.8367
34.262 25.5382
34.4488 25.1923
34.6357 24.7942
34.8227 24.6397
35.0098 24.4284
35.1969 24.0394
35.3842 23.8428
35.5716 23.5989
35.759 23.3862
35.9468 22.983
36.1345 22.7945
36.3222 22.5777
36.5101 22.3541
36.6981 22.0517
36.8861 21.779
37.0743 21.4162
37.2626 21.2679
37.451 20.8257
37.6395 20.7821
37.8281 20.4171
38.0168 20.1507
38.2056 19.8785
38.3945 19.6628
38.5837 19.401
38.7728 19.178
38.9621 18.9319
39.1514 18.6357
39.3409 18.4168
39.5304 18.1754
39.7201 17.9484
39.9099 17.7236
40.0999 17.4713
40.2899 17.2965
40.48 17.0372
40.6703 16.8706
40.8607 16.68
41.0512 16.4432
41.242 16.1453
41.4327 15.9554
41.6236 15.7537
41.8146 15.5753
42.0057 15.3686
42.1969 15.1476
42.3882 14.9749
42.5797 14.7617
42.7713 14.5458
42.963 14.3717
43.1549 14.1878
43.3468 13.9832
43.5389 13.7852
43.7312 13.5909
43.9237 13.4321
44.1162 13.2351
44.3088 13.0272
44.5016 12.8666
44.6945 12.667
44.8875 12.4876
45.0806 12.3302
45.2739 12.1592
45.4673 11.9926
45.6609 11.7938
45.8546 11.6509
46.0484 11.4841
46.2424 11.3085
46.4365 11.2085
46.631 10.944
46.8254 10.7991
47.0199 10.6125
47.2146 10.528
47.4095 10.3554
47.6044 10.2112
47.7996 10.053
47.9948 9.90956
48.1902 9.78737
48.3858 9.6052
48.5815 9.51254
48.7774 9.33065
48.9734 9.22166
49.1696 9.09853
49.3661 8.92992
49.5626 8.78897
49.7592 8.64758
49.956 8.56256
50.153 8.40516
50.3501 8.28283
50.5474 8.13188
50.7448 8.0512
50.9424 7.92496
51.1402 7.78719
51.3381 7.63535
51.5362 7.55582
51.7344 7.42668
51.9328 7.26553
52.1316 7.19859
52.3304 7.03608
52.5293 6.9222
52.7284 6.8078
52.9276 6.65335
53.1271 6.60624
53.3267 6.46845
53.5265 6.36106
53.7264 6.23149
53.9266 6.15511
54.1269 6.02474
54.3274 5.90927
54.528 5.79038
54.7289 5.61488
54.9301 5.4504
55.1314 5.34175
55.3328 5.17985
55.5344 4.96519
55.7361 4.80958