File: XRD/Ni3Fe_FD0849.xy
TT I
1.27165 7.4485
1.45013 5.6951
1.62863 5.12855
1.80712 4.97091
1.98562 5.12392
2.16411 4.86852
2.34263 5.77423
2.52115 7.62449
2.69965 8.27135
2.87818 8.70384
3.05672 11.4937
3.23527 14.9628
3.4138 18.7022
3.59237 23.5663
3.77094 25.9326
3.9495 29.5203
4.12809 34.4678
4.30669 198.031
4.4853 63.1656
4.6639 54.2488
4.84253 66.567
5.02118 85.1429
5.19981 301.232
5.37848 177.428
5.55716 100.286
5.73586 90.757
5.91455 91.8624
6.09328 4421.84
6.27201 81.4202
6.45075 66.6414
6.62952 61.9745
6.8083 57.9361
6.98711 55.5941
7.16591 54.8916
7.34475 86.3494
7.5236 54.25
7.70247 55.568
7.88135 57.2998
8.06026 61.7008
8.23919 68.2528
8.41812 83.9844
8.59709 1156.89
8.77609 97.4956
8.9551 90.0097
9.13412 81.0908
9.31318 81.8042
9.49226 83.5344
9.67134 96.6806
9.85047 98.2866
10.0296 315.2
10.2088 395.973
10.388 102.624
10.5672 533.943
10.7465 85.2882
10.9257 77.5544
11.105 70.9083
11.2844 69.4304
11.4637 64.2425
11.6431 62.8861
11.8225 61.7317
12.002 62.764
12.1814 154.041
12.3609 69.2085
12.5405 63.6677
12.72 68.8486
12.8996 70.0651
13.0792 77.5879
13.2589 236.271
13.4386 121.569
13.6183 252.123
13.7981 96.0434
13.9779 74.9294
14.1577 71.319
14.3376 70.47
14.5175 67.9805
14.6974 69.1335
14.8774 107.481
15.0574 147.34
15.2374 69.8097
15.4175 65.7467
15.5976 64.8214
15.7778 92.4483
15.958 151.321
16.1382 61.8578
16.3185 57.8508
16.4988 54.8978
16.6792 53.8786
16.8596 54.5831
17.04 54.9203
17.2205 65.8008
17.401 69.9712
17.5815 58.4181
17.7622 60.4322
17.9428 71.8577
18.1237 137.748
18.3044 90.588
18.4852 76.187
18.666 59.6341
18.8469 57.1645
19.0278 56.181
19.2088 58.4035
19.3898 75.5851
19.5709 53.5162
19.752 52.5461
19.9332 55.3541
20.1144 69.0376
20.2957 63.6721
20.477 53.0833
20.6586 49.0635
20.84 48.3365
21.0215 47.8457
21.203 50.27
21.3846 48.4837
21.5662 48.3541
21.7479 51.5854
21.9297 63.652
22.1115 55.5722
22.2933 49.1052
22.4753 48.2814
22.6572 48.1608
22.8393 51.4586
23.0214 56.4107
23.2037 48.1823
23.3859 49.1455
23.5682 56.73
23.7505 47.7912
23.9329 44.7175
24.1154 43.7833
24.2979 42.9978
24.4805 42.4081
24.6631 42.2854
24.8458 41.5996
25.0286 42.2956
25.2114 44.1048
25.3943 44.0614
25.5773 40.3671
25.7605 39.8171
25.9436 40.3486
26.1268 41.2358
26.31 39.5747
26.4933 40.2813
26.6767 41.4506
26.8601 39.9698
27.0437 38.452
27.2272 37.8778
27.4109 38.037
27.5946 37.8801
27.7784 37.5113
27.9623 37.9704
28.1462 38.422
28.3304 36.6641
28.5145 35.5331
28.6987 35.1737
28.8829 35.0327
29.0673 34.2223
29.2517 33.9872
29.4361 33.7045
29.6207 32.8761
29.8053 32.4943
29.99 32.1671
30.1748 32.0461
30.3597 31.8569
30.5447 31.8292
30.7297 31.7798
30.915 31.2902
31.1002 30.8369
31.2855 30.5089
31.4708 30.4247
31.6563 29.9121
31.8418 29.8045
32.0275 29.5844
32.2132 28.9847
32.399 28.5605
32.5848 28.103
32.7708 27.7306
32.9569 27.7216
33.143 27.5049
33.3293 27.1272
33.5158 26.7313
33.7022 26.2902
33.8887 26.014
34.0753 25.6727
34.262 25.3249
34.4488 24.9913
34.6357 24.6484
34.8227 24.3528
35.0098 24.1244
35.1969 23.8897
35.3842 23.7423
35.5716 23.4438
35.759 23.1984
35.9468 22.8223
36.1345 22.654
36.3222 22.4208
36.5101 22.1591
36.6981 21.857
36.8861 21.5229
37.0743 21.2723
37.2626 20.9706
37.451 20.7317
37.6395 20.5774
37.8281 20.2158
38.0168 19.9387
38.2056 19.75
38.3945 19.4394
38.5837 19.1937
38.7728 18.9686
38.9621 18.7453
39.1514 18.554
39.3409 18.2593
39.5304 18.0477
39.7201 17.8418
39.9099 17.6465
40.0999 17.3361
40.2899 17.143
40.48 16.9352
40.6703 16.7594
40.8607 16.5029
41.0512 16.2811
41.242 16.0886
41.4327 15.8682
41.6236 15.6525
41.8146 15.4918
42.0057 15.2304
42.1969 15.0037
42.3882 14.9092
42.5797 14.6435
42.7713 14.487
42.963 14.2745
43.1549 14.0583
43.3468 13.8355
43.5389 13.6854
43.7312 13.4716
43.9237 13.3033
44.1162 13.1074
44.3088 12.9029
44.5016 12.7846
44.6945 12.6299
44.8875 12.3984
45.0806 12.2403
45.2739 12.0999
45.4673 11.9045
45.6609 11.7141
45.8546 11.5777
46.0484 11.4042
46.2424 11.2433
46.4365 11.1279
46.631 10.9289
46.8254 10.7523
47.0199 10.5781
47.2146 10.4359
47.4095 10.2574
47.6044 10.1117
47.7996 9.99066
47.9948 9.83404
48.1902 9.71119
48.3858 9.57779
48.5815 9.40914
48.7774 9.23197
48.9734 9.12637
49.1696 8.9993
49.3661 8.87318
49.5626 8.70595
49.7592 8.62274
49.956 8.48342
50.153 8.35749
50.3501 8.20921
50.5474 8.06632
50.7448 7.94469
50.9424 7.85415
51.1402 7.75956
51.3381 7.57349
51.5362 7.46458
51.7344 7.37588
51.9328 7.22297
52.1316 7.0746
52.3304 7.01124
52.5293 6.82967
52.7284 6.73998
52.9276 6.63457
53.1271 6.55546
53.3267 6.40032
53.5265 6.29018
53.7264 6.23642
53.9266 6.09254
54.1269 5.99333
54.3274 5.8866
54.528 5.73986
54.7289 5.56215
54.9301 5.38954
55.1314 5.27707
55.3328 5.10181
55.5344 4.88504
55.7361 4.78816