File: XRD/Ni3Fe_FD0160.xy
TT I
1.27165 8.28085
1.45013 6.36607
1.62863 5.44913
1.80712 5.30866
1.98562 5.26048
2.16411 4.8694
2.34263 4.4299
2.52115 4.13532
2.69965 5.82156
2.87818 8.18377
3.05672 11.2656
3.23527 15.1691
3.4138 18.6206
3.59237 21.8786
3.77094 24.9915
3.9495 28.416
4.12809 32.6373
4.30669 38.2542
4.4853 44.6275
4.6639 53.732
4.84253 65.6707
5.02118 90.7832
5.19981 537.879
5.37848 437.347
5.55716 107.095
5.73586 95.5842
5.91455 104.994
6.09328 2788.07
6.27201 88.9193
6.45075 66.9307
6.62952 60.1028
6.8083 55.7669
6.98711 53.547
7.16591 52.7002
7.34475 52.1657
7.5236 56.0056
7.70247 53.9689
7.88135 55.9294
8.06026 60.8051
8.23919 67.789
8.41812 83.7676
8.59709 897.528
8.77609 115.496
8.9551 85.4342
9.13412 81.2039
9.31318 85.8832
9.49226 83.6819
9.67134 88.7572
9.85047 98.7462
10.0296 542.743
10.2088 971.486
10.388 104.721
10.5672 336.58
10.7465 90.18
10.9257 75.9332
11.105 70.4367
11.2844 66.213
11.4637 63.4848
11.6431 62.52
11.8225 61.3943
12.002 64.9125
12.1814 119.438
12.3609 74.8373
12.5405 63.2757
12.72 65.178
12.8996 69.9342
13.0792 79.1236
13.2589 206.658
13.4386 206.919
13.6183 194.647
13.7981 153.182
13.9779 76.1617
14.1577 74.2461
14.3376 69.1657
14.5175 68.5677
14.6974 69.6865
14.8774 121.437
15.0574 205.335
15.2374 69.0922
15.4175 66.3252
15.5976 65.6675
15.7778 107.519
15.958 186.032
16.1382 61.6952
16.3185 57.4971
16.4988 55.0889
16.6792 54.1676
16.8596 54.4474
17.04 55.2521
17.2205 65.3129
17.401 80.8652
17.5815 59.1669
17.7622 61.1177
17.9428 83.6065
18.1237 115.935
18.3044 88.6027
18.4852 94.7703
18.666 61.0134
18.8469 58.3408
19.0278 56.8631
19.2088 61.7584
19.3898 69.4537
19.5709 56.2955
19.752 53.2502
19.9332 58.2744
20.1144 67.2857
20.2957 61.1999
20.477 59.0677
20.6586 50.0425
20.84 49.0568
21.0215 49.2087
21.203 49.9924
21.3846 50.6224
21.5662 49.0944
21.7479 54.2438
21.9297 62.4152
22.1115 56.4252
22.2933 52.4241
22.4753 48.976
22.6572 49.3004
22.8393 52.1826
23.0214 57.3645
23.2037 50.0909
23.3859 51.8871
23.5682 53.8518
23.7505 53.1428
23.9329 45.7493
24.1154 44.4638
24.2979 43.5981
24.4805 43.1499
24.6631 43.2554
24.8458 42.6743
25.0286 43.154
25.2114 44.6654
25.3943 44.9782
25.5773 41.91
25.7605 40.6905
25.9436 41.0784
26.1268 41.8389
26.31 40.99
26.4933 40.9896
26.6767 42.2275
26.8601 41.5063
27.0437 39.718
27.2272 39.0679
27.4109 38.747
27.5946 38.7351
27.7784 38.4924
27.9623 38.5943
28.1462 39.5649
28.3304 38.161
28.5145 36.3891
28.6987 36.0456
28.8829 35.6904
29.0673 35.2809
29.2517 34.6646
29.4361 34.3801
29.6207 33.613
29.8053 33.127
29.99 32.8579
30.1748 32.7005
30.3597 32.6376
30.5447 32.5443
30.7297 32.5376
30.915 32.2097
31.1002 31.465
31.2855 31.2218
31.4708 31.2014
31.6563 30.9677
31.8418 30.4773
32.0275 30.2332
32.2132 29.7896
32.399 29.2013
32.5848 28.7671
32.7708 28.3976
32.9569 28.3543
33.143 28.0911
33.3293 27.6524
33.5158 27.3418
33.7022 26.8735
33.8887 26.5438
34.0753 26.2798
34.262 25.8984
34.4488 25.6116
34.6357 25.1434
34.8227 24.8959
35.0098 24.8239
35.1969 24.4068
35.3842 24.2182
35.5716 24.0361
35.759 23.7176
35.9468 23.415
36.1345 23.1616
36.3222 22.9234
36.5101 22.5724
36.6981 22.3857
36.8861 21.9989
37.0743 21.7471
37.2626 21.4797
37.451 21.2265
37.6395 21.0792
37.8281 20.7082
38.0168 20.403
38.2056 20.1317
38.3945 19.8914
38.5837 19.626
38.7728 19.4314
38.9621 19.1361
39.1514 18.8342
39.3409 18.6671
39.5304 18.4596
39.7201 18.2233
39.9099 17.9755
40.0999 17.774
40.2899 17.5419
40.48 17.2356
40.6703 17.0647
40.8607 16.9127
41.0512 16.669
41.242 16.4283
41.4327 16.1877
41.6236 16.0272
41.8146 15.7694
42.0057 15.5377
42.1969 15.3682
42.3882 15.1679
42.5797 15.0273
42.7713 14.7358
42.963 14.5819
43.1549 14.3441
43.3468 14.1275
43.5389 13.9645
43.7312 13.7666
43.9237 13.6064
44.1162 13.4202
44.3088 13.1815
44.5016 12.9919
44.6945 12.8738
44.8875 12.6751
45.0806 12.4846
45.2739 12.3157
45.4673 12.1896
45.6609 11.9709
45.8546 11.7944
46.0484 11.6357
46.2424 11.4506
46.4365 11.2679
46.631 11.1377
46.8254 10.9833
47.0199 10.8239
47.2146 10.6475
47.4095 10.4972
47.6044 10.3137
47.7996 10.1747
47.9948 10.056
48.1902 9.86761
48.3858 9.76064
48.5815 9.59066
48.7774 9.49525
48.9734 9.33827
49.1696 9.24485
49.3661 9.05605
49.5626 8.8672
49.7592 8.77939
49.956 8.67085
50.153 8.49973
50.3501 8.39071
50.5474 8.29051
50.7448 8.15994
50.9424 8.01682
51.1402 7.88634
51.3381 7.74701
51.5362 7.63875
51.7344 7.51441
51.9328 7.40167
52.1316 7.21147
52.3304 7.1278
52.5293 7.01024
52.7284 6.90931
52.9276 6.77956
53.1271 6.71696
53.3267 6.6017
53.5265 6.45205
53.7264 6.29457
53.9266 6.25321
54.1269 6.07756
54.3274 5.95421
54.528 5.82261
54.7289 5.67081
54.9301 5.4815
55.1314 5.32954
55.3328 5.08739
55.5344 4.89372
55.7361 4.83712