File: XRD/Ni3Fe_FD0842.xy
TT I
1.27165 7.3189
1.45013 6.13286
1.62863 5.11209
1.80712 4.76993
1.98562 4.39623
2.16411 4.88319
2.34263 5.44075
2.52115 7.14653
2.69965 8.25388
2.87818 9.07432
3.05672 11.4508
3.23527 15.3759
3.4138 19.2342
3.59237 23.563
3.77094 25.8636
3.9495 29.6475
4.12809 34.171
4.30669 178.272
4.4853 61.3883
4.6639 54.9554
4.84253 66.3819
5.02118 85.6734
5.19981 316.684
5.37848 178.253
5.55716 100.67
5.73586 90.8681
5.91455 92.1845
6.09328 4386.37
6.27201 81.1201
6.45075 66.8219
6.62952 62.1675
6.8083 57.9118
6.98711 55.3935
7.16591 55.037
7.34475 82.262
7.5236 54.1895
7.70247 55.6263
7.88135 57.1193
8.06026 61.3895
8.23919 68.4655
8.41812 83.5693
8.59709 1169.02
8.77609 97.0624
8.9551 89.3511
9.13412 80.749
9.31318 81.9124
9.49226 83.6536
9.67134 96.0644
9.85047 98.8393
10.0296 320.71
10.2088 404.011
10.388 102.635
10.5672 530.236
10.7465 85.6292
10.9257 77.3497
11.105 71.2707
11.2844 68.9316
11.4637 64.324
11.6431 63.0248
11.8225 61.7628
12.002 62.736
12.1814 156.863
12.3609 68.2775
12.5405 63.5186
12.72 68.5154
12.8996 70.1731
13.0792 77.9707
13.2589 241.965
13.4386 121.904
13.6183 251.766
13.7981 96.1157
13.9779 74.7943
14.1577 71.5912
14.3376 70.2906
14.5175 68.0082
14.6974 69.3885
14.8774 108.585
15.0574 146.247
15.2374 69.6533
15.4175 65.6534
15.5976 64.8694
15.7778 93.3336
15.958 150.268
16.1382 61.5604
16.3185 57.7131
16.4988 54.9799
16.6792 53.8329
16.8596 54.461
17.04 55.0534
17.2205 66.2899
17.401 69.7628
17.5815 58.5383
17.7622 60.5784
17.9428 72.3167
18.1237 137.638
18.3044 90.9765
18.4852 75.9629
18.666 59.6707
18.8469 57.442
19.0278 56.2142
19.2088 58.4392
19.3898 75.6201
19.5709 53.5919
19.752 52.4396
19.9332 55.5702
20.1144 69.1582
20.2957 63.7055
20.477 53.1142
20.6586 48.9468
20.84 48.1775
21.0215 48.1226
21.203 50.3592
21.3846 48.3674
21.5662 48.2096
21.7479 52.0309
21.9297 63.5631
22.1115 55.4909
22.2933 49.1844
22.4753 48.1716
22.6572 48.1857
22.8393 51.3974
23.0214 56.403
23.2037 48.2091
23.3859 49.1889
23.5682 56.462
23.7505 47.7202
23.9329 44.6011
24.1154 43.6486
24.2979 42.8985
24.4805 42.3503
24.6631 42.3241
24.8458 41.7252
25.0286 42.3565
25.2114 44.2092
25.3943 44.0775
25.5773 40.3882
25.7605 39.9747
25.9436 40.4874
26.1268 41.2524
26.31 39.6215
26.4933 40.3155
26.6767 41.7073
26.8601 39.9051
27.0437 38.5315
27.2272 38.0591
27.4109 37.8749
27.5946 37.8567
27.7784 37.6003
27.9623 38.0225
28.1462 38.3546
28.3304 36.6369
28.5145 35.5561
28.6987 35.243
28.8829 35.0313
29.0673 34.2902
29.2517 33.9904
29.4361 33.7066
29.6207 32.6832
29.8053 32.5149
29.99 32.1691
30.1748 31.987
30.3597 31.794
30.5447 31.7743
30.7297 31.8776
30.915 31.2672
31.1002 30.746
31.2855 30.4845
31.4708 30.5412
31.6563 30.0199
31.8418 29.8132
32.0275 29.6012
32.2132 29.0549
32.399 28.6087
32.5848 28.2054
32.7708 27.7961
32.9569 27.7567
33.143 27.5779
33.3293 27.0839
33.5158 26.6564
33.7022 26.3096
33.8887 26.0146
34.0753 25.6844
34.262 25.4006
34.4488 25.0899
34.6357 24.7356
34.8227 24.4008
35.0098 24.2626
35.1969 23.8967
35.3842 23.6758
35.5716 23.5407
35.759 23.2238
35.9468 22.9382
36.1345 22.6
36.3222 22.5054
36.5101 22.1741
36.6981 21.8608
36.8861 21.6108
37.0743 21.2889
37.2626 20.9226
37.451 20.7728
37.6395 20.6201
37.8281 20.265
38.0168 19.9844
38.2056 19.6693
38.3945 19.4737
38.5837 19.2406
38.7728 18.9705
38.9621 18.7831
39.1514 18.4342
39.3409 18.2449
39.5304 17.9619
39.7201 17.86
39.9099 17.5869
40.0999 17.3804
40.2899 17.196
40.48 16.9116
40.6703 16.722
40.8607 16.5301
41.0512 16.3058
41.242 16.0731
41.4327 15.8622
41.6236 15.6888
41.8146 15.5294
42.0057 15.2655
42.1969 15.0393
42.3882 14.8797
42.5797 14.6919
42.7713 14.4334
42.963 14.3181
43.1549 14.0818
43.3468 13.843
43.5389 13.6614
43.7312 13.4724
43.9237 13.2981
44.1162 13.1176
44.3088 12.9278
44.5016 12.7738
44.6945 12.6329
44.8875 12.4525
45.0806 12.251
45.2739 12.0397
45.4673 11.8975
45.6609 11.7281
45.8546 11.602
46.0484 11.4228
46.2424 11.2375
46.4365 11.0828
46.631 10.8847
46.8254 10.7185
47.0199 10.6029
47.2146 10.4625
47.4095 10.2583
47.6044 10.1091
47.7996 10.0116
47.9948 9.80082
48.1902 9.68759
48.3858 9.56323
48.5815 9.43696
48.7774 9.26418
48.9734 9.16404
49.1696 8.99517
49.3661 8.85896
49.5626 8.67051
49.7592 8.60191
49.956 8.4519
50.153 8.3158
50.3501 8.24222
50.5474 8.07221
50.7448 7.9883
50.9424 7.79701
51.1402 7.71875
51.3381 7.59693
51.5362 7.50819
51.7344 7.33462
51.9328 7.20599
52.1316 7.09821
52.3304 7.01438
52.5293 6.86833
52.7284 6.75697
52.9276 6.61215
53.1271 6.53678
53.3267 6.41007
53.5265 6.30586
53.7264 6.19682
53.9266 6.1409
54.1269 5.97836
54.3274 5.88638
54.528 5.7768
54.7289 5.58712
54.9301 5.43083
55.1314 5.31475
55.3328 5.07967
55.5344 4.91571
55.7361 4.77646