File: XRD/Ni3Fe_FD0074.xy
TT I
1.27165 15.2959
1.45013 11.6616
1.62863 10.0205
1.80712 8.60929
1.98562 9.00144
2.16411 9.41603
2.34263 8.65967
2.52115 7.59827
2.69965 9.47737
2.87818 12.582
3.05672 18.2192
3.23527 20.2665
3.4138 19.1323
3.59237 20.3551
3.77094 22.6214
3.9495 25.707
4.12809 28.4859
4.30669 34.6441
4.4853 39.7892
4.6639 47.9675
4.84253 61.3325
5.02118 99.4654
5.19981 600.768
5.37848 2059.23
5.55716 126.3
5.73586 99.0994
5.91455 122.878
6.09328 957.005
6.27201 128.491
6.45075 61.858
6.62952 51.8046
6.8083 47.2105
6.98711 45.5401
7.16591 44.9918
7.34475 44.4387
7.5236 81.7906
7.70247 47.5319
7.88135 46.6516
8.06026 49.9271
8.23919 56.6722
8.41812 74.3624
8.59709 355.098
8.77609 186.102
8.9551 76.4086
9.13412 73.8638
9.31318 218.625
9.49226 70.8111
9.67134 72.9903
9.85047 82.4665
10.0296 360.487
10.2088 1171.71
10.388 95.1158
10.5672 125.534
10.7465 132.36
10.9257 62.2272
11.105 56.7104
11.2844 53.3297
11.4637 50.5888
11.6431 50.0502
11.8225 50.4493
12.002 111.167
12.1814 65.7569
12.3609 86.3868
12.5405 50.7314
12.72 51.4964
12.8996 54.6255
13.0792 67.6375
13.2589 106.191
13.4386 269.5
13.6183 98.5557
13.7981 210.126
13.9779 62.9211
14.1577 96.212
14.3376 56.5238
14.5175 54.1908
14.6974 55.0832
14.8774 79.6322
15.0574 138.89
15.2374 58.3449
15.4175 52.2345
15.5976 51.7728
15.7778 73.0933
15.958 103.965
16.1382 63.4871
16.3185 46.0147
16.4988 43.7195
16.6792 42.679
16.8596 43.3505
17.04 46.2988
17.2205 47.1416
17.401 59.3633
17.5815 46.3337
17.7622 50.826
17.9428 61.935
18.1237 59.9861
18.3044 75.8574
18.4852 80.3527
18.666 50.6079
18.8469 45.994
19.0278 44.8515
19.2088 47.4015
19.3898 53.7596
19.5709 49.6954
19.752 42.1308
19.9332 44.2143
20.1144 45.0416
20.2957 47.731
20.477 50.9163
20.6586 39.4999
20.84 41.1495
21.0215 38.2678
21.203 37.8942
21.3846 40.2101
21.5662 38.6126
21.7479 40.5893
21.9297 41.3892
22.1115 46.7952
22.2933 43.8493
22.4753 38.2349
22.6572 38.2171
22.8393 39.8283
23.0214 39.7623
23.2037 41.1597
23.3859 40.2737
23.5682 38.4696
23.7505 45.3139
23.9329 36.1634
24.1154 35.2973
24.2979 34.3246
24.4805 33.6556
24.6631 34.1868
24.8458 33.4271
25.0286 33.2967
25.2114 33.2635
25.3943 33.9419
25.5773 33.9483
25.7605 31.8972
25.9436 31.8656
26.1268 31.5018
26.31 32.7009
26.4933 31.5673
26.6767 31.4874
26.8601 32.7221
27.0437 31.6531
27.2272 30.4803
27.4109 30.0634
27.5946 30.0083
27.7784 30.2483
27.9623 29.7452
28.1462 29.9076
28.3304 29.8649
28.5145 28.7579
28.6987 28.1649
28.8829 27.7131
29.0673 27.6837
29.2517 27.0483
29.4361 26.5554
29.6207 26.5468
29.8053 25.8991
29.99 25.722
30.1748 25.4986
30.3597 25.4275
30.5447 25.3156
30.7297 24.9215
30.915 25.2614
31.1002 24.7655
31.2855 24.3539
31.4708 24.0643
31.6563 24.0815
31.8418 23.7076
32.0275 23.4255
32.2132 23.339
32.399 22.8485
32.5848 22.4205
32.7708 22.2792
32.9569 22.11
33.143 21.7954
33.3293 21.5186
33.5158 21.4604
33.7022 20.9457
33.8887 20.7322
34.0753 20.5334
34.262 20.1837
34.4488 19.9359
34.6357 19.6972
34.8227 19.376
35.0098 19.2093
35.1969 18.9608
35.3842 18.7529
35.5716 18.6164
35.759 18.3948
35.9468 18.0961
36.1345 17.9328
36.3222 17.786
36.5101 17.586
36.6981 17.3216
36.8861 17.11
37.0743 16.9073
37.2626 16.6685
37.451 16.4277
37.6395 16.3048
37.8281 16.0316
38.0168 15.8003
38.2056 15.6643
38.3945 15.4446
38.5837 15.2138
38.7728 15.0274
38.9621 14.847
39.1514 14.6345
39.3409 14.4558
39.5304 14.2502
39.7201 14.0823
39.9099 13.9374
40.0999 13.7328
40.2899 13.6004
40.48 13.3721
40.6703 13.2738
40.8607 13.0624
41.0512 12.9402
41.242 12.7585
41.4327 12.5759
41.6236 12.3666
41.8146 12.2818
42.0057 12.0886
42.1969 11.9246
42.3882 11.8042
42.5797 11.5811
42.7713 11.4583
42.963 11.3018
43.1549 11.1482
43.3468 10.9548
43.5389 10.8749
43.7312 10.7026
43.9237 10.5388
44.1162 10.38
44.3088 10.2594
44.5016 10.0806
44.6945 10.0009
44.8875 9.84078
45.0806 9.67617
45.2739 9.59523
45.4673 9.48316
45.6609 9.30564
45.8546 9.18878
46.0484 9.09731
46.2424 8.95075
46.4365 8.81515
46.631 8.67772
46.8254 8.52814
47.0199 8.43078
47.2146 8.29971
47.4095 8.18096
47.6044 8.04425
47.7996 7.94842
47.9948 7.82878
48.1902 7.71436
48.3858 7.58739
48.5815 7.5214
48.7774 7.42852
48.9734 7.29798
49.1696 7.16981
49.3661 7.0917
49.5626 6.96423
49.7592 6.88862
49.956 6.77604
50.153 6.64241
50.3501 6.53134
50.5474 6.47963
50.7448 6.3998
50.9424 6.2867
51.1402 6.19386
51.3381 6.05915
51.5362 5.96667
51.7344 5.87123
51.9328 5.77663
52.1316 5.68132
52.3304 5.61372
52.5293 5.49539
52.7284 5.44659
52.9276 5.32984
53.1271 5.26965
53.3267 5.15925
53.5265 5.03299
53.7264 4.94007
53.9266 4.9063
54.1269 4.77361
54.3274 4.61817
54.528 4.47017
54.7289 4.38426
54.9301 4.20578
55.1314 4.08919
55.3328 3.94243
55.5344 3.82433
55.7361 3.64013