File: XRD/Ni3Fe_FD0908.xy
TT I
1.27165 7.0496
1.45013 6.02711
1.62863 5.25972
1.80712 4.81432
1.98562 4.76988
2.16411 4.79149
2.34263 5.386
2.52115 7.67749
2.69965 8.27557
2.87818 9.0131
3.05672 11.2404
3.23527 15.6335
3.4138 18.5482
3.59237 23.7787
3.77094 25.6589
3.9495 29.4963
4.12809 34.4945
4.30669 137.975
4.4853 56.9706
4.6639 54.7446
4.84253 66.8355
5.02118 86.0975
5.19981 344.776
5.37848 177.386
5.55716 100.524
5.73586 91.0473
5.91455 92.3456
6.09328 4586.5
6.27201 79.1911
6.45075 67.2842
6.62952 61.7382
6.8083 57.9924
6.98711 54.9714
7.16591 54.2832
7.34475 74.688
7.5236 53.9242
7.70247 55.6314
7.88135 57.0046
8.06026 61.3937
8.23919 68.3641
8.41812 82.848
8.59709 1191.63
8.77609 95.8622
8.9551 88.4297
9.13412 81.1024
9.31318 82.0097
9.49226 83.4028
9.67134 94.7006
9.85047 98.9196
10.0296 327.246
10.2088 329.333
10.388 102.604
10.5672 542.98
10.7465 84.6541
10.9257 76.9727
11.105 70.2489
11.2844 67.9216
11.4637 63.8081
11.6431 62.4603
11.8225 61.6862
12.002 63.0086
12.1814 157.067
12.3609 66.6892
12.5405 63.6433
12.72 67.5676
12.8996 70.1587
13.0792 78.4155
13.2589 243.27
13.4386 113.967
13.6183 257.929
13.7981 91.5636
13.9779 74.669
14.1577 70.6314
14.3376 69.5186
14.5175 67.6833
14.6974 69.197
14.8774 109.817
15.0574 139.042
15.2374 68.7665
15.4175 65.1645
15.5976 64.774
15.7778 92.8962
15.958 145.698
16.1382 60.5996
16.3185 57.1347
16.4988 54.1984
16.6792 53.5034
16.8596 53.9142
17.04 54.8652
17.2205 65.9429
17.401 67.4741
17.5815 57.9136
17.7622 60.2626
17.9428 72.0519
18.1237 139.632
18.3044 90.4811
18.4852 73.168
18.666 59.1709
18.8469 57.0109
19.0278 55.8594
19.2088 58.134
19.3898 74.8706
19.5709 53.1763
19.752 52.3948
19.9332 55.3493
20.1144 69.3995
20.2957 64.0105
20.477 51.9507
20.6586 48.7155
20.84 47.9467
21.0215 47.6196
21.203 50.2125
21.3846 47.9386
21.5662 48.1755
21.7479 51.6825
21.9297 64.1556
22.1115 55.6681
22.2933 48.8515
22.4753 47.8604
22.6572 48.0264
22.8393 51.1264
23.0214 56.0559
23.2037 47.8367
23.3859 48.8568
23.5682 57.057
23.7505 47.1015
23.9329 44.2166
24.1154 43.3197
24.2979 42.6701
24.4805 42.2348
24.6631 41.9828
24.8458 41.6265
25.0286 42.0252
25.2114 43.8711
25.3943 43.7806
25.5773 40.2161
25.7605 39.7608
25.9436 40.2426
26.1268 41.0093
26.31 39.449
26.4933 40.0515
26.6767 41.4585
26.8601 39.7669
27.0437 38.2225
27.2272 37.7917
27.4109 37.8129
27.5946 37.703
27.7784 37.3545
27.9623 37.8868
28.1462 38.1102
28.3304 36.5138
28.5145 35.3219
28.6987 35.041
28.8829 34.7841
29.0673 34.0687
29.2517 33.7123
29.4361 33.6106
29.6207 32.6464
29.8053 32.2989
29.99 32.0302
30.1748 31.9376
30.3597 31.7806
30.5447 31.5992
30.7297 31.728
30.915 31.0516
31.1002 30.5986
31.2855 30.3265
31.4708 30.3472
31.6563 29.8412
31.8418 29.5981
32.0275 29.3805
32.2132 28.9349
32.399 28.3758
32.5848 28.0796
32.7708 27.6473
32.9569 27.5394
33.143 27.3317
33.3293 26.9977
33.5158 26.6565
33.7022 26.1973
33.8887 25.9145
34.0753 25.5037
34.262 25.1319
34.4488 24.8974
34.6357 24.5767
34.8227 24.2926
35.0098 24.0808
35.1969 23.8631
35.3842 23.5992
35.5716 23.4583
35.759 23.0625
35.9468 22.6887
36.1345 22.5334
36.3222 22.2138
36.5101 22.034
36.6981 21.7568
36.8861 21.4671
37.0743 21.1733
37.2626 20.8954
37.451 20.7096
37.6395 20.4668
37.8281 20.0624
38.0168 19.9336
38.2056 19.7161
38.3945 19.4291
38.5837 19.0894
38.7728 18.9147
38.9621 18.6716
39.1514 18.4037
39.3409 18.1693
39.5304 17.9386
39.7201 17.8425
39.9099 17.6109
40.0999 17.3019
40.2899 17.0965
40.48 16.7837
40.6703 16.6231
40.8607 16.4313
41.0512 16.1809
41.242 16.0059
41.4327 15.7759
41.6236 15.5755
41.8146 15.4119
42.0057 15.1487
42.1969 14.9888
42.3882 14.8119
42.5797 14.6064
42.7713 14.3353
42.963 14.138
43.1549 13.9694
43.3468 13.7353
43.5389 13.5857
43.7312 13.3949
43.9237 13.2456
44.1162 13.0677
44.3088 12.8944
44.5016 12.6862
44.6945 12.5408
44.8875 12.3646
45.0806 12.2097
45.2739 11.9932
45.4673 11.8401
45.6609 11.6302
45.8546 11.4981
46.0484 11.3254
46.2424 11.1647
46.4365 11.0223
46.631 10.8347
46.8254 10.6643
47.0199 10.5237
47.2146 10.3949
47.4095 10.2082
47.6044 10.0579
47.7996 9.91072
47.9948 9.75653
48.1902 9.63424
48.3858 9.52401
48.5815 9.37383
48.7774 9.26428
48.9734 9.10535
49.1696 8.96082
49.3661 8.80933
49.5626 8.66754
49.7592 8.53843
49.956 8.43319
50.153 8.29933
50.3501 8.18146
50.5474 8.02726
50.7448 7.91624
50.9424 7.79573
51.1402 7.66577
51.3381 7.56358
51.5362 7.41488
51.7344 7.29048
51.9328 7.14876
52.1316 7.02625
52.3304 6.94186
52.5293 6.87768
52.7284 6.71535
52.9276 6.62415
53.1271 6.54396
53.3267 6.3828
53.5265 6.31018
53.7264 6.20088
53.9266 6.0541
54.1269 5.9442
54.3274 5.84664
54.528 5.69031
54.7289 5.58835
54.9301 5.42043
55.1314 5.28298
55.3328 5.06293
55.5344 4.89221
55.7361 4.75186