File: XRD/Ni3Fe_FD0353.xy
TT I
1.27165 7.47911
1.45013 5.61491
1.62863 6.0895
1.80712 5.14216
1.98562 5.06866
2.16411 4.30018
2.34263 5.74874
2.52115 5.97189
2.69965 6.64687
2.87818 8.67989
3.05672 10.3939
3.23527 14.8212
3.4138 18.4887
3.59237 23.0806
3.77094 26.2389
3.9495 30.0829
4.12809 34.9108
4.30669 127.097
4.4853 56.9806
4.6639 56.7825
4.84253 69.6664
5.02118 91.851
5.19981 606.531
5.37848 221.495
5.55716 106.703
5.73586 96.7369
5.91455 101.511
6.09328 3989.53
6.27201 85.3762
6.45075 69.48
6.62952 63.8036
6.8083 59.3444
6.98711 56.662
7.16591 56.4616
7.34475 74.1958
7.5236 55.6899
7.70247 57.0522
7.88135 59.3075
8.06026 63.8946
8.23919 71.5276
8.41812 87.798
8.59709 1184.41
8.77609 104.133
8.9551 91.497
9.13412 84.3184
9.31318 86.0257
9.49226 87.2532
9.67134 97.115
9.85047 103.568
10.0296 442.288
10.2088 467.823
10.388 110.26
10.5672 487.732
10.7465 89.3791
10.9257 79.4392
11.105 73.4978
11.2844 70.8704
11.4637 66.5043
11.6431 65.2879
11.8225 64.0905
12.002 66.3218
12.1814 150.622
12.3609 70.1212
12.5405 66.0894
12.72 70.3952
12.8996 72.8255
13.0792 82.9248
13.2589 246.617
13.4386 132.889
13.6183 244.594
13.7981 102.352
13.9779 78.0283
14.1577 74.0433
14.3376 72.4827
14.5175 71.0296
14.6974 72.8252
14.8774 119.989
15.0574 153.805
15.2374 72.0503
15.4175 68.2188
15.5976 68.0737
15.7778 102.804
15.958 161.819
16.1382 63.5475
16.3185 59.5985
16.4988 57.1703
16.6792 55.8438
16.8596 56.4162
17.04 57.9392
17.2205 69.2002
17.401 73.4881
17.5815 60.9425
17.7622 63.1134
17.9428 78.9329
18.1237 139.829
18.3044 91.7255
18.4852 79.5433
18.666 62.2544
18.8469 59.743
19.0278 58.4282
19.2088 61.7833
19.3898 76.9345
19.5709 55.7778
19.752 54.7666
19.9332 58.6044
20.1144 71.5559
20.2957 64.5193
20.477 54.8161
20.6586 51.0268
20.84 50.1859
21.0215 50.0948
21.203 51.9859
21.3846 50.3657
21.5662 50.5403
21.7479 54.6977
21.9297 66.1988
22.1115 57.0927
22.2933 51.4694
22.4753 50.1725
22.6572 50.6592
22.8393 53.5955
23.0214 58.9505
23.2037 50.2174
23.3859 51.6328
23.5682 57.6001
23.7505 49.7486
23.9329 46.533
24.1154 45.3092
24.2979 44.7411
24.4805 44.1296
24.6631 43.9588
24.8458 43.4435
25.0286 44.0224
25.2114 45.8823
25.3943 45.8114
25.5773 42.3078
25.7605 41.703
25.9436 41.8645
26.1268 42.758
26.31 41.3032
26.4933 41.897
26.6767 43.2685
26.8601 41.5546
27.0437 40.0017
27.2272 39.7295
27.4109 39.498
27.5946 39.3914
27.7784 39.0374
27.9623 39.558
28.1462 39.7473
28.3304 38.1445
28.5145 36.9358
28.6987 36.5765
28.8829 36.3326
29.0673 35.6621
29.2517 35.2638
29.4361 35.0559
29.6207 34.0939
29.8053 33.8666
29.99 33.4411
30.1748 33.2504
30.3597 33.1628
30.5447 33.0649
30.7297 33.1245
30.915 32.4219
31.1002 32.0252
31.2855 31.7044
31.4708 31.6359
31.6563 31.2618
31.8418 30.8914
32.0275 30.7337
32.2132 30.2726
32.399 29.7762
32.5848 29.1981
32.7708 28.9594
32.9569 28.7461
33.143 28.5369
33.3293 28.1554
33.5158 27.7454
33.7022 27.2394
33.8887 27.0671
34.0753 26.7207
34.262 26.3356
34.4488 25.9842
34.6357 25.6041
34.8227 25.3593
35.0098 25.1447
35.1969 24.9177
35.3842 24.5849
35.5716 24.4739
35.759 24.0325
35.9468 23.7665
36.1345 23.5072
36.3222 23.2403
36.5101 22.9938
36.6981 22.7092
36.8861 22.395
37.0743 22.1241
37.2626 21.8099
37.451 21.5358
37.6395 21.4326
37.8281 21.061
38.0168 20.7662
38.2056 20.4825
38.3945 20.1817
38.5837 19.9771
38.7728 19.6948
38.9621 19.4919
39.1514 19.2621
39.3409 18.9295
39.5304 18.7439
39.7201 18.5837
39.9099 18.3159
40.0999 18.0445
40.2899 17.7847
40.48 17.5537
40.6703 17.3568
40.8607 17.2212
41.0512 16.9861
41.242 16.6822
41.4327 16.514
41.6236 16.2369
41.8146 16.049
42.0057 15.7865
42.1969 15.6452
42.3882 15.4222
42.5797 15.171
42.7713 15.0517
42.963 14.7802
43.1549 14.5841
43.3468 14.3484
43.5389 14.2152
43.7312 13.993
43.9237 13.7916
44.1162 13.6054
44.3088 13.4037
44.5016 13.1678
44.6945 13.0702
44.8875 12.9066
45.0806 12.7105
45.2739 12.5065
45.4673 12.3406
45.6609 12.1816
45.8546 11.9936
46.0484 11.8127
46.2424 11.6559
46.4365 11.5021
46.631 11.314
46.8254 11.1159
47.0199 10.997
47.2146 10.8132
47.4095 10.6516
47.6044 10.4651
47.7996 10.3292
47.9948 10.1918
48.1902 10.0364
48.3858 9.88221
48.5815 9.76428
48.7774 9.62046
48.9734 9.49537
49.1696 9.34481
49.3661 9.22128
49.5626 9.01468
49.7592 8.88046
49.956 8.78014
50.153 8.6477
50.3501 8.473
50.5474 8.40303
50.7448 8.23595
50.9424 8.11976
51.1402 7.99777
51.3381 7.83093
51.5362 7.71936
51.7344 7.61559
51.9328 7.49581
52.1316 7.38515
52.3304 7.23113
52.5293 7.12263
52.7284 6.99911
52.9276 6.88599
53.1271 6.77497
53.3267 6.68613
53.5265 6.53565
53.7264 6.423
53.9266 6.35087
54.1269 6.16194
54.3274 6.08574
54.528 5.91776
54.7289 5.78958
54.9301 5.58379
55.1314 5.49292
55.3328 5.27353
55.5344 5.11468
55.7361 4.92496