File: XRD/Ni3Fe_FD0941.xy
TT I
1.27165 7.42753
1.45013 6.52755
1.62863 5.20687
1.80712 4.91873
1.98562 4.70247
2.16411 5.20195
2.34263 5.74803
2.52115 7.49355
2.69965 8.58299
2.87818 8.78733
3.05672 10.9912
3.23527 15.5735
3.4138 18.9175
3.59237 23.0645
3.77094 25.4796
3.9495 29.1675
4.12809 33.6465
4.30669 88.0493
4.4853 52.1035
4.6639 54.8875
4.84253 67.7714
5.02118 85.5549
5.19981 371.618
5.37848 197.135
5.55716 101.738
5.73586 92.2319
5.91455 94.3814
6.09328 4680.88
6.27201 78.5421
6.45075 70.2074
6.62952 62.5541
6.8083 59.2965
6.98711 54.6983
7.16591 55.8312
7.34475 63.5914
7.5236 53.3832
7.70247 56.6306
7.88135 56.5797
8.06026 62.2166
8.23919 68.3031
8.41812 82.0851
8.59709 1203.66
8.77609 95.8231
8.9551 88.7823
9.13412 82.2096
9.31318 84.522
9.49226 83.9737
9.67134 94.5952
9.85047 101.097
10.0296 331.424
10.2088 324.367
10.388 103.34
10.5672 550.115
10.7465 84.7527
10.9257 77.1206
11.105 70.062
11.2844 67.1964
11.4637 63.6927
11.6431 62.4482
11.8225 62.0511
12.002 63.5694
12.1814 159.767
12.3609 65.1866
12.5405 64.1315
12.72 66.953
12.8996 70.4365
13.0792 79.3856
13.2589 246.948
13.4386 113.791
13.6183 259.936
13.7981 91.6207
13.9779 74.7234
14.1577 70.6563
14.3376 69.011
14.5175 67.8375
14.6974 69.5199
14.8774 111.031
15.0574 135.835
15.2374 68.3413
15.4175 65.3103
15.5976 64.8504
15.7778 94.0468
15.958 144.668
16.1382 60.2265
16.3185 56.7582
16.4988 54.4419
16.6792 53.5661
16.8596 53.9468
17.04 55.1013
17.2205 66.212
17.401 67.3746
17.5815 58.3792
17.7622 60.2808
17.9428 72.4707
18.1237 140.544
18.3044 90.8717
18.4852 72.8152
18.666 59.2794
18.8469 57.1023
19.0278 55.8634
19.2088 58.2026
19.3898 74.9991
19.5709 53.2887
19.752 52.3571
19.9332 55.2197
20.1144 69.2708
20.2957 64.3931
20.477 51.9438
20.6586 48.7287
20.84 48.0867
21.0215 47.7891
21.203 50.2457
21.3846 48.0095
21.5662 48.2543
21.7479 52.0121
21.9297 64.0597
22.1115 55.6488
22.2933 48.8882
22.4753 47.9051
22.6572 48.1417
22.8393 51.3474
23.0214 56.1729
23.2037 47.8915
23.3859 48.7839
23.5682 56.9091
23.7505 46.8889
23.9329 44.4459
24.1154 43.2362
24.2979 42.7113
24.4805 42.127
24.6631 41.9032
24.8458 41.459
25.0286 42.1884
25.2114 43.9325
25.3943 43.7206
25.5773 40.1862
25.7605 39.7461
25.9436 40.2199
26.1268 41.1114
26.31 39.5111
26.4933 40.0588
26.6767 41.4648
26.8601 39.7852
27.0437 38.2248
27.2272 37.7975
27.4109 37.679
27.5946 37.9158
27.7784 37.2723
27.9623 37.9551
28.1462 38.0627
28.3304 36.3969
28.5145 35.3115
28.6987 35.0329
28.8829 34.8697
29.0673 34.0823
29.2517 33.7792
29.4361 33.6569
29.6207 32.6532
29.8053 32.2868
29.99 32.0469
30.1748 32.0023
30.3597 31.772
30.5447 31.7424
30.7297 31.705
30.915 31.0516
31.1002 30.633
31.2855 30.2829
31.4708 30.2078
31.6563 29.8199
31.8418 29.6276
32.0275 29.3893
32.2132 28.8936
32.399 28.3916
32.5848 27.8999
32.7708 27.7334
32.9569 27.5671
33.143 27.3179
33.3293 26.8964
33.5158 26.5764
33.7022 26.153
33.8887 25.8928
34.0753 25.4939
34.262 25.2076
34.4488 24.851
34.6357 24.5022
34.8227 24.2451
35.0098 24.126
35.1969 23.7675
35.3842 23.616
35.5716 23.3834
35.759 23.0527
35.9468 22.6731
36.1345 22.5386
36.3222 22.3207
36.5101 21.9955
36.6981 21.7079
36.8861 21.4667
37.0743 21.1512
37.2626 20.8895
37.451 20.6146
37.6395 20.4342
37.8281 20.1479
38.0168 19.8329
38.2056 19.6123
38.3945 19.3267
38.5837 19.0837
38.7728 18.8476
38.9621 18.6004
39.1514 18.4066
39.3409 18.0958
39.5304 17.9384
39.7201 17.7757
39.9099 17.4999
40.0999 17.2135
40.2899 17.0249
40.48 16.8297
40.6703 16.6529
40.8607 16.5024
41.0512 16.2316
41.242 15.9957
41.4327 15.8244
41.6236 15.5487
41.8146 15.3989
42.0057 15.1228
42.1969 14.9422
42.3882 14.8298
42.5797 14.5572
42.7713 14.3587
42.963 14.131
43.1549 13.968
43.3468 13.7885
43.5389 13.6324
43.7312 13.3703
43.9237 13.2317
44.1162 13.0083
44.3088 12.7712
44.5016 12.6878
44.6945 12.4852
44.8875 12.3307
45.0806 12.1343
45.2739 12.0309
45.4673 11.8233
45.6609 11.6613
45.8546 11.494
46.0484 11.3665
46.2424 11.1911
46.4365 11.0117
46.631 10.8225
46.8254 10.6636
47.0199 10.5571
47.2146 10.3757
47.4095 10.2166
47.6044 10.0428
47.7996 9.9233
47.9948 9.75257
48.1902 9.62631
48.3858 9.48364
48.5815 9.37114
48.7774 9.18762
48.9734 9.0517
49.1696 8.91525
49.3661 8.80633
49.5626 8.62103
49.7592 8.53595
49.956 8.43395
50.153 8.25933
50.3501 8.15199
50.5474 8.03361
50.7448 7.91616
50.9424 7.84057
51.1402 7.64523
51.3381 7.56153
51.5362 7.41713
51.7344 7.30236
51.9328 7.18525
52.1316 7.05738
52.3304 6.94029
52.5293 6.8411
52.7284 6.71725
52.9276 6.59538
53.1271 6.51826
53.3267 6.39093
53.5265 6.27482
53.7264 6.16301
53.9266 6.09477
54.1269 5.94833
54.3274 5.86095
54.528 5.68871
54.7289 5.55214
54.9301 5.39571
55.1314 5.24925
55.3328 5.08577
55.5344 4.91744
55.7361 4.7354