File: XRD/Ni3Fe_FD0887.xy
TT I
1.27165 7.48387
1.45013 6.03972
1.62863 5.39471
1.80712 4.03037
1.98562 5.13721
2.16411 5.07346
2.34263 5.69005
2.52115 7.58475
2.69965 8.51867
2.87818 9.23346
3.05672 10.855
3.23527 15.3266
3.4138 19.1891
3.59237 24.2723
3.77094 26.1757
3.9495 29.8396
4.12809 35.2467
4.30669 275.923
4.4853 71.0002
4.6639 54.8924
4.84253 66.5399
5.02118 84.6185
5.19981 285.916
5.37848 180.823
5.55716 100.181
5.73586 90.1537
5.91455 90.3733
6.09328 4273.91
6.27201 82.3782
6.45075 67.0874
6.62952 62.5704
6.8083 58.3116
6.98711 55.4767
7.16591 55.1188
7.34475 102.586
7.5236 54.5658
7.70247 55.8546
7.88135 57.5284
8.06026 61.2058
8.23919 68.8152
8.41812 83.8947
8.59709 1077.38
8.77609 97.2506
8.9551 92.2459
9.13412 80.6516
9.31318 80.9559
9.49226 82.9007
9.67134 99.6998
9.85047 97.7153
10.0296 289.474
10.2088 411.626
10.388 103.137
10.5672 507.55
10.7465 85.307
10.9257 77.9336
11.105 71.3424
11.2844 70.6896
11.4637 64.2652
11.6431 63.2267
11.8225 61.811
12.002 62.563
12.1814 148.979
12.3609 71.6607
12.5405 63.6709
12.72 70.25
12.8996 69.5102
13.0792 77.1969
13.2589 219.269
13.4386 123.974
13.6183 237.537
13.7981 96.0207
13.9779 74.7733
14.1577 71.631
14.3376 71.1855
14.5175 67.5515
14.6974 69.2901
14.8774 103.789
15.0574 150.485
15.2374 70.9297
15.4175 65.4371
15.5976 64.5418
15.7778 88.9175
15.958 156.798
16.1382 62.3693
16.3185 58.2388
16.4988 54.7518
16.6792 53.9109
16.8596 54.5736
17.04 54.8088
17.2205 64.7644
17.401 69.7308
17.5815 58.418
17.7622 60.3137
17.9428 70.6829
18.1237 137.509
18.3044 87.8464
18.4852 76.6032
18.666 59.5053
18.8469 57.2001
19.0278 56.0858
19.2088 58.3233
19.3898 76.4576
19.5709 53.4213
19.752 52.4337
19.9332 55.151
20.1144 68.9817
20.2957 63.3227
20.477 53.171
20.6586 48.9433
20.84 48.045
21.0215 47.7326
21.203 50.049
21.3846 48.1648
21.5662 47.932
21.7479 51.3104
21.9297 64.0763
22.1115 55.393
22.2933 49.0895
22.4753 48.2939
22.6572 48.0529
22.8393 50.7339
23.0214 56.8418
23.2037 48.0498
23.3859 48.8069
23.5682 56.123
23.7505 47.7119
23.9329 44.6275
24.1154 43.5874
24.2979 42.7992
24.4805 42.4757
24.6631 42.2612
24.8458 41.5818
25.0286 42.1473
25.2114 43.9632
25.3943 44.1356
25.5773 40.3215
25.7605 39.8479
25.9436 40.1619
26.1268 41.266
26.31 39.5559
26.4933 40.0169
26.6767 41.5933
26.8601 40.0396
27.0437 38.4444
27.2272 37.8995
27.4109 37.7558
27.5946 37.8967
27.7784 37.3531
27.9623 37.7834
28.1462 38.2581
28.3304 36.6924
28.5145 35.5251
28.6987 35.3249
28.8829 34.9763
29.0673 34.1262
29.2517 33.838
29.4361 33.6903
29.6207 32.6686
29.8053 32.4629
29.99 32.2287
30.1748 32.0467
30.3597 31.8442
30.5447 31.7303
30.7297 31.7624
30.915 31.2324
31.1002 30.6775
31.2855 30.3974
31.4708 30.3664
31.6563 29.9204
31.8418 29.631
32.0275 29.4705
32.2132 29.0593
32.399 28.5789
32.5848 28.0285
32.7708 27.8684
32.9569 27.6677
33.143 27.4244
33.3293 26.984
33.5158 26.7429
33.7022 26.2786
33.8887 26.0425
34.0753 25.6903
34.262 25.3552
34.4488 24.897
34.6357 24.64
34.8227 24.3979
35.0098 24.1914
35.1969 23.934
35.3842 23.6805
35.5716 23.4302
35.759 23.2116
35.9468 22.8364
36.1345 22.6761
36.3222 22.4177
36.5101 22.0559
36.6981 21.8376
36.8861 21.4889
37.0743 21.2121
37.2626 20.9855
37.451 20.7634
37.6395 20.6349
37.8281 20.2515
38.0168 19.946
38.2056 19.6788
38.3945 19.4611
38.5837 19.2066
38.7728 19.0181
38.9621 18.7207
39.1514 18.4711
39.3409 18.2618
39.5304 18.0125
39.7201 17.8229
39.9099 17.5651
40.0999 17.3824
40.2899 17.127
40.48 16.9234
40.6703 16.6839
40.8607 16.4755
41.0512 16.3254
41.242 16.082
41.4327 15.9027
41.6236 15.6374
41.8146 15.4939
42.0057 15.2294
42.1969 15.0469
42.3882 14.9351
42.5797 14.6615
42.7713 14.4288
42.963 14.2795
43.1549 14.0394
43.3468 13.8374
43.5389 13.7149
43.7312 13.4548
43.9237 13.3214
44.1162 13.1541
44.3088 12.8866
44.5016 12.7227
44.6945 12.5927
44.8875 12.3913
45.0806 12.2216
45.2739 12.0352
45.4673 11.9386
45.6609 11.6846
45.8546 11.5422
46.0484 11.4114
46.2424 11.2218
46.4365 11.0481
46.631 10.9036
46.8254 10.7431
47.0199 10.601
47.2146 10.4179
47.4095 10.2776
47.6044 10.0904
47.7996 9.9383
47.9948 9.85288
48.1902 9.66993
48.3858 9.55287
48.5815 9.4247
48.7774 9.2814
48.9734 9.13432
49.1696 9.0016
49.3661 8.86333
49.5626 8.70004
49.7592 8.56786
49.956 8.52857
50.153 8.36528
50.3501 8.19554
50.5474 8.0766
50.7448 7.95288
50.9424 7.87435
51.1402 7.69173
51.3381 7.56778
51.5362 7.46832
51.7344 7.3547
51.9328 7.18414
52.1316 7.14027
52.3304 6.97848
52.5293 6.89572
52.7284 6.75803
52.9276 6.63105
53.1271 6.53422
53.3267 6.41949
53.5265 6.32186
53.7264 6.25789
53.9266 6.11474
54.1269 6.01376
54.3274 5.87327
54.528 5.70844
54.7289 5.54194
54.9301 5.39275
55.1314 5.29275
55.3328 5.11431
55.5344 4.88896
55.7361 4.73875