File: XRD/Ni3Fe_FD0289.xy
TT I
1.27165 8.09874
1.45013 6.84174
1.62863 6.20409
1.80712 5.20248
1.98562 4.97433
2.16411 5.09831
2.34263 5.44226
2.52115 5.84593
2.69965 7.18034
2.87818 8.81286
3.05672 10.8187
3.23527 15.1553
3.4138 19.7755
3.59237 24.8468
3.77094 27.0281
3.9495 30.8225
4.12809 35.9665
4.30669 267.285
4.4853 71.9098
4.6639 56.9423
4.84253 69.7328
5.02118 91.62
5.19981 509.56
5.37848 258.99
5.55716 108.403
5.73586 97.2802
5.91455 101.67
6.09328 3703.2
6.27201 90.342
6.45075 70.7055
6.62952 65.8905
6.8083 61.6149
6.98711 58.511
7.16591 58.0202
7.34475 103.728
7.5236 57.0065
7.70247 58.5369
7.88135 60.4394
8.06026 65.1011
8.23919 72.6853
8.41812 90.0303
8.59709 1025.62
8.77609 108.865
8.9551 97.5881
9.13412 85.3958
9.31318 85.9198
9.49226 87.7649
9.67134 105.11
9.85047 104.557
10.0296 393.643
10.2088 596.951
10.388 111.21
10.5672 457.27
10.7465 91.8393
10.9257 82.2495
11.105 75.0739
11.2844 74.0396
11.4637 67.6421
11.6431 66.2304
11.8225 65.2604
12.002 66.5956
12.1814 138.598
12.3609 76.5971
12.5405 67.4395
12.72 73.9097
12.8996 74.0341
13.0792 82.4063
13.2589 216.246
13.4386 148.231
13.6183 218.684
13.7981 112.741
13.9779 79.2284
14.1577 75.5664
14.3376 75.2713
14.5175 71.5275
14.6974 73.3798
14.8774 111.208
15.0574 173.022
15.2374 74.9866
15.4175 69.2514
15.5976 68.4706
15.7778 96.78
15.958 176.552
16.1382 66.2651
16.3185 61.5955
16.4988 58.0846
16.6792 56.7854
16.8596 57.7997
17.04 58.2259
17.2205 67.5784
17.401 77.4314
17.5815 61.6147
17.7622 63.7261
17.9428 77.9436
18.1237 137.256
18.3044 89.4756
18.4852 85.2386
18.666 63.0332
18.8469 60.577
19.0278 59.404
19.2088 62.2327
19.3898 78.211
19.5709 56.9268
19.752 55.3872
19.9332 58.6486
20.1144 71.5674
20.2957 64.247
20.477 57.2263
20.6586 51.8249
20.84 50.8624
21.0215 50.8473
21.203 52.5287
21.3846 51.2007
21.5662 50.764
21.7479 54.2784
21.9297 66.6601
22.1115 57.6729
22.2933 52.2788
22.4753 50.9755
22.6572 50.9583
22.8393 53.1716
23.0214 59.9199
23.2037 50.8844
23.3859 51.6663
23.5682 57.6932
23.7505 51.2587
23.9329 47.1135
24.1154 45.9535
24.2979 45.1378
24.4805 44.5059
24.6631 44.6184
24.8458 43.8617
25.0286 44.5013
25.2114 46.1493
25.3943 46.5032
25.5773 42.5657
25.7605 42.1299
25.9436 42.4176
26.1268 43.247
26.31 41.7521
26.4933 42.1853
26.6767 43.6485
26.8601 42.1078
27.0437 40.4729
27.2272 39.9774
27.4109 39.7998
27.5946 39.8688
27.7784 39.4215
27.9623 39.7607
28.1462 40.3291
28.3304 38.7812
28.5145 37.4612
28.6987 37.0831
28.8829 36.759
29.0673 36.1892
29.2517 35.7001
29.4361 35.4732
29.6207 34.5263
29.8053 34.1545
29.99 34.0195
30.1748 33.6611
30.3597 33.533
30.5447 33.401
30.7297 33.4232
30.915 32.8276
31.1002 32.3466
31.2855 32.1114
31.4708 32.0221
31.6563 31.6369
31.8418 31.2975
32.0275 31.0439
32.2132 30.5658
32.399 30.1123
32.5848 29.6255
32.7708 29.2457
32.9569 29.1657
33.143 28.789
33.3293 28.4553
33.5158 28.1509
33.7022 27.7238
33.8887 27.3851
34.0753 27.064
34.262 26.6403
34.4488 26.3063
34.6357 26.0228
34.8227 25.5972
35.0098 25.4918
35.1969 25.2059
35.3842 24.9225
35.5716 24.7336
35.759 24.4295
35.9468 24.0317
36.1345 23.7473
36.3222 23.645
36.5101 23.2639
36.6981 23.0394
36.8861 22.7281
37.0743 22.36
37.2626 22.105
37.451 21.8139
37.6395 21.7013
37.8281 21.2997
38.0168 20.9465
38.2056 20.775
38.3945 20.461
38.5837 20.2492
38.7728 19.9574
38.9621 19.7245
39.1514 19.4444
39.3409 19.1359
39.5304 18.9411
39.7201 18.7661
39.9099 18.4937
40.0999 18.2964
40.2899 18.0395
40.48 17.7655
40.6703 17.6049
40.8607 17.3797
41.0512 17.1544
41.242 16.9261
41.4327 16.7029
41.6236 16.4793
41.8146 16.2752
42.0057 16.0601
42.1969 15.8511
42.3882 15.5844
42.5797 15.392
42.7713 15.1697
42.963 14.9454
43.1549 14.7935
43.3468 14.587
43.5389 14.3558
43.7312 14.1383
43.9237 14.0196
44.1162 13.7983
44.3088 13.6173
44.5016 13.4041
44.6945 13.2796
44.8875 13.0148
45.0806 12.8072
45.2739 12.6957
45.4673 12.5333
45.6609 12.3371
45.8546 12.154
46.0484 11.9751
46.2424 11.8138
46.4365 11.6772
46.631 11.4433
46.8254 11.3084
47.0199 11.1481
47.2146 10.9833
47.4095 10.8076
47.6044 10.6344
47.7996 10.5099
47.9948 10.3374
48.1902 10.1393
48.3858 10.0377
48.5815 9.91148
48.7774 9.77892
48.9734 9.59157
49.1696 9.48961
49.3661 9.27462
49.5626 9.17522
49.7592 9.0294
49.956 8.8966
50.153 8.76061
50.3501 8.62188
50.5474 8.51575
50.7448 8.37097
50.9424 8.23916
51.1402 8.12678
51.3381 7.97365
51.5362 7.86155
51.7344 7.70971
51.9328 7.60969
52.1316 7.44377
52.3304 7.36952
52.5293 7.22496
52.7284 7.11029
52.9276 7.00922
53.1271 6.89052
53.3267 6.75557
53.5265 6.62388
53.7264 6.52898
53.9266 6.38938
54.1269 6.26137
54.3274 6.13168
54.528 6.0017
54.7289 5.87766
54.9301 5.66748
55.1314 5.5604
55.3328 5.31138
55.5344 5.17682
55.7361 5.02447