File: XRD/Ni3Fe_FD0673.xy
TT I
1.27165 6.78661
1.45013 6.39007
1.62863 5.27726
1.80712 5.28723
1.98562 4.20172
2.16411 4.53362
2.34263 5.64321
2.52115 7.16636
2.69965 7.86209
2.87818 8.74449
3.05672 11.2198
3.23527 14.9405
3.4138 18.9264
3.59237 22.949
3.77094 26.0262
3.9495 29.4097
4.12809 34.7326
4.30669 159.835
4.4853 59.0185
4.6639 55.5042
4.84253 67.5502
5.02118 87.1708
5.19981 384.915
5.37848 182.209
5.55716 101.893
5.73586 92.3102
5.91455 95.1974
6.09328 4564.21
6.27201 81.7215
6.45075 67.2823
6.62952 62.1599
6.8083 58.1565
6.98711 55.5263
7.16591 55.462
7.34475 80.1825
7.5236 54.4086
7.70247 55.927
7.88135 57.6878
8.06026 62.1356
8.23919 69.3736
8.41812 84.9773
8.59709 1221.18
8.77609 98.0546
8.9551 89.6655
9.13412 82.2034
9.31318 82.7035
9.49226 84.5408
9.67134 95.6973
9.85047 99.5293
10.0296 360.627
10.2088 373.272
10.388 104.389
10.5672 514.109
10.7465 86.2946
10.9257 77.52
11.105 71.4604
11.2844 69.4888
11.4637 64.8383
11.6431 63.4319
11.8225 62.2756
12.002 63.8173
12.1814 155.371
12.3609 68.6915
12.5405 64.038
12.72 68.9497
12.8996 70.8459
13.0792 79.4787
13.2589 245.705
13.4386 119.971
13.6183 253.756
13.7981 93.6159
13.9779 75.2904
14.1577 72.0881
14.3376 71.0218
14.5175 68.756
14.6974 70.4466
14.8774 112.256
15.0574 141.125
15.2374 69.974
15.4175 66.2097
15.5976 65.8291
15.7778 96.368
15.958 151.508
16.1382 61.8196
16.3185 58.044
16.4988 55.351
16.6792 54.3191
16.8596 55.0881
17.04 55.7339
17.2205 67.099
17.401 69.8423
17.5815 59.1566
17.7622 60.9296
17.9428 74.1572
18.1237 142.728
18.3044 91.1358
18.4852 75.351
18.666 60.2975
18.8469 57.98
19.0278 56.7853
19.2088 59.4822
19.3898 76.6506
19.5709 53.8714
19.752 53.1584
19.9332 56.0369
20.1144 69.6989
20.2957 64.0791
20.477 52.8382
20.6586 49.4589
20.84 48.6552
21.0215 48.3963
21.203 50.8348
21.3846 48.7277
21.5662 48.5808
21.7479 52.6335
21.9297 64.8602
22.1115 56.0717
22.2933 49.5922
22.4753 48.7065
22.6572 48.8466
22.8393 51.9519
23.0214 57.0459
23.2037 48.7077
23.3859 49.6168
23.5682 57.146
23.7505 47.8171
23.9329 45.1034
24.1154 43.9017
24.2979 43.2807
24.4805 42.6506
24.6631 42.6795
24.8458 42.2039
25.0286 42.8372
25.2114 44.6415
25.3943 44.489
25.5773 40.7514
25.7605 40.293
25.9436 40.7782
26.1268 41.7016
26.31 40.0285
26.4933 40.5681
26.6767 42.1123
26.8601 40.4438
27.0437 38.6982
27.2272 38.4234
27.4109 38.3172
27.5946 38.3332
27.7784 37.881
27.9623 38.4489
28.1462 38.6322
28.3304 36.9825
28.5145 35.7732
28.6987 35.5812
28.8829 35.3904
29.0673 34.5695
29.2517 34.4283
29.4361 34.0438
29.6207 33.0872
29.8053 32.7734
29.99 32.4495
30.1748 32.3609
30.3597 32.2255
30.5447 32.2766
30.7297 32.138
30.915 31.5078
31.1002 31.053
31.2855 30.7766
31.4708 30.7312
31.6563 30.1915
31.8418 30.2242
32.0275 29.8179
32.2132 29.2811
32.399 28.9167
32.5848 28.4106
32.7708 28.0936
32.9569 27.9708
33.143 27.7312
33.3293 27.3027
33.5158 26.9676
33.7022 26.521
33.8887 26.2565
34.0753 25.9509
34.262 25.6211
34.4488 25.1952
34.6357 24.9927
34.8227 24.6315
35.0098 24.3745
35.1969 24.1888
35.3842 23.9732
35.5716 23.7178
35.759 23.4748
35.9468 23.0461
36.1345 22.7746
36.3222 22.6255
36.5101 22.3846
36.6981 22.0157
36.8861 21.7408
37.0743 21.4727
37.2626 21.3077
37.451 20.9727
37.6395 20.7515
37.8281 20.4084
38.0168 20.1955
38.2056 19.8773
38.3945 19.6331
38.5837 19.4394
38.7728 19.1637
38.9621 18.922
39.1514 18.6877
39.3409 18.4704
39.5304 18.2041
39.7201 18.015
39.9099 17.7716
40.0999 17.5491
40.2899 17.384
40.48 17.0441
40.6703 16.8596
40.8607 16.7099
41.0512 16.468
41.242 16.1676
41.4327 16.0541
41.6236 15.7762
41.8146 15.5458
42.0057 15.3487
42.1969 15.1763
42.3882 14.9996
42.5797 14.7293
42.7713 14.6604
42.963 14.4324
43.1549 14.1812
43.3468 13.9845
43.5389 13.8313
43.7312 13.5879
43.9237 13.4629
44.1162 13.2317
44.3088 13.0535
44.5016 12.8624
44.6945 12.678
44.8875 12.5616
45.0806 12.3429
45.2739 12.1445
45.4673 12.0383
45.6609 11.85
45.8546 11.6708
46.0484 11.5101
46.2424 11.3165
46.4365 11.1885
46.631 10.9866
46.8254 10.8501
47.0199 10.6867
47.2146 10.5742
47.4095 10.3742
47.6044 10.2396
47.7996 10.0662
47.9948 9.90875
48.1902 9.81012
48.3858 9.65718
48.5815 9.52269
48.7774 9.35083
48.9734 9.21768
49.1696 9.06894
49.3661 8.92738
49.5626 8.7701
49.7592 8.69654
49.956 8.56099
50.153 8.45725
50.3501 8.24296
50.5474 8.13823
50.7448 8.04271
50.9424 7.93787
51.1402 7.78134
51.3381 7.64466
51.5362 7.49878
51.7344 7.40068
51.9328 7.30373
52.1316 7.13957
52.3304 7.05014
52.5293 6.93736
52.7284 6.80588
52.9276 6.68734
53.1271 6.6059
53.3267 6.49377
53.5265 6.36468
53.7264 6.25777
53.9266 6.15995
54.1269 6.05453
54.3274 5.95631
54.528 5.77024
54.7289 5.6399
54.9301 5.48949
55.1314 5.31434
55.3328 5.1453
55.5344 4.94285
55.7361 4.84244