File: XRD/Ni3Fe_FD0393.xy
TT I
1.27165 7.34759
1.45013 6.1553
1.62863 5.74833
1.80712 5.14575
1.98562 4.5829
2.16411 4.95751
2.34263 5.0188
2.52115 6.25772
2.69965 7.6633
2.87818 8.1724
3.05672 11.074
3.23527 15.0023
3.4138 18.7653
3.59237 24.4147
3.77094 26.6728
3.9495 30.3828
4.12809 35.8319
4.30669 229.032
4.4853 67.8216
4.6639 56.4529
4.84253 68.771
5.02118 89.6582
5.19981 452.304
5.37848 223.668
5.55716 105.57
5.73586 95.0168
5.91455 98.4406
6.09328 4030.65
6.27201 86.6497
6.45075 69.3144
6.62952 64.6125
6.8083 60.4048
6.98711 57.3126
7.16591 57.0448
7.34475 95.1403
7.5236 56.0869
7.70247 57.2767
7.88135 59.0874
8.06026 64.0119
8.23919 71.1365
8.41812 87.9456
8.59709 1125.47
8.77609 105.01
8.9551 94.7188
9.13412 83.6423
9.31318 85.4123
9.49226 86.4841
9.67134 101.47
9.85047 102.921
10.0296 380.322
10.2088 498.334
10.388 108.539
10.5672 478.189
10.7465 89.4074
10.9257 80.5599
11.105 73.8036
11.2844 72.5189
11.4637 66.8885
11.6431 65.4731
11.8225 64.1329
12.002 65.4027
12.1814 148.631
12.3609 73.6609
12.5405 66.2947
12.72 72.0234
12.8996 72.7994
13.0792 81.2207
13.2589 233.922
13.4386 138.789
13.6183 237.795
13.7981 106.428
13.9779 77.9106
14.1577 74.6902
14.3376 73.8679
14.5175 70.726
14.6974 72.3404
14.8774 113.132
15.0574 163.683
15.2374 73.509
15.4175 68.0929
15.5976 67.772
15.7778 97.7354
15.958 168.92
16.1382 64.7035
16.3185 60.5467
16.4988 57.0939
16.6792 56.0956
16.8596 56.8425
17.04 57.5644
17.2205 67.7717
17.401 74.8972
17.5815 60.8679
17.7622 62.9077
17.9428 76.5084
18.1237 137.416
18.3044 90.8266
18.4852 82.1064
18.666 62.2575
18.8469 59.6179
19.0278 58.3903
19.2088 61.3428
19.3898 77.1619
19.5709 55.8467
19.752 54.7716
19.9332 57.8497
20.1144 70.6641
20.2957 64.364
20.477 55.9129
20.6586 51.0669
20.84 50.3157
21.0215 49.9291
21.203 51.959
21.3846 50.4172
21.5662 49.9688
21.7479 53.9801
21.9297 65.7932
22.1115 57.0714
22.2933 51.5617
22.4753 50.2654
22.6572 50.2265
22.8393 53.1168
23.0214 58.689
23.2037 50.1868
23.3859 50.9418
23.5682 57.2745
23.7505 50.0203
23.9329 46.4302
24.1154 45.5455
24.2979 44.5854
24.4805 44.1462
24.6631 44.0185
24.8458 43.4219
25.0286 43.9344
25.2114 45.7068
25.3943 45.8083
25.5773 42.0367
25.7605 41.5644
25.9436 41.97
26.1268 42.6875
26.31 41.2399
26.4933 41.8729
26.6767 43.095
26.8601 41.6306
27.0437 39.8554
27.2272 39.6235
27.4109 39.3669
27.5946 39.4341
27.7784 38.8437
27.9623 39.2921
28.1462 39.7799
28.3304 38.2911
28.5145 36.8445
28.6987 36.5921
28.8829 36.297
29.0673 35.5483
29.2517 35.1734
29.4361 35.0917
29.6207 33.9138
29.8053 33.7538
29.99 33.4311
30.1748 33.2414
30.3597 33.0936
30.5447 32.962
30.7297 33.0444
30.915 32.4672
31.1002 31.9006
31.2855 31.7058
31.4708 31.5265
31.6563 31.1931
31.8418 30.915
32.0275 30.698
32.2132 30.1338
32.399 29.687
32.5848 29.1917
32.7708 28.9581
32.9569 28.6682
33.143 28.5126
33.3293 28.1202
33.5158 27.7217
33.7022 27.2331
33.8887 27.0785
34.0753 26.7114
34.262 26.3772
34.4488 25.939
34.6357 25.6146
34.8227 25.3283
35.0098 25.1584
35.1969 24.8253
35.3842 24.5509
35.5716 24.3891
35.759 24.0525
35.9468 23.6308
36.1345 23.5125
36.3222 23.1729
36.5101 22.9241
36.6981 22.6297
36.8861 22.3339
37.0743 22.0611
37.2626 21.8309
37.451 21.461
37.6395 21.3722
37.8281 20.9872
38.0168 20.7492
38.2056 20.5359
38.3945 20.1584
38.5837 19.9527
38.7728 19.7037
38.9621 19.4297
39.1514 19.1502
39.3409 18.9455
39.5304 18.6415
39.7201 18.5188
39.9099 18.3026
40.0999 18.0866
40.2899 17.792
40.48 17.5282
40.6703 17.3394
40.8607 17.1332
41.0512 16.9728
41.242 16.5983
41.4327 16.5123
41.6236 16.2194
41.8146 16.0942
42.0057 15.8449
42.1969 15.5856
42.3882 15.3935
42.5797 15.2454
42.7713 14.9669
42.963 14.7642
43.1549 14.6126
43.3468 14.354
43.5389 14.1761
43.7312 13.9698
43.9237 13.77
44.1162 13.5811
44.3088 13.413
44.5016 13.194
44.6945 13.055
44.8875 12.8435
45.0806 12.6643
45.2739 12.5005
45.4673 12.3403
45.6609 12.1521
45.8546 11.9692
46.0484 11.8234
46.2424 11.6323
46.4365 11.5129
46.631 11.3089
46.8254 11.1359
47.0199 10.9561
47.2146 10.8041
47.4095 10.6272
47.6044 10.4879
47.7996 10.3694
47.9948 10.2059
48.1902 10.0424
48.3858 9.90183
48.5815 9.7668
48.7774 9.61509
48.9734 9.4829
49.1696 9.34002
49.3661 9.19632
49.5626 9.0458
49.7592 8.90176
49.956 8.78979
50.153 8.63665
50.3501 8.50285
50.5474 8.34855
50.7448 8.25151
50.9424 8.1469
51.1402 8.00897
51.3381 7.886
51.5362 7.74504
51.7344 7.6037
51.9328 7.45594
52.1316 7.32257
52.3304 7.24132
52.5293 7.09228
52.7284 6.99987
52.9276 6.87505
53.1271 6.80161
53.3267 6.67699
53.5265 6.52521
53.7264 6.43626
53.9266 6.35395
54.1269 6.2518
54.3274 6.07972
54.528 5.95315
54.7289 5.77195
54.9301 5.62097
55.1314 5.48079
55.3328 5.27448
55.5344 5.05903
55.7361 4.93318