File: XRD/Ni3Fe_FD1066.xy
TT I
1.27165 7.21651
1.45013 5.5233
1.62863 5.15846
1.80712 4.62878
1.98562 4.09667
2.16411 4.38672
2.34263 4.50845
2.52115 6.63543
2.69965 8.63012
2.87818 9.12909
3.05672 11.1223
3.23527 14.473
3.4138 17.8927
3.59237 21.2262
3.77094 24.5188
3.9495 28.1507
4.12809 32.6201
4.30669 56.3316
4.4853 46.2353
4.6639 52.9696
4.84253 64.327
5.02118 83.1052
5.19981 229.996
5.37848 209.05
5.55716 97.7003
5.73586 88.2277
5.91455 88.8764
6.09328 4558.41
6.27201 76.199
6.45075 63.4741
6.62952 57.9428
6.8083 54.7762
6.98711 52.5293
7.16591 51.7081
7.34475 55.8194
7.5236 58.4037
7.70247 53.0414
7.88135 54.8568
8.06026 58.9054
8.23919 65.5865
8.41812 77.8133
8.59709 1104.2
8.77609 95.0465
8.9551 82.1763
9.13412 79.3175
9.31318 88.8602
9.49226 80.7521
9.67134 86.8568
9.85047 94.1947
10.0296 349.124
10.2088 450.009
10.388 98.0546
10.5672 512.288
10.7465 86.0378
10.9257 73.701
11.105 68.4556
11.2844 64.7615
11.4637 61.7461
11.6431 60.8026
11.8225 59.5713
12.002 66.4934
12.1814 146.722
12.3609 64.6191
12.5405 61.6207
12.72 64.1488
12.8996 67.8835
13.0792 76.5958
13.2589 230.496
13.4386 127.475
13.6183 237.089
13.7981 100.588
13.9779 73.6614
14.1577 75.1668
14.3376 67.5722
14.5175 66.4049
14.6974 67.5758
14.8774 110.42
15.0574 160.158
15.2374 66.3553
15.4175 64.3145
15.5976 63.4668
15.7778 94.983
15.958 169.872
16.1382 59.731
16.3185 55.5016
16.4988 53.4852
16.6792 52.6342
16.8596 52.7972
17.04 53.839
17.2205 64.8422
17.401 72.3417
17.5815 57.444
17.7622 60.1483
17.9428 73.4869
18.1237 142.85
18.3044 88.9745
18.4852 79.2565
18.666 58.9289
18.8469 56.5416
19.0278 55.2414
19.2088 58.1283
19.3898 76.3533
19.5709 53.0885
19.752 51.9685
19.9332 55.2233
20.1144 70.5343
20.2957 63.5961
20.477 52.9661
20.6586 48.3515
20.84 47.9111
21.0215 47.3437
21.203 49.6126
21.3846 47.9774
21.5662 47.7219
21.7479 51.8814
21.9297 65.4266
22.1115 55.9846
22.2933 49.1324
22.4753 47.5484
22.6572 47.7534
22.8393 51.377
23.0214 57.5285
23.2037 47.9395
23.3859 49.4725
23.5682 57.3438
23.7505 48.4594
23.9329 44.3359
24.1154 43.1964
24.2979 42.4898
24.4805 42.0969
24.6631 41.9991
24.8458 41.3402
25.0286 41.9737
25.2114 44.4257
25.3943 44.3244
25.5773 40.2646
25.7605 39.7103
25.9436 40.0734
26.1268 41.3714
26.31 39.4789
26.4933 40.1903
26.6767 42.0256
26.8601 40.1137
27.0437 38.3354
27.2272 37.965
27.4109 37.9002
27.5946 37.8369
27.7784 37.3902
27.9623 38.159
28.1462 38.611
28.3304 36.9301
28.5145 35.4736
28.6987 35.0354
28.8829 34.9563
29.0673 34.2028
29.2517 33.8732
29.4361 33.6863
29.6207 32.5814
29.8053 32.2473
29.99 32.04
30.1748 31.9497
30.3597 31.8561
30.5447 31.6708
30.7297 31.9332
30.915 31.212
31.1002 30.766
31.2855 30.4264
31.4708 30.5174
31.6563 30.0515
31.8418 29.8502
32.0275 29.6144
32.2132 29.1438
32.399 28.5653
32.5848 28.1091
32.7708 27.7341
32.9569 27.6438
33.143 27.4805
33.3293 27.1679
33.5158 26.7735
33.7022 26.3252
33.8887 26.0499
34.0753 25.608
34.262 25.299
34.4488 24.9465
34.6357 24.6495
34.8227 24.3669
35.0098 24.1277
35.1969 23.8108
35.3842 23.7458
35.5716 23.5337
35.759 23.1273
35.9468 22.7809
36.1345 22.6143
36.3222 22.4459
36.5101 22.1797
36.6981 21.9098
36.8861 21.565
37.0743 21.2382
37.2626 20.9809
37.451 20.7347
37.6395 20.5558
37.8281 20.248
38.0168 19.9194
38.2056 19.7015
38.3945 19.4458
38.5837 19.218
38.7728 18.9566
38.9621 18.7273
39.1514 18.4824
39.3409 18.1645
39.5304 18.0279
39.7201 17.854
39.9099 17.6353
40.0999 17.3545
40.2899 17.1061
40.48 16.8735
40.6703 16.7025
40.8607 16.4959
41.0512 16.3664
41.242 16.0659
41.4327 15.795
41.6236 15.6061
41.8146 15.4917
42.0057 15.2156
42.1969 15.011
42.3882 14.8078
42.5797 14.6012
42.7713 14.4146
42.963 14.2579
43.1549 13.9803
43.3468 13.8261
43.5389 13.646
43.7312 13.4713
43.9237 13.2883
44.1162 13.1123
44.3088 12.9248
44.5016 12.7141
44.6945 12.5521
44.8875 12.4009
45.0806 12.1969
45.2739 12.027
45.4673 11.8581
45.6609 11.705
45.8546 11.5802
46.0484 11.3525
46.2424 11.2264
46.4365 11.0746
46.631 10.8593
46.8254 10.7428
47.0199 10.5767
47.2146 10.457
47.4095 10.2266
47.6044 10.0611
47.7996 9.91203
47.9948 9.78428
48.1902 9.67338
48.3858 9.51891
48.5815 9.40559
48.7774 9.27525
48.9734 9.1101
49.1696 8.95804
49.3661 8.85706
49.5626 8.70254
49.7592 8.58404
49.956 8.46915
50.153 8.31079
50.3501 8.19853
50.5474 8.04721
50.7448 7.93903
50.9424 7.85045
51.1402 7.69249
51.3381 7.56375
51.5362 7.4558
51.7344 7.35476
51.9328 7.19339
52.1316 7.11355
52.3304 6.99353
52.5293 6.8674
52.7284 6.72921
52.9276 6.62162
53.1271 6.55384
53.3267 6.40166
53.5265 6.30023
53.7264 6.24588
53.9266 6.12657
54.1269 5.96792
54.3274 5.87353
54.528 5.71367
54.7289 5.57271
54.9301 5.40929
55.1314 5.30038
55.3328 5.12576
55.5344 4.94732
55.7361 4.78057