File: XRD/Ni3Fe_FD1036.xy
TT I
1.27165 6.72888
1.45013 5.58059
1.62863 4.89097
1.80712 4.50961
1.98562 4.32594
2.16411 4.3869
2.34263 5.80128
2.52115 6.73244
2.69965 8.71609
2.87818 8.76504
3.05672 11.2358
3.23527 14.9239
3.4138 18.4168
3.59237 21.2804
3.77094 24.8901
3.9495 27.8858
4.12809 32.3569
4.30669 57.1491
4.4853 46.2133
4.6639 52.9489
4.84253 64.002
5.02118 82.8395
5.19981 231.23
5.37848 218.539
5.55716 97.1682
5.73586 87.7313
5.91455 88.7569
6.09328 4581.26
6.27201 75.7999
6.45075 63.0619
6.62952 57.8488
6.8083 54.1952
6.98711 52.68
7.16591 51.5892
7.34475 55.9185
7.5236 60.0434
7.70247 53.2485
7.88135 54.7616
8.06026 59.3033
8.23919 65.7442
8.41812 77.8502
8.59709 1072.96
8.77609 94.413
8.9551 81.9773
9.13412 79.0242
9.31318 90.4533
9.49226 80.9502
9.67134 86.2124
9.85047 93.9141
10.0296 341.46
10.2088 442.294
10.388 97.6458
10.5672 503.65
10.7465 86.6394
10.9257 73.2479
11.105 68.1571
11.2844 64.5881
11.4637 61.503
11.6431 60.6771
11.8225 59.6689
12.002 67.6359
12.1814 146.931
12.3609 64.3117
12.5405 60.9862
12.72 64.0167
12.8996 67.7052
13.0792 76.2172
13.2589 225.617
13.4386 127.042
13.6183 234.579
13.7981 100.598
13.9779 73.1596
14.1577 76.1003
14.3376 67.1355
14.5175 66.0732
14.6974 67.1678
14.8774 108.423
15.0574 160.789
15.2374 66.4527
15.4175 63.7154
15.5976 63.2114
15.7778 92.9236
15.958 167.39
16.1382 59.8707
16.3185 55.2667
16.4988 53.3389
16.6792 52.4202
16.8596 52.7898
17.04 53.7502
17.2205 64.4858
17.401 71.2264
17.5815 57.0351
17.7622 59.8223
17.9428 72.7367
18.1237 141.779
18.3044 88.3618
18.4852 78.9938
18.666 58.738
18.8469 56.1872
19.0278 54.7413
19.2088 57.7487
19.3898 75.8624
19.5709 52.7454
19.752 51.6404
19.9332 55.0746
20.1144 70.0433
20.2957 63.2361
20.477 52.6652
20.6586 48.2257
20.84 47.6976
21.0215 47.1619
21.203 49.4622
21.3846 47.5818
21.5662 47.3861
21.7479 51.4155
21.9297 65.1896
22.1115 55.9111
22.2933 48.8414
22.4753 47.3688
22.6572 47.6159
22.8393 50.969
23.0214 57.2994
23.2037 47.7252
23.3859 49.1556
23.5682 56.9828
23.7505 47.9794
23.9329 44.1742
24.1154 43.0776
24.2979 42.2673
24.4805 41.7985
24.6631 41.9895
24.8458 41.0384
25.0286 41.9356
25.2114 44.025
25.3943 44.2592
25.5773 40.0223
25.7605 39.4561
25.9436 39.9586
26.1268 41.2744
26.31 39.2909
26.4933 39.888
26.6767 41.8326
26.8601 39.9188
27.0437 38.1431
27.2272 37.8838
27.4109 37.6266
27.5946 37.7085
27.7784 37.1036
27.9623 37.8413
28.1462 38.4351
28.3304 36.6558
28.5145 35.137
28.6987 34.9482
28.8829 34.7826
29.0673 34.0838
29.2517 33.5632
29.4361 33.5322
29.6207 32.4325
29.8053 32.2109
29.99 31.9253
30.1748 31.7781
30.3597 31.663
30.5447 31.5506
30.7297 31.692
30.915 31.1139
31.1002 30.5428
31.2855 30.2526
31.4708 30.3751
31.6563 29.8332
31.8418 29.5931
32.0275 29.4768
32.2132 28.8943
32.399 28.3529
32.5848 27.9837
32.7708 27.5195
32.9569 27.4103
33.143 27.2533
33.3293 26.8968
33.5158 26.5554
33.7022 26.0933
33.8887 25.865
34.0753 25.5937
34.262 25.165
34.4488 24.8372
34.6357 24.4301
34.8227 24.2445
35.0098 24.0252
35.1969 23.7754
35.3842 23.5716
35.5716 23.469
35.759 23.0903
35.9468 22.6582
36.1345 22.4706
36.3222 22.2393
36.5101 21.9909
36.6981 21.6751
36.8861 21.3975
37.0743 21.1126
37.2626 20.8631
37.451 20.6852
37.6395 20.4364
37.8281 20.1005
38.0168 19.8355
38.2056 19.5327
38.3945 19.3367
38.5837 19.063
38.7728 18.8742
38.9621 18.5909
39.1514 18.3818
39.3409 18.1176
39.5304 17.9415
39.7201 17.7809
39.9099 17.506
40.0999 17.2729
40.2899 17.0824
40.48 16.7847
40.6703 16.6476
40.8607 16.4693
41.0512 16.2278
41.242 15.998
41.4327 15.7716
41.6236 15.5527
41.8146 15.3913
42.0057 15.1043
42.1969 14.9441
42.3882 14.7548
42.5797 14.5539
42.7713 14.3844
42.963 14.1819
43.1549 13.973
43.3468 13.7624
43.5389 13.5599
43.7312 13.3965
43.9237 13.2025
44.1162 13.0137
44.3088 12.8829
44.5016 12.6841
44.6945 12.5176
44.8875 12.3232
45.0806 12.1213
45.2739 11.9756
45.4673 11.8109
45.6609 11.6346
45.8546 11.4751
46.0484 11.3301
46.2424 11.1699
46.4365 11.0082
46.631 10.8504
46.8254 10.6901
47.0199 10.4772
47.2146 10.3842
47.4095 10.1826
47.6044 10.0718
47.7996 9.91858
47.9948 9.74423
48.1902 9.58259
48.3858 9.47349
48.5815 9.36148
48.7774 9.22078
48.9734 9.02611
49.1696 8.93599
49.3661 8.80055
49.5626 8.6362
49.7592 8.49217
49.956 8.40186
50.153 8.31279
50.3501 8.16387
50.5474 8.02286
50.7448 7.91801
50.9424 7.74979
51.1402 7.67143
51.3381 7.57172
51.5362 7.40113
51.7344 7.2966
51.9328 7.18801
52.1316 7.06646
52.3304 6.9702
52.5293 6.82915
52.7284 6.72489
52.9276 6.60022
53.1271 6.49794
53.3267 6.36774
53.5265 6.29163
53.7264 6.18791
53.9266 6.05636
54.1269 5.89304
54.3274 5.85366
54.528 5.69869
54.7289 5.56636
54.9301 5.36548
55.1314 5.24621
55.3328 5.08666
55.5344 4.86626
55.7361 4.7293