File: XRD/Ni3Fe_FD0100.xy
TT I
1.27165 8.87407
1.45013 7.50271
1.62863 5.97858
1.80712 5.60156
1.98562 5.75904
2.16411 5.00425
2.34263 4.34502
2.52115 4.64767
2.69965 5.18773
2.87818 7.69072
3.05672 10.8253
3.23527 14.8463
3.4138 18.3436
3.59237 21.2342
3.77094 24.4669
3.9495 28.3052
4.12809 32.2301
4.30669 37.3377
4.4853 44.4038
4.6639 52.8236
4.84253 66.1264
5.02118 93.1374
5.19981 666.217
5.37848 678.937
5.55716 111.572
5.73586 97.4039
5.91455 111.692
6.09328 2151.93
6.27201 95.6789
6.45075 66.4203
6.62952 59.2113
6.8083 54.6077
6.98711 52.6129
7.16591 51.8724
7.34475 51.5455
7.5236 58.3405
7.70247 53.0953
7.88135 55.2157
8.06026 59.8968
8.23919 66.8611
8.41812 84.3021
8.59709 755.809
8.77609 129.77
8.9551 84.9672
9.13412 80.4835
9.31318 94.9604
9.49226 82.244
9.67134 87.2086
9.85047 98.0448
10.0296 589.254
10.2088 1202.83
10.388 104.882
10.5672 261.697
10.7465 94.981
10.9257 74.981
11.105 68.951
11.2844 65.1366
11.4637 62.3449
11.6431 61.0724
11.8225 60.0935
12.002 69.0504
12.1814 103.727
12.3609 81.4905
12.5405 61.6757
12.72 63.9989
12.8996 68.4779
13.0792 78.6555
13.2589 184.583
13.4386 253.691
13.6183 167.642
13.7981 187.628
13.9779 74.9323
14.1577 76.4805
14.3376 67.829
14.5175 67.1725
14.6974 68.5103
14.8774 120.164
15.0574 206.327
15.2374 68.4531
15.4175 65.0568
15.5976 64.7306
15.7778 107.966
15.958 175.037
16.1382 62.0201
16.3185 56.4056
16.4988 53.8985
16.6792 52.9675
16.8596 53.2297
17.04 54.5215
17.2205 62.977
17.401 80.8752
17.5815 57.9191
17.7622 60.6771
17.9428 85.035
18.1237 99.987
18.3044 87.5914
18.4852 99.6366
18.666 60.2033
18.8469 57.141
19.0278 55.7979
19.2088 61.3675
19.3898 64.9267
19.5709 56.8594
19.752 52.5316
19.9332 57.679
20.1144 63.2935
20.2957 59.4421
20.477 60.5512
20.6586 49.1092
20.84 48.3477
21.0215 48.2345
21.203 48.4486
21.3846 50.2673
21.5662 48.1418
21.7479 53.265
21.9297 58.4593
22.1115 55.94
22.2933 53.1579
22.4753 48.1541
22.6572 48.2812
22.8393 50.8194
23.0214 54.4924
23.2037 49.7163
23.3859 51.225
23.5682 50.9696
23.7505 54.7559
23.9329 44.9324
24.1154 43.5514
24.2979 42.9956
24.4805 42.1587
24.6631 42.3355
24.8458 41.8213
25.0286 42.1688
25.2114 43.2862
25.3943 43.6483
25.5773 41.5289
25.7605 40.1114
25.9436 40.2543
26.1268 40.5122
26.31 40.6414
26.4933 40.0312
26.6767 40.7937
26.8601 40.8256
27.0437 39.1067
27.2272 38.2892
27.4109 37.8549
27.5946 37.9118
27.7784 38.0387
27.9623 37.7622
28.1462 38.3975
28.3304 37.4287
28.5145 35.7542
28.6987 35.406
28.8829 34.8472
29.0673 34.6613
29.2517 33.7974
29.4361 33.4895
29.6207 33.1094
29.8053 32.5766
29.99 32.2507
30.1748 31.8646
30.3597 31.9218
30.5447 31.7948
30.7297 31.5973
30.915 31.5388
31.1002 30.8737
31.2855 30.4847
31.4708 30.4085
31.6563 30.3564
31.8418 29.7469
32.0275 29.5953
32.2132 29.2461
32.399 28.6344
32.5848 28.2054
32.7708 27.8258
32.9569 27.7533
33.143 27.4199
33.3293 27.0837
33.5158 26.8713
33.7022 26.2432
33.8887 26.0458
34.0753 25.7197
34.262 25.3861
34.4488 24.9574
34.6357 24.6026
34.8227 24.3468
35.0098 24.2039
35.1969 23.9034
35.3842 23.6293
35.5716 23.4616
35.759 23.2953
35.9468 22.8491
36.1345 22.5513
36.3222 22.4795
36.5101 22.1524
36.6981 21.8791
36.8861 21.6644
37.0743 21.2141
37.2626 20.9775
37.451 20.781
37.6395 20.6144
37.8281 20.2856
38.0168 20.0225
38.2056 19.7944
38.3945 19.4929
38.5837 19.2289
38.7728 18.9954
38.9621 18.7672
39.1514 18.5191
39.3409 18.2713
39.5304 18.0563
39.7201 17.892
39.9099 17.6138
40.0999 17.4436
40.2899 17.1328
40.48 16.9211
40.6703 16.7472
40.8607 16.5444
41.0512 16.3142
41.242 16.0553
41.4327 15.8804
41.6236 15.6423
41.8146 15.4831
42.0057 15.2473
42.1969 15.0176
42.3882 14.889
42.5797 14.6235
42.7713 14.4337
42.963 14.311
43.1549 14.0456
43.3468 13.8854
43.5389 13.664
43.7312 13.4675
43.9237 13.2774
44.1162 13.1129
44.3088 13.0001
44.5016 12.7314
44.6945 12.5551
44.8875 12.4065
45.0806 12.2065
45.2739 12.0323
45.4673 11.9122
45.6609 11.7189
45.8546 11.5299
46.0484 11.3828
46.2424 11.216
46.4365 11.0623
46.631 10.899
46.8254 10.723
47.0199 10.571
47.2146 10.44
47.4095 10.2783
47.6044 10.1058
47.7996 9.95767
47.9948 9.83328
48.1902 9.67093
48.3858 9.57405
48.5815 9.41378
48.7774 9.27746
48.9734 9.13832
49.1696 9.00724
49.3661 8.88482
49.5626 8.74014
49.7592 8.61678
49.956 8.50292
50.153 8.34436
50.3501 8.20885
50.5474 8.10049
50.7448 7.98294
50.9424 7.86668
51.1402 7.74588
51.3381 7.62841
51.5362 7.49671
51.7344 7.32923
51.9328 7.21057
52.1316 7.11775
52.3304 7.02391
52.5293 6.90618
52.7284 6.75161
52.9276 6.64217
53.1271 6.62012
53.3267 6.39322
53.5265 6.33818
53.7264 6.1992
53.9266 6.10154
54.1269 6.00097
54.3274 5.87187
54.528 5.68659
54.7289 5.51626
54.9301 5.36751
55.1314 5.21183
55.3328 5.00604
55.5344 4.78056
55.7361 4.62904