File: XRD/Ni3Fe_FD0087.xy
TT I
1.27165 9.11465
1.45013 7.30239
1.62863 6.78446
1.80712 5.71865
1.98562 5.37581
2.16411 5.16563
2.34263 4.69367
2.52115 4.23518
2.69965 4.84345
2.87818 7.20834
3.05672 11.0096
3.23527 14.5031
3.4138 18.2937
3.59237 21.3917
3.77094 24.4115
3.9495 27.8431
4.12809 32.3378
4.30669 37.1367
4.4853 44.8877
4.6639 53.3812
4.84253 66.0956
5.02118 97.015
5.19981 745.041
5.37848 978.039
5.55716 116.966
5.73586 101.157
5.91455 118.426
6.09328 1745.4
6.27201 104.54
6.45075 67.3241
6.62952 59.0133
6.8083 54.7498
6.98711 52.5067
7.16591 51.4346
7.34475 51.1719
7.5236 64.6792
7.70247 53.2074
7.88135 55.0901
8.06026 59.2936
8.23919 66.4403
8.41812 85.1923
8.59709 659.175
8.77609 146.246
8.9551 85.7129
9.13412 81.2438
9.31318 112.566
9.49226 82.1328
9.67134 87.2693
9.85047 98.5109
10.0296 605.297
10.2088 1382.56
10.388 106.752
10.5672 212.692
10.7465 103.019
10.9257 74.397
11.105 68.4735
11.2844 64.7708
11.4637 61.9877
11.6431 60.461
11.8225 59.9323
12.002 77.4413
12.1814 94.5537
12.3609 88.94
12.5405 61.5786
12.72 63.518
12.8996 67.8873
13.0792 79.2356
13.2589 169.675
13.4386 293.15
13.6183 150.94
13.7981 216.411
13.9779 75.2133
14.1577 82.2447
14.3376 67.713
14.5175 66.7379
14.6974 68.5465
14.8774 118.16
15.0574 206.531
15.2374 68.5678
15.4175 64.7358
15.5976 64.3493
15.7778 107.137
15.958 164.347
16.1382 63.8636
16.3185 56.2813
16.4988 53.9207
16.6792 52.669
16.8596 52.9526
17.04 54.4977
17.2205 61.7924
17.401 80.4837
17.5815 57.4994
17.7622 60.6479
17.9428 85.3864
18.1237 89.1505
18.3044 88.9372
18.4852 102.766
18.666 60.0659
18.8469 56.8363
19.0278 55.4993
19.2088 61.1762
19.3898 62.5808
19.5709 58.2335
19.752 51.8437
19.9332 57.2681
20.1144 60.828
20.2957 58.9232
20.477 62.3626
20.6586 48.8002
20.84 48.3421
21.0215 47.8858
21.203 47.6589
21.3846 50.0418
21.5662 47.6795
21.7479 52.6661
21.9297 55.8087
22.1115 56.5917
22.2933 53.6102
22.4753 47.7654
22.6572 47.9237
22.8393 50.2224
23.0214 52.5713
23.2037 49.8476
23.3859 51.0762
23.5682 49.3373
23.7505 56.0103
23.9329 44.7331
24.1154 43.3959
24.2979 42.6647
24.4805 42.006
24.6631 42.1512
24.8458 41.6009
25.0286 41.8135
25.2114 42.5037
25.3943 42.8972
25.5773 41.6248
25.7605 39.8399
25.9436 39.8753
26.1268 39.8742
26.31 40.6481
26.4933 39.7467
26.6767 40.0042
26.8601 40.8152
27.0437 38.8855
27.2272 38.077
27.4109 37.6225
27.5946 37.6244
27.7784 37.7919
27.9623 37.3992
28.1462 37.8723
28.3304 37.1894
28.5145 35.5321
28.6987 35.045
28.8829 34.4785
29.0673 34.5147
29.2517 33.6732
29.4361 33.2015
29.6207 32.9904
29.8053 32.2665
29.99 31.9152
30.1748 31.7295
30.3597 31.7491
30.5447 31.3734
30.7297 31.1916
30.915 31.4094
31.1002 30.7186
31.2855 30.2006
31.4708 30.0491
31.6563 30.0937
31.8418 29.507
32.0275 29.158
32.2132 29.0095
32.399 28.4219
32.5848 27.944
32.7708 27.6437
32.9569 27.5564
33.143 27.1499
33.3293 26.8788
33.5158 26.6743
33.7022 26.084
33.8887 25.73
34.0753 25.575
34.262 25.0751
34.4488 24.8433
34.6357 24.5054
34.8227 24.2424
35.0098 24.0162
35.1969 23.698
35.3842 23.4671
35.5716 23.2652
35.759 23.1081
35.9468 22.6691
36.1345 22.4238
36.3222 22.2056
36.5101 21.9406
36.6981 21.6791
36.8861 21.3919
37.0743 21.0528
37.2626 20.9034
37.451 20.5434
37.6395 20.3692
37.8281 20.102
38.0168 19.8708
38.2056 19.5345
38.3945 19.2772
38.5837 19.0739
38.7728 18.829
38.9621 18.5846
39.1514 18.3112
39.3409 18.0861
39.5304 17.8736
39.7201 17.6685
39.9099 17.4638
40.0999 17.2501
40.2899 17.0541
40.48 16.8135
40.6703 16.5812
40.8607 16.4351
41.0512 16.1694
41.242 15.9723
41.4327 15.7374
41.6236 15.5567
41.8146 15.3683
42.0057 15.1849
42.1969 14.9511
42.3882 14.7537
42.5797 14.5802
42.7713 14.3814
42.963 14.1731
43.1549 13.9693
43.3468 13.7777
43.5389 13.5665
43.7312 13.3427
43.9237 13.1792
44.1162 12.9842
44.3088 12.8058
44.5016 12.6554
44.6945 12.5068
44.8875 12.3335
45.0806 12.0948
45.2739 11.9811
45.4673 11.8366
45.6609 11.6278
45.8546 11.4671
46.0484 11.3206
46.2424 11.1543
46.4365 11.0388
46.631 10.8231
46.8254 10.615
47.0199 10.4676
47.2146 10.3406
47.4095 10.2272
47.6044 10.0423
47.7996 9.92167
47.9948 9.77568
48.1902 9.6236
48.3858 9.50305
48.5815 9.3671
48.7774 9.20971
48.9734 9.12107
49.1696 8.9636
49.3661 8.80567
49.5626 8.6485
49.7592 8.55312
49.956 8.43516
50.153 8.27903
50.3501 8.13507
50.5474 8.05407
50.7448 7.9116
50.9424 7.79001
51.1402 7.67861
51.3381 7.58255
51.5362 7.4407
51.7344 7.30618
51.9328 7.19825
52.1316 7.05187
52.3304 6.92316
52.5293 6.85397
52.7284 6.74556
52.9276 6.59113
53.1271 6.51706
53.3267 6.41097
53.5265 6.28922
53.7264 6.16856
53.9266 6.0568
54.1269 5.92412
54.3274 5.83669
54.528 5.63426
54.7289 5.47228
54.9301 5.32028
55.1314 5.12419
55.3328 4.91438
55.5344 4.70809
55.7361 4.64502