File: XRD/Ni3Fe_FD1084.xy
TT I
1.27165 7.16778
1.45013 5.48871
1.62863 4.77262
1.80712 4.84762
1.98562 4.14039
2.16411 4.1908
2.34263 5.10364
2.52115 7.18965
2.69965 8.13044
2.87818 8.53693
3.05672 10.7487
3.23527 14.444
3.4138 17.8053
3.59237 21.6523
3.77094 24.5878
3.9495 28.4474
4.12809 32.4097
4.30669 56.2234
4.4853 46.068
4.6639 53.1689
4.84253 64.7195
5.02118 82.7836
5.19981 233.136
5.37848 202.34
5.55716 97.8575
5.73586 88.1918
5.91455 89.5243
6.09328 4467.89
6.27201 75.9977
6.45075 63.6208
6.62952 58.01
6.8083 54.5715
6.98711 52.6304
7.16591 51.6092
7.34475 55.8161
7.5236 58.1533
7.70247 53.1332
7.88135 55.1627
8.06026 59.1048
8.23919 65.5925
8.41812 78.0551
8.59709 1123.26
8.77609 95.0559
8.9551 82.2553
9.13412 79.3349
9.31318 87.7277
9.49226 81.359
9.67134 86.8334
9.85047 94.4694
10.0296 354.814
10.2088 437.969
10.388 98.074
10.5672 518.341
10.7465 85.9203
10.9257 73.461
11.105 68.4551
11.2844 64.9005
11.4637 62.1406
11.6431 60.8665
11.8225 60.161
12.002 65.7951
12.1814 148.127
12.3609 64.8235
12.5405 61.7091
12.72 64.2846
12.8996 68.1999
13.0792 76.8103
13.2589 232.828
13.4386 125.182
13.6183 238.493
13.7981 99.7287
13.9779 73.582
14.1577 74.7103
14.3376 67.2542
14.5175 66.6721
14.6974 67.6443
14.8774 111.231
15.0574 157.214
15.2374 66.8575
15.4175 64.1698
15.5976 63.7819
15.7778 95.56
15.958 167.77
16.1382 59.6808
16.3185 55.7195
16.4988 53.5343
16.6792 52.6754
16.8596 53.0113
17.04 53.9647
17.2205 65.194
17.401 71.8128
17.5815 57.5645
17.7622 60.1312
17.9428 73.7235
18.1237 142.455
18.3044 89.2554
18.4852 78.5456
18.666 58.9582
18.8469 56.5414
19.0278 55.3206
19.2088 58.381
19.3898 75.7873
19.5709 53.0339
19.752 51.9211
19.9332 55.3822
20.1144 70.5611
20.2957 63.4948
20.477 52.8866
20.6586 48.5936
20.84 47.8632
21.0215 47.4533
21.203 49.7365
21.3846 48.0261
21.5662 47.6255
21.7479 52.0651
21.9297 65.1909
22.1115 55.8998
22.2933 49.0662
22.4753 47.7115
22.6572 47.7612
22.8393 51.4066
23.0214 57.2436
23.2037 47.879
23.3859 49.5186
23.5682 57.305
23.7505 48.2572
23.9329 44.4657
24.1154 43.2195
24.2979 42.5036
24.4805 42.0027
24.6631 42.0345
24.8458 41.2982
25.0286 42.197
25.2114 44.3013
25.3943 44.4738
25.5773 40.136
25.7605 39.7251
25.9436 40.2147
26.1268 41.4355
26.31 39.4501
26.4933 40.1566
26.6767 41.9878
26.8601 40.1459
27.0437 38.4599
27.2272 37.884
27.4109 37.8299
27.5946 37.9059
27.7784 37.4395
27.9623 38.1164
28.1462 38.595
28.3304 36.8688
28.5145 35.338
28.6987 35.1396
28.8829 34.985
29.0673 34.2664
29.2517 33.8059
29.4361 33.7071
29.6207 32.5241
29.8053 32.2616
29.99 32.1585
30.1748 31.8813
30.3597 31.8282
30.5447 31.796
30.7297 31.9438
30.915 31.2449
31.1002 30.746
31.2855 30.4862
31.4708 30.5546
31.6563 29.982
31.8418 29.7566
32.0275 29.5394
32.2132 29.0668
32.399 28.6075
32.5848 28.1252
32.7708 27.8135
32.9569 27.6479
33.143 27.4729
33.3293 27.1701
33.5158 26.7229
33.7022 26.267
33.8887 25.8741
34.0753 25.6311
34.262 25.3457
34.4488 24.984
34.6357 24.6166
34.8227 24.2993
35.0098 24.1892
35.1969 23.8765
35.3842 23.7577
35.5716 23.4814
35.759 23.1544
35.9468 22.8336
36.1345 22.6914
36.3222 22.3404
36.5101 22.1552
36.6981 21.8538
36.8861 21.5183
37.0743 21.2235
37.2626 20.9443
37.451 20.7012
37.6395 20.5156
37.8281 20.2029
38.0168 19.9694
38.2056 19.6618
38.3945 19.43
38.5837 19.1808
38.7728 18.993
38.9621 18.722
39.1514 18.5109
39.3409 18.2149
39.5304 18.0645
39.7201 17.9189
39.9099 17.6474
40.0999 17.3593
40.2899 17.1148
40.48 16.863
40.6703 16.6893
40.8607 16.4938
41.0512 16.3258
41.242 16.0918
41.4327 15.8384
41.6236 15.6525
41.8146 15.479
42.0057 15.2259
42.1969 15.0302
42.3882 14.8962
42.5797 14.6571
42.7713 14.4487
42.963 14.233
43.1549 14.0612
43.3468 13.7994
43.5389 13.6346
43.7312 13.4879
43.9237 13.3033
44.1162 13.063
44.3088 12.8849
44.5016 12.775
44.6945 12.5977
44.8875 12.3378
45.0806 12.2031
45.2739 12.0528
45.4673 11.8661
45.6609 11.7244
45.8546 11.59
46.0484 11.3308
46.2424 11.2118
46.4365 11.0684
46.631 10.856
46.8254 10.7157
47.0199 10.5774
47.2146 10.4097
47.4095 10.2643
47.6044 10.1129
47.7996 9.97859
47.9948 9.81051
48.1902 9.69152
48.3858 9.54624
48.5815 9.38344
48.7774 9.28787
48.9734 9.1316
49.1696 8.98822
49.3661 8.80691
49.5626 8.73019
49.7592 8.57029
49.956 8.42414
50.153 8.31881
50.3501 8.19331
50.5474 8.07299
50.7448 7.97753
50.9424 7.80823
51.1402 7.7021
51.3381 7.55704
51.5362 7.42536
51.7344 7.29801
51.9328 7.20294
52.1316 7.05943
52.3304 6.98265
52.5293 6.86001
52.7284 6.74378
52.9276 6.63442
53.1271 6.54533
53.3267 6.39841
53.5265 6.30232
53.7264 6.20524
53.9266 6.09121
54.1269 5.97839
54.3274 5.86508
54.528 5.7278
54.7289 5.60877
54.9301 5.39087
55.1314 5.2905
55.3328 5.08474
55.5344 4.89519
55.7361 4.78472