File: XRD/Ni3Fe_FD0738.xy
TT I
1.27165 7.04133
1.45013 5.54754
1.62863 4.91124
1.80712 4.70529
1.98562 4.37425
2.16411 4.79805
2.34263 5.40347
2.52115 7.13196
2.69965 8.12171
2.87818 8.72765
3.05672 11.2582
3.23527 15.0915
3.4138 19.0777
3.59237 24.1371
3.77094 26.3454
3.9495 30.121
4.12809 34.8244
4.30669 215.038
4.4853 64.8397
4.6639 55.209
4.84253 67.0067
5.02118 86.0167
5.19981 319.854
5.37848 184.174
5.55716 101.349
5.73586 91.5017
5.91455 92.5418
6.09328 4577.03
6.27201 82.3979
6.45075 67.1245
6.62952 62.696
6.8083 58.2832
6.98711 55.5981
7.16591 54.9423
7.34475 89.9906
7.5236 54.5405
7.70247 56.065
7.88135 57.571
8.06026 61.7962
8.23919 69.1751
8.41812 84.2824
8.59709 1155.04
8.77609 98.6361
8.9551 91.0205
9.13412 81.7126
9.31318 82.0953
9.49226 84.158
9.67134 97.4153
9.85047 99.1821
10.0296 324.089
10.2088 411.354
10.388 103.565
10.5672 514.24
10.7465 86.2831
10.9257 78.3085
11.105 71.3711
11.2844 70.0522
11.4637 64.6713
11.6431 63.5143
11.8225 62.2631
12.002 63.1523
12.1814 152.182
12.3609 70.3709
12.5405 64.2844
12.72 69.512
12.8996 70.6412
13.0792 78.1855
13.2589 235.598
13.4386 126.82
13.6183 247.784
13.7981 97.8998
13.9779 75.2609
14.1577 72.0568
14.3376 71.1565
14.5175 68.4437
14.6974 69.978
14.8774 108.689
15.0574 149.702
15.2374 70.7378
15.4175 66.1359
15.5976 65.3531
15.7778 93.4427
15.958 155.988
16.1382 62.3723
16.3185 58.4374
16.4988 55.4759
16.6792 54.3263
16.8596 54.8786
17.04 55.4458
17.2205 66.2499
17.401 70.5978
17.5815 59.0323
17.7622 60.6795
17.9428 72.6201
18.1237 138.407
18.3044 90.4712
18.4852 77.0917
18.666 60.2313
18.8469 57.6721
19.0278 56.5704
19.2088 59.0436
19.3898 75.859
19.5709 53.924
19.752 53.0074
19.9332 55.7383
20.1144 69.4813
20.2957 63.8158
20.477 53.5986
20.6586 49.4389
20.84 48.6963
21.0215 48.2489
21.203 50.845
21.3846 48.7231
21.5662 48.4935
21.7479 52.2953
21.9297 64.1249
22.1115 55.6726
22.2933 49.509
22.4753 48.6114
22.6572 48.4601
22.8393 51.6757
23.0214 56.8221
23.2037 48.5248
23.3859 49.35
23.5682 56.6741
23.7505 48.1645
23.9329 45.0976
24.1154 43.9198
24.2979 43.2167
24.4805 42.722
24.6631 42.5353
24.8458 42.0379
25.0286 42.6889
25.2114 44.408
25.3943 44.4319
25.5773 40.7502
25.7605 40.2905
25.9436 40.6859
26.1268 41.4606
26.31 39.965
26.4933 40.5007
26.6767 41.9316
26.8601 40.1957
27.0437 38.7152
27.2272 38.3054
27.4109 38.2594
27.5946 38.1132
27.7784 37.6357
27.9623 38.1299
28.1462 38.7176
28.3304 37.0326
28.5145 35.8237
28.6987 35.4229
28.8829 35.2255
29.0673 34.4843
29.2517 34.2606
29.4361 33.986
29.6207 32.8807
29.8053 32.7725
29.99 32.4433
30.1748 32.1994
30.3597 32.0684
30.5447 31.9672
30.7297 32.0334
30.915 31.4936
31.1002 30.9369
31.2855 30.7761
31.4708 30.6222
31.6563 30.2704
31.8418 30.0634
32.0275 29.7824
32.2132 29.193
32.399 28.8476
32.5848 28.3709
32.7708 28.0608
32.9569 27.847
33.143 27.6878
33.3293 27.2298
33.5158 26.8997
33.7022 26.4736
33.8887 26.2636
34.0753 25.8983
34.262 25.5589
34.4488 25.1989
34.6357 24.8188
34.8227 24.5916
35.0098 24.3307
35.1969 24.0956
35.3842 23.8357
35.5716 23.6868
35.759 23.3372
35.9468 23.0272
36.1345 22.8688
36.3222 22.5089
36.5101 22.3698
36.6981 22.0064
36.8861 21.7561
37.0743 21.3849
37.2626 21.2062
37.451 20.8967
37.6395 20.6576
37.8281 20.4015
38.0168 20.1109
38.2056 19.9144
38.3945 19.5605
38.5837 19.4074
38.7728 19.1133
38.9621 18.8673
39.1514 18.6411
39.3409 18.3536
39.5304 18.1712
39.7201 17.9761
39.9099 17.7262
40.0999 17.507
40.2899 17.2716
40.48 17.0438
40.6703 16.8021
40.8607 16.6709
41.0512 16.4912
41.242 16.1711
41.4327 16.0198
41.6236 15.7748
41.8146 15.5838
42.0057 15.3462
42.1969 15.2012
42.3882 14.9759
42.5797 14.7214
42.7713 14.5904
42.963 14.3876
43.1549 14.1906
43.3468 13.9187
43.5389 13.7947
43.7312 13.572
43.9237 13.361
44.1162 13.1706
44.3088 13.0619
44.5016 12.8535
44.6945 12.6945
44.8875 12.5182
45.0806 12.2634
45.2739 12.1822
45.4673 11.9869
45.6609 11.7812
45.8546 11.6473
46.0484 11.4743
46.2424 11.3144
46.4365 11.1734
46.631 11.0122
46.8254 10.8225
47.0199 10.6705
47.2146 10.496
47.4095 10.3329
47.6044 10.1952
47.7996 10.0503
47.9948 9.90428
48.1902 9.73222
48.3858 9.62729
48.5815 9.49896
48.7774 9.3621
48.9734 9.2217
49.1696 9.05373
49.3661 8.93629
49.5626 8.78778
49.7592 8.66632
49.956 8.50708
50.153 8.41227
50.3501 8.24054
50.5474 8.12114
50.7448 8.03673
50.9424 7.91208
51.1402 7.80233
51.3381 7.66777
51.5362 7.5121
51.7344 7.4036
51.9328 7.25657
52.1316 7.1355
52.3304 7.0258
52.5293 6.89872
52.7284 6.81775
52.9276 6.7151
53.1271 6.57407
53.3267 6.50084
53.5265 6.36711
53.7264 6.25239
53.9266 6.14888
54.1269 5.99697
54.3274 5.90257
54.528 5.77006
54.7289 5.59208
54.9301 5.44004
55.1314 5.33193
55.3328 5.11586
55.5344 4.98926
55.7361 4.80292