File: XRD/Ni3Fe_FD0161.xy
TT I
1.27165 7.92982
1.45013 5.97873
1.62863 5.68107
1.80712 5.27394
1.98562 5.10959
2.16411 4.22992
2.34263 4.28449
2.52115 4.62526
2.69965 5.00475
2.87818 7.63703
3.05672 11.1761
3.23527 14.7917
3.4138 18.9581
3.59237 21.7735
3.77094 24.5179
3.9495 28.813
4.12809 32.7537
4.30669 37.9293
4.4853 45.3604
4.6639 53.8963
4.84253 66.7907
5.02118 91.0862
5.19981 543.836
5.37848 433.535
5.55716 107.555
5.73586 95.9238
5.91455 105.404
6.09328 2795.06
6.27201 88.723
6.45075 66.2237
6.62952 60.0701
6.8083 56.1768
6.98711 53.7903
7.16591 52.6819
7.34475 52.1664
7.5236 55.8494
7.70247 54.1891
7.88135 56.231
8.06026 60.755
8.23919 68.4321
8.41812 83.9293
8.59709 899.743
8.77609 115.42
8.9551 85.4015
9.13412 81.6847
9.31318 86.3091
9.49226 83.6147
9.67134 89.021
9.85047 98.9372
10.0296 542.97
10.2088 968.969
10.388 104.565
10.5672 338.187
10.7465 90.8114
10.9257 75.8604
11.105 70.3162
11.2844 66.5699
11.4637 63.7056
11.6431 62.3393
11.8225 61.049
12.002 65.3182
12.1814 119.513
12.3609 75.0543
12.5405 63.314
12.72 65.4398
12.8996 69.9507
13.0792 79.3807
13.2589 206.834
13.4386 204.887
13.6183 194.714
13.7981 151.876
13.9779 76.2145
14.1577 74.0621
14.3376 69.2503
14.5175 68.4258
14.6974 69.9569
14.8774 120.933
15.0574 204.909
15.2374 69.2043
15.4175 66.5572
15.5976 65.8027
15.7778 107.55
15.958 186.069
16.1382 61.94
16.3185 57.5821
16.4988 55.2114
16.6792 54.2954
16.8596 54.4261
17.04 55.3402
17.2205 65.6309
17.401 80.8357
17.5815 59.0608
17.7622 61.6093
17.9428 83.5522
18.1237 116.302
18.3044 88.3838
18.4852 94.4311
18.666 61.1825
18.8469 58.2717
19.0278 56.9387
19.2088 61.8641
19.3898 69.5036
19.5709 56.2342
19.752 53.5641
19.9332 58.4208
20.1144 67.4028
20.2957 61.3235
20.477 58.8764
20.6586 49.9282
20.84 49.3304
21.0215 49.1919
21.203 49.9262
21.3846 50.6078
21.5662 48.8503
21.7479 54.2101
21.9297 62.4609
22.1115 56.4768
22.2933 52.6021
22.4753 49.0567
22.6572 49.3786
22.8393 52.3388
23.0214 57.3055
23.2037 50.0246
23.3859 51.8346
23.5682 53.8131
23.7505 53.1476
23.9329 45.8361
24.1154 44.4269
24.2979 43.883
24.4805 43.265
24.6631 43.2393
24.8458 42.521
25.0286 43.2566
25.2114 44.8296
25.3943 45.0595
25.5773 41.7725
25.7605 40.9501
25.9436 41.0214
26.1268 41.7876
26.31 41.1175
26.4933 41.0355
26.6767 42.2768
26.8601 41.4031
27.0437 39.6869
27.2272 39.0373
27.4109 38.8423
27.5946 38.8508
27.7784 38.614
27.9623 38.6239
28.1462 39.6257
28.3304 38.2349
28.5145 36.4962
28.6987 36.1051
28.8829 35.5695
29.0673 35.2478
29.2517 34.8115
29.4361 34.3901
29.6207 33.5764
29.8053 33.198
29.99 32.8662
30.1748 32.6726
30.3597 32.7306
30.5447 32.4365
30.7297 32.4612
30.915 32.1525
31.1002 31.4682
31.2855 31.2165
31.4708 31.1278
31.6563 31.0176
31.8418 30.4155
32.0275 30.3604
32.2132 29.786
32.399 29.1902
32.5848 28.7966
32.7708 28.5043
32.9569 28.2775
33.143 28.0725
33.3293 27.7946
33.5158 27.3718
33.7022 26.9266
33.8887 26.5929
34.0753 26.3254
34.262 25.8895
34.4488 25.5852
34.6357 25.2245
34.8227 24.9018
35.0098 24.7656
35.1969 24.4119
35.3842 24.2393
35.5716 24.0323
35.759 23.7661
35.9468 23.3846
36.1345 23.1659
36.3222 22.8942
36.5101 22.6624
36.6981 22.4447
36.8861 22.0922
37.0743 21.6784
37.2626 21.4212
37.451 21.2904
37.6395 21.0466
37.8281 20.7171
38.0168 20.4472
38.2056 20.1234
38.3945 19.9137
38.5837 19.6139
38.7728 19.4438
38.9621 19.155
39.1514 18.8825
39.3409 18.5644
39.5304 18.4256
39.7201 18.314
39.9099 18.0652
40.0999 17.7901
40.2899 17.5557
40.48 17.3031
40.6703 17.0625
40.8607 16.9175
41.0512 16.661
41.242 16.4363
41.4327 16.2511
41.6236 15.9677
41.8146 15.8234
42.0057 15.5565
42.1969 15.3614
42.3882 15.1256
42.5797 14.943
42.7713 14.7436
42.963 14.5357
43.1549 14.3292
43.3468 14.1548
43.5389 13.9436
43.7312 13.8042
43.9237 13.5678
44.1162 13.4156
44.3088 13.2273
44.5016 13.0013
44.6945 12.8404
44.8875 12.6572
45.0806 12.5422
45.2739 12.3273
45.4673 12.1313
45.6609 11.9868
45.8546 11.8164
46.0484 11.6557
46.2424 11.4672
46.4365 11.3206
46.631 11.1393
46.8254 10.935
47.0199 10.7739
47.2146 10.681
47.4095 10.5084
47.6044 10.3333
47.7996 10.1629
47.9948 10.0306
48.1902 9.88128
48.3858 9.751
48.5815 9.64039
48.7774 9.49558
48.9734 9.35775
49.1696 9.24251
49.3661 9.04849
49.5626 8.91837
49.7592 8.80416
49.956 8.65603
50.153 8.54744
50.3501 8.38932
50.5474 8.25095
50.7448 8.1625
50.9424 8.01494
51.1402 7.90909
51.3381 7.72295
51.5362 7.58276
51.7344 7.47616
51.9328 7.36928
52.1316 7.27961
52.3304 7.17791
52.5293 7.00216
52.7284 6.92351
52.9276 6.79633
53.1271 6.65194
53.3267 6.56229
53.5265 6.47498
53.7264 6.32222
53.9266 6.17557
54.1269 6.11606
54.3274 5.95541
54.528 5.79715
54.7289 5.64383
54.9301 5.44384
55.1314 5.3347
55.3328 5.1613
55.5344 4.90131
55.7361 4.80762