File: XRD/Ni3Fe_FD0059.xy
TT I
1.27165 32.5376
1.45013 26.9451
1.62863 23.065
1.80712 20.6705
1.98562 20.3508
2.16411 19.9198
2.34263 20.6632
2.52115 21.9241
2.69965 25.6601
2.87818 36.1516
3.05672 63.9853
3.23527 63.6471
3.4138 33.5973
3.59237 26.6199
3.77094 25.7031
3.9495 27.2708
4.12809 29.6597
4.30669 37.7012
4.4853 37.8281
4.6639 43.6317
4.84253 55.9396
5.02118 106.175
5.19981 331.819
5.37848 2874.01
5.55716 149.436
5.73586 103.517
5.91455 121.125
6.09328 603.99
6.27201 203.688
6.45075 64.1685
6.62952 48.1799
6.8083 42.2517
6.98711 41.4605
7.16591 43.8235
7.34475 39.8926
7.5236 64.2573
7.70247 44.1794
7.88135 39.4539
8.06026 41.4877
8.23919 47.4592
8.41812 61.0369
8.59709 194.874
8.77609 317.163
8.9551 74.2243
9.13412 66.5594
9.31318 304.843
9.49226 60.3847
9.67134 59.1112
9.85047 65.6903
10.0296 128.885
10.2088 703.377
10.388 96.4439
10.5672 101.353
10.7465 178.915
10.9257 52.7035
11.105 45.8298
11.2844 43.8625
11.4637 40.9452
11.6431 40.2326
11.8225 41.1769
12.002 116.535
12.1814 51.4308
12.3609 80.4033
12.5405 42.6402
12.72 40.7963
12.8996 42.6428
13.0792 50.0094
13.2589 70.1118
13.4386 188.58
13.6183 79.5678
13.7981 176.3
13.9779 54.2113
14.1577 70.1431
14.3376 47.1277
14.5175 42.7651
14.6974 42.545
14.8774 50.3007
15.0574 82.191
15.2374 57.0126
15.4175 42.4629
15.5976 41.5037
15.7778 46.9829
15.958 67.9648
16.1382 72.9997
16.3185 38.5924
16.4988 35.423
16.6792 34.5551
16.8596 34.7754
17.04 41.1249
17.2205 36.2184
17.401 42.1191
17.5815 38.8369
17.7622 39.1608
17.9428 41.5147
18.1237 46.7565
18.3044 75.2578
18.4852 57.0284
18.666 46.5687
18.8469 37.4326
19.0278 35.9932
19.2088 36.3921
19.3898 47.6897
19.5709 43.0988
19.752 34.3828
19.9332 33.9197
20.1144 34.8121
20.2957 41.5862
20.477 39.5789
20.6586 33.0931
20.84 35.1465
21.0215 30.6714
21.203 30.5941
21.3846 31.7057
21.5662 31.6434
21.7479 31.4518
21.9297 32.7504
22.1115 39.8899
22.2933 36.4681
22.4753 31.6116
22.6572 30.7965
22.8393 32.2744
23.0214 32.1057
23.2037 35.9294
23.3859 31.8442
23.5682 32.7486
23.7505 35.8052
23.9329 31.0855
24.1154 29.5173
24.2979 28.1489
24.4805 27.5784
24.6631 28.0494
24.8458 27.4343
25.0286 27.0117
25.2114 27.3523
25.3943 28.4598
25.5773 28.6169
25.7605 26.546
25.9436 26.6128
26.1268 25.9969
26.31 26.8652
26.4933 26.0139
26.6767 26.0303
26.8601 27.3165
27.0437 27.0179
27.2272 25.2816
27.4109 24.8847
27.5946 24.9151
27.7784 24.9844
27.9623 24.4794
28.1462 25.0783
28.3304 25.3176
28.5145 24.3644
28.6987 23.5517
28.8829 23.022
29.0673 22.8814
29.2517 22.5598
29.4361 22.0167
29.6207 22.0285
29.8053 21.5959
29.99 21.3431
30.1748 21.3703
30.3597 21.0741
30.5447 21.1152
30.7297 20.7772
30.915 21.0808
31.1002 20.8904
31.2855 20.424
31.4708 20.2183
31.6563 20.2005
31.8418 20.0682
32.0275 19.7468
32.2132 19.6495
32.399 19.4311
32.5848 19.0826
32.7708 18.626
32.9569 18.5915
33.143 18.4254
33.3293 18.2472
33.5158 18.2115
33.7022 17.8171
33.8887 17.5696
34.0753 17.2767
34.262 17.0677
34.4488 16.8444
34.6357 16.7582
34.8227 16.4906
35.0098 16.3962
35.1969 16.0986
35.3842 15.9314
35.5716 15.9271
35.759 15.8418
35.9468 15.6172
36.1345 15.3356
36.3222 15.2679
36.5101 15.0792
36.6981 14.897
36.8861 14.6739
37.0743 14.4574
37.2626 14.3693
37.451 14.1378
37.6395 14.0558
37.8281 13.8279
38.0168 13.6635
38.2056 13.5139
38.3945 13.3247
38.5837 13.0954
38.7728 12.9726
38.9621 12.8556
39.1514 12.6926
39.3409 12.4918
39.5304 12.4279
39.7201 12.2535
39.9099 12.08
40.0999 11.9464
40.2899 11.7898
40.48 11.6446
40.6703 11.5151
40.8607 11.4011
41.0512 11.311
41.242 11.082
41.4327 10.9718
41.6236 10.8891
41.8146 10.6788
42.0057 10.5889
42.1969 10.4078
42.3882 10.2889
42.5797 10.1385
42.7713 9.99054
42.963 9.86079
43.1549 9.73618
43.3468 9.62288
43.5389 9.50559
43.7312 9.38699
43.9237 9.29321
44.1162 9.0932
44.3088 9.03644
44.5016 8.90075
44.6945 8.73556
44.8875 8.67499
45.0806 8.55545
45.2739 8.41644
45.4673 8.33995
45.6609 8.17988
45.8546 8.0745
46.0484 7.98104
46.2424 7.87207
46.4365 7.76266
46.631 7.65248
46.8254 7.56469
47.0199 7.4587
47.2146 7.35484
47.4095 7.21416
47.6044 7.12814
47.7996 7.00277
47.9948 6.94217
48.1902 6.82503
48.3858 6.7331
48.5815 6.65956
48.7774 6.53083
48.9734 6.43684
49.1696 6.35226
49.3661 6.26392
49.5626 6.15262
49.7592 6.11178
49.956 6.01572
50.153 5.90648
50.3501 5.83067
50.5474 5.77289
50.7448 5.66906
50.9424 5.59406
51.1402 5.50895
51.3381 5.39449
51.5362 5.31776
51.7344 5.25136
51.9328 5.18751
52.1316 5.08415
52.3304 5.02525
52.5293 4.93225
52.7284 4.86233
52.9276 4.76585
53.1271 4.72684
53.3267 4.63565
53.5265 4.56776
53.7264 4.44041
53.9266 4.38152
54.1269 4.27119
54.3274 4.19529
54.528 4.05866
54.7289 3.96652
54.9301 3.85183
55.1314 3.7565
55.3328 3.55122
55.5344 3.45608
55.7361 3.35233