File: XRD/Ni3Fe_FD0873.xy
TT I
1.27165 7.13397
1.45013 6.01667
1.62863 5.2223
1.80712 4.4275
1.98562 4.87446
2.16411 5.3133
2.34263 5.5805
2.52115 7.58489
2.69965 8.45469
2.87818 9.08021
3.05672 11.3461
3.23527 15.1811
3.4138 18.8926
3.59237 24.1901
3.77094 26.2944
3.9495 29.6148
4.12809 34.5267
4.30669 249.181
4.4853 68.4524
4.6639 54.8668
4.84253 65.8065
5.02118 84.4141
5.19981 288.583
5.37848 178.705
5.55716 100.174
5.73586 90.2918
5.91455 91.1051
6.09328 4366.21
6.27201 81.6313
6.45075 66.2186
6.62952 62.2237
6.8083 58.1591
6.98711 55.3608
7.16591 55.0626
7.34475 97.8479
7.5236 54.2406
7.70247 55.5024
7.88135 56.976
8.06026 61.0528
8.23919 68.3431
8.41812 83.6439
8.59709 1107.45
8.77609 97.3093
8.9551 91.0545
9.13412 80.4145
9.31318 81.1006
9.49226 83.0211
9.67134 98.6887
9.85047 97.465
10.0296 295.781
10.2088 408.871
10.388 102.598
10.5672 522.902
10.7465 85.1951
10.9257 77.4279
11.105 70.7702
11.2844 69.8899
11.4637 64.346
11.6431 62.6991
11.8225 61.4563
12.002 62.1273
12.1814 149.335
12.3609 70.6825
12.5405 63.7206
12.72 69.9123
12.8996 69.6007
13.0792 77.0352
13.2589 224.197
13.4386 123.695
13.6183 239.851
13.7981 95.9556
13.9779 74.7209
14.1577 71.4036
14.3376 70.7795
14.5175 67.6964
14.6974 69.1408
14.8774 104.745
15.0574 146.175
15.2374 70.3352
15.4175 65.1352
15.5976 64.5894
15.7778 89.6428
15.958 156.672
16.1382 62.2903
16.3185 58.161
16.4988 54.7869
16.6792 53.5854
16.8596 54.2966
17.04 54.6468
17.2205 64.6449
17.401 70.0306
17.5815 58.3383
17.7622 60.034
17.9428 70.7515
18.1237 138.779
18.3044 88.9636
18.4852 76.5575
18.666 59.5935
18.8469 57.1028
19.0278 56.0455
19.2088 58.345
19.3898 76.2571
19.5709 53.4304
19.752 52.4478
19.9332 54.925
20.1144 69.3388
20.2957 63.3498
20.477 53.326
20.6586 48.8949
20.84 48.0471
21.0215 47.7874
21.203 50.1427
21.3846 48.1797
21.5662 48.07
21.7479 51.4157
21.9297 63.8723
22.1115 55.528
22.2933 49.1671
22.4753 48.2898
22.6572 47.9358
22.8393 50.943
23.0214 56.6939
23.2037 47.9917
23.3859 48.8121
23.5682 56.4379
23.7505 47.6622
23.9329 44.6468
24.1154 43.492
24.2979 42.7439
24.4805 42.2774
24.6631 42.3304
24.8458 41.7384
25.0286 42.1111
25.2114 43.947
25.3943 44.0561
25.5773 40.3455
25.7605 39.8913
25.9436 40.2387
26.1268 41.2325
26.31 39.4768
26.4933 40.2044
26.6767 41.6189
26.8601 40.013
27.0437 38.2835
27.2272 37.8815
27.4109 37.9901
27.5946 37.906
27.7784 37.3672
27.9623 37.8168
28.1462 38.285
28.3304 36.8311
28.5145 35.4655
28.6987 35.3217
28.8829 34.8441
29.0673 34.2933
29.2517 33.763
29.4361 33.7296
29.6207 32.7472
29.8053 32.4218
29.99 32.2382
30.1748 31.9833
30.3597 31.8578
30.5447 31.7708
30.7297 31.8247
30.915 31.1279
31.1002 30.6512
31.2855 30.507
31.4708 30.4219
31.6563 29.9753
31.8418 29.7828
32.0275 29.6131
32.2132 28.985
32.399 28.5433
32.5848 28.1625
32.7708 27.7156
32.9569 27.6878
33.143 27.3779
33.3293 27.0653
33.5158 26.6961
33.7022 26.2078
33.8887 26.0174
34.0753 25.6815
34.262 25.3648
34.4488 24.8672
34.6357 24.6412
34.8227 24.4401
35.0098 24.2067
35.1969 23.8656
35.3842 23.6778
35.5716 23.4834
35.759 23.1625
35.9468 22.8177
36.1345 22.6108
36.3222 22.4237
36.5101 22.1339
36.6981 21.8016
36.8861 21.5075
37.0743 21.2332
37.2626 21.0823
37.451 20.7177
37.6395 20.5605
37.8281 20.2361
38.0168 19.9221
38.2056 19.7709
38.3945 19.3639
38.5837 19.1653
38.7728 19.0011
38.9621 18.7104
39.1514 18.4038
39.3409 18.2009
39.5304 17.9659
39.7201 17.8172
39.9099 17.5884
40.0999 17.3621
40.2899 17.1417
40.48 16.9434
40.6703 16.6483
40.8607 16.5086
41.0512 16.2989
41.242 16.0549
41.4327 15.8465
41.6236 15.6128
41.8146 15.453
42.0057 15.23
42.1969 15.0139
42.3882 14.9339
42.5797 14.6691
42.7713 14.4356
42.963 14.243
43.1549 14.0267
43.3468 13.8437
43.5389 13.6659
43.7312 13.4556
43.9237 13.3031
44.1162 13.1277
44.3088 12.9015
44.5016 12.7268
44.6945 12.5927
44.8875 12.4008
45.0806 12.2253
45.2739 12.0462
45.4673 11.8728
45.6609 11.7156
45.8546 11.6049
46.0484 11.4132
46.2424 11.2484
46.4365 11.0294
46.631 10.9004
46.8254 10.7413
47.0199 10.5559
47.2146 10.4387
47.4095 10.2969
47.6044 10.1014
47.7996 9.95211
47.9948 9.81113
48.1902 9.68865
48.3858 9.56124
48.5815 9.42779
48.7774 9.28593
48.9734 9.13288
49.1696 8.96501
49.3661 8.84237
49.5626 8.68682
49.7592 8.57442
49.956 8.46387
50.153 8.34199
50.3501 8.22238
50.5474 8.06447
50.7448 7.97199
50.9424 7.84865
51.1402 7.72378
51.3381 7.58803
51.5362 7.47021
51.7344 7.32864
51.9328 7.206
52.1316 7.04516
52.3304 6.99475
52.5293 6.90939
52.7284 6.7651
52.9276 6.61436
53.1271 6.52663
53.3267 6.41134
53.5265 6.28197
53.7264 6.19005
53.9266 6.08132
54.1269 5.94878
54.3274 5.88094
54.528 5.79741
54.7289 5.54716
54.9301 5.35663
55.1314 5.29491
55.3328 5.09039
55.5344 4.88805
55.7361 4.69698