File: XRD/Ni3Fe_FD0959.xy
TT I
1.27165 7.36472
1.45013 6.11987
1.62863 5.3061
1.80712 5.01073
1.98562 4.76324
2.16411 4.50017
2.34263 5.92874
2.52115 7.12224
2.69965 8.32896
2.87818 9.66564
3.05672 11.1399
3.23527 15.0912
3.4138 18.8263
3.59237 23.3273
3.77094 25.8498
3.9495 29.8109
4.12809 34.318
4.30669 174.957
4.4853 60.3006
4.6639 54.846
4.84253 66.5027
5.02118 85.2603
5.19981 289.515
5.37848 175.773
5.55716 99.8444
5.73586 90.3846
5.91455 91.0155
6.09328 4563.82
6.27201 80.3579
6.45075 66.319
6.62952 61.6601
6.8083 57.4396
6.98711 54.7722
7.16591 54.2866
7.34475 82.1846
7.5236 53.859
7.70247 55.4191
7.88135 56.8631
8.06026 61.6706
8.23919 67.9902
8.41812 83.0806
8.59709 1169.34
8.77609 96.0384
8.9551 88.9347
9.13412 80.8308
9.31318 81.4547
9.49226 83.3465
9.67134 95.4485
9.85047 98.1841
10.0296 309.148
10.2088 361.279
10.388 101.102
10.5672 526.656
10.7465 84.5849
10.9257 76.7773
11.105 70.6551
11.2844 68.5283
11.4637 63.7486
11.6431 62.509
11.8225 61.2962
12.002 62.3079
12.1814 156.169
12.3609 68.1461
12.5405 63.2806
12.72 68.0241
12.8996 69.6782
13.0792 77.5712
13.2589 238.803
13.4386 118.958
13.6183 250.863
13.7981 94.6046
13.9779 74.485
14.1577 70.9905
14.3376 69.7879
14.5175 67.5129
14.6974 68.8985
14.8774 107.41
15.0574 144.388
15.2374 69.2378
15.4175 65.1279
15.5976 64.4073
15.7778 92.3401
15.958 148.756
16.1382 60.9786
16.3185 57.5424
16.4988 54.3374
16.6792 53.3804
16.8596 53.9061
17.04 54.4259
17.2205 65.5857
17.401 68.912
17.5815 57.9856
17.7622 60.0498
17.9428 71.3039
18.1237 137.163
18.3044 90.1373
18.4852 74.9482
18.666 59.2112
18.8469 56.905
19.0278 55.8363
19.2088 58.1128
19.3898 74.3277
19.5709 53.1237
19.752 52.2336
19.9332 55.055
20.1144 68.5743
20.2957 63.6882
20.477 52.4544
20.6586 48.7187
20.84 47.8964
21.0215 47.6749
21.203 50.0273
21.3846 48.0002
21.5662 47.8172
21.7479 51.5221
21.9297 63.418
22.1115 55.2387
22.2933 48.9068
22.4753 47.8096
22.6572 47.8105
22.8393 50.9225
23.0214 55.97
23.2037 47.8928
23.3859 48.7295
23.5682 56.3962
23.7505 47.2843
23.9329 44.2304
24.1154 43.2938
24.2979 42.5815
24.4805 42.1008
24.6631 41.9544
24.8458 41.5414
25.0286 42.2026
25.2114 43.8815
25.3943 43.68
25.5773 40.2132
25.7605 39.722
25.9436 40.0464
26.1268 40.963
26.31 39.3928
26.4933 39.9994
26.6767 41.2789
26.8601 39.7292
27.0437 38.1531
27.2272 37.7977
27.4109 37.6883
27.5946 37.7109
27.7784 37.1243
27.9623 37.7833
28.1462 38.1225
28.3304 36.4916
28.5145 35.3638
28.6987 35.0041
28.8829 34.8289
29.0673 34.0807
29.2517 33.7025
29.4361 33.4977
29.6207 32.4709
29.8053 32.3233
29.99 32.035
30.1748 31.8686
30.3597 31.6731
30.5447 31.6044
30.7297 31.5999
30.915 31.0483
31.1002 30.5052
31.2855 30.2966
31.4708 30.2388
31.6563 29.8703
31.8418 29.6481
32.0275 29.3902
32.2132 28.8469
32.399 28.3893
32.5848 27.9238
32.7708 27.5836
32.9569 27.485
33.143 27.2408
33.3293 26.9486
33.5158 26.6735
33.7022 26.1922
33.8887 25.8699
34.0753 25.5355
34.262 25.2016
34.4488 24.8301
34.6357 24.5857
34.8227 24.3249
35.0098 24.0597
35.1969 23.8153
35.3842 23.617
35.5716 23.3675
35.759 23.0891
35.9468 22.6996
36.1345 22.5101
36.3222 22.3058
36.5101 22.0496
36.6981 21.7358
36.8861 21.4382
37.0743 21.1316
37.2626 20.8743
37.451 20.6259
37.6395 20.4833
37.8281 20.1668
38.0168 19.8229
38.2056 19.6159
38.3945 19.3948
38.5837 19.1419
38.7728 18.9001
38.9621 18.6002
39.1514 18.3935
39.3409 18.104
39.5304 17.9433
39.7201 17.7442
39.9099 17.5443
40.0999 17.3011
40.2899 17.0434
40.48 16.8472
40.6703 16.6183
40.8607 16.3985
41.0512 16.173
41.242 15.9133
41.4327 15.8006
41.6236 15.6043
41.8146 15.3391
42.0057 15.1406
42.1969 14.964
42.3882 14.7575
42.5797 14.5781
42.7713 14.3061
42.963 14.23
43.1549 13.9737
43.3468 13.7993
43.5389 13.6289
43.7312 13.4075
43.9237 13.2257
44.1162 13.0425
44.3088 12.8439
44.5016 12.6935
44.6945 12.5033
44.8875 12.3552
45.0806 12.17
45.2739 12.0038
45.4673 11.8436
45.6609 11.6548
45.8546 11.493
46.0484 11.3421
46.2424 11.1491
46.4365 11.0022
46.631 10.8121
46.8254 10.686
47.0199 10.53
47.2146 10.3579
47.4095 10.1884
47.6044 10.0583
47.7996 9.91371
47.9948 9.76096
48.1902 9.63464
48.3858 9.4798
48.5815 9.35549
48.7774 9.26907
48.9734 9.08985
49.1696 8.94708
49.3661 8.83151
49.5626 8.69558
49.7592 8.53146
49.956 8.43335
50.153 8.2798
50.3501 8.13666
50.5474 8.06081
50.7448 7.94188
50.9424 7.79694
51.1402 7.65359
51.3381 7.54538
51.5362 7.42786
51.7344 7.2967
51.9328 7.16161
52.1316 7.09035
52.3304 6.9712
52.5293 6.83315
52.7284 6.73704
52.9276 6.60545
53.1271 6.52027
53.3267 6.38879
53.5265 6.31185
53.7264 6.19082
53.9266 6.03803
54.1269 5.93132
54.3274 5.84175
54.528 5.71895
54.7289 5.5862
54.9301 5.38246
55.1314 5.24236
55.3328 5.05592
55.5344 4.87362
55.7361 4.74246