File: XRD/Ni3Fe_FD0858.xy
TT I
1.27165 7.46462
1.45013 5.79683
1.62863 5.03698
1.80712 4.81461
1.98562 4.46343
2.16411 4.75865
2.34263 5.89661
2.52115 7.03079
2.69965 8.13764
2.87818 9.13307
3.05672 10.8854
3.23527 15.0536
3.4138 18.7319
3.59237 23.4891
3.77094 25.665
3.9495 29.512
4.12809 35.0768
4.30669 219.069
4.4853 65.3239
4.6639 54.6871
4.84253 66.2402
5.02118 84.8595
5.19981 295.429
5.37848 177.065
5.55716 100.056
5.73586 90.4476
5.91455 91.9462
6.09328 4394.53
6.27201 80.9639
6.45075 66.5062
6.62952 62.3142
6.8083 57.892
6.98711 55.3276
7.16591 54.4275
7.34475 91.0161
7.5236 54.0027
7.70247 55.5073
7.88135 57.3033
8.06026 61.3902
8.23919 68.7305
8.41812 83.2073
8.59709 1132.14
8.77609 97.4723
8.9551 90.7969
9.13412 80.9316
9.31318 81.3065
9.49226 83.2526
9.67134 97.0556
9.85047 97.9907
10.0296 305.804
10.2088 397.071
10.388 102.86
10.5672 527.202
10.7465 85.1572
10.9257 77.4078
11.105 70.7106
11.2844 69.5677
11.4637 64.2257
11.6431 63.0849
11.8225 61.5231
12.002 62.552
12.1814 153.071
12.3609 69.7593
12.5405 63.6161
12.72 69.2
12.8996 70.1865
13.0792 77.2506
13.2589 232.436
13.4386 121.279
13.6183 247.093
13.7981 95.8296
13.9779 74.7887
14.1577 71.5414
14.3376 70.6393
14.5175 67.8538
14.6974 69.564
14.8774 106.481
15.0574 147.486
15.2374 70.0915
15.4175 65.1837
15.5976 64.6708
15.7778 91.2498
15.958 153.683
16.1382 61.8793
16.3185 57.8275
16.4988 54.7377
16.6792 53.839
16.8596 54.4057
17.04 54.9699
17.2205 65.6379
17.401 70.0744
17.5815 58.1567
17.7622 60.2929
17.9428 71.5862
18.1237 137.598
18.3044 89.7729
18.4852 76.1159
18.666 59.5315
18.8469 57.3189
19.0278 56.014
19.2088 58.5165
19.3898 75.928
19.5709 53.6135
19.752 52.5136
19.9332 55.0
20.1144 68.9025
20.2957 63.6429
20.477 52.8294
20.6586 49.0047
20.84 48.1932
21.0215 47.9456
21.203 50.4097
21.3846 48.2603
21.5662 48.0541
21.7479 51.4806
21.9297 63.5849
22.1115 55.3792
22.2933 49.0844
22.4753 48.413
22.6572 47.9822
22.8393 51.0437
23.0214 56.5308
23.2037 48.1626
23.3859 48.7961
23.5682 56.5008
23.7505 47.7253
23.9329 44.7187
24.1154 43.5478
24.2979 42.9271
24.4805 42.3306
24.6631 42.2859
24.8458 41.7147
25.0286 42.3097
25.2114 44.1713
25.3943 44.0884
25.5773 40.3212
25.7605 39.9662
25.9436 40.3768
26.1268 41.1192
26.31 39.6178
26.4933 40.2202
26.6767 41.547
26.8601 39.9905
27.0437 38.3657
27.2272 38.1535
27.4109 37.9499
27.5946 37.9551
27.7784 37.3245
27.9623 37.9446
28.1462 38.2104
28.3304 36.748
28.5145 35.4845
28.6987 35.033
28.8829 35.0049
29.0673 34.1988
29.2517 34.0203
29.4361 33.6889
29.6207 32.7339
29.8053 32.5094
29.99 32.1516
30.1748 32.0015
30.3597 31.8126
30.5447 31.6926
30.7297 31.8082
30.915 31.201
31.1002 30.6388
31.2855 30.3952
31.4708 30.466
31.6563 29.9744
31.8418 29.7765
32.0275 29.5314
32.2132 28.971
32.399 28.5546
32.5848 28.1499
32.7708 27.7625
32.9569 27.6696
33.143 27.4174
33.3293 27.079
33.5158 26.6429
33.7022 26.239
33.8887 26.0521
34.0753 25.6775
34.262 25.296
34.4488 24.9691
34.6357 24.5549
34.8227 24.3771
35.0098 24.1632
35.1969 23.9054
35.3842 23.7225
35.5716 23.4264
35.759 23.1979
35.9468 22.8495
36.1345 22.543
36.3222 22.3536
36.5101 22.1666
36.6981 21.8814
36.8861 21.5368
37.0743 21.3133
37.2626 20.985
37.451 20.75
37.6395 20.5231
37.8281 20.1976
38.0168 19.9482
38.2056 19.6943
38.3945 19.4371
38.5837 19.2181
38.7728 18.9687
38.9621 18.7622
39.1514 18.4763
39.3409 18.2275
39.5304 18.0673
39.7201 17.7824
39.9099 17.6417
40.0999 17.3776
40.2899 17.2002
40.48 16.8463
40.6703 16.6935
40.8607 16.5347
41.0512 16.2861
41.242 16.0448
41.4327 15.9147
41.6236 15.5702
41.8146 15.4622
42.0057 15.2596
42.1969 15.0066
42.3882 14.8798
42.5797 14.6229
42.7713 14.4721
42.963 14.2504
43.1549 14.0902
43.3468 13.8434
43.5389 13.677
43.7312 13.4707
43.9237 13.3086
44.1162 13.162
44.3088 12.9456
44.5016 12.7426
44.6945 12.5796
44.8875 12.4056
45.0806 12.1941
45.2739 12.0726
45.4673 11.8862
45.6609 11.7534
45.8546 11.5984
46.0484 11.3913
46.2424 11.2696
46.4365 11.1035
46.631 10.8511
46.8254 10.6892
47.0199 10.5909
47.2146 10.408
47.4095 10.2914
47.6044 10.1649
47.7996 9.98039
47.9948 9.80418
48.1902 9.71885
48.3858 9.54393
48.5815 9.39019
48.7774 9.28184
48.9734 9.16261
49.1696 9.00575
49.3661 8.83564
49.5626 8.69384
49.7592 8.57618
49.956 8.46974
50.153 8.2912
50.3501 8.20703
50.5474 8.08731
50.7448 7.93852
50.9424 7.81577
51.1402 7.70808
51.3381 7.57445
51.5362 7.46262
51.7344 7.32977
51.9328 7.22633
52.1316 7.12689
52.3304 6.96146
52.5293 6.8858
52.7284 6.7579
52.9276 6.64507
53.1271 6.54545
53.3267 6.43057
53.5265 6.30206
53.7264 6.23182
53.9266 6.10026
54.1269 5.99574
54.3274 5.90483
54.528 5.79238
54.7289 5.56738
54.9301 5.4121
55.1314 5.30646
55.3328 5.10062
55.5344 4.90061
55.7361 4.77545