File: XRD/Ni3Fe_FD0721.xy
TT I
1.27165 7.3852
1.45013 6.70958
1.62863 4.9854
1.80712 4.97204
1.98562 4.61878
2.16411 4.85724
2.34263 5.39766
2.52115 6.56626
2.69965 8.13429
2.87818 8.75361
3.05672 11.2496
3.23527 15.1549
3.4138 18.8322
3.59237 23.4161
3.77094 26.1079
3.9495 29.644
4.12809 34.5033
4.30669 159.009
4.4853 59.2258
4.6639 55.4391
4.84253 67.2454
5.02118 86.8451
5.19981 355.378
5.37848 190.038
5.55716 102.423
5.73586 92.406
5.91455 94.3676
6.09328 4434.59
6.27201 82.3596
6.45075 67.9157
6.62952 62.7416
6.8083 58.6996
6.98711 55.7423
7.16591 55.6969
7.34475 78.7933
7.5236 54.2861
7.70247 56.209
7.88135 57.7009
8.06026 62.2627
8.23919 69.3327
8.41812 84.8439
8.59709 1224.27
8.77609 98.7547
8.9551 90.3716
9.13412 82.174
9.31318 82.6071
9.49226 84.9716
9.67134 96.4496
9.85047 100.096
10.0296 349.159
10.2088 408.311
10.388 104.08
10.5672 500.384
10.7465 86.3571
10.9257 77.8744
11.105 71.5825
11.2844 69.3241
11.4637 64.6284
11.6431 63.3877
11.8225 62.1983
12.002 63.3674
12.1814 153.88
12.3609 68.8745
12.5405 64.3626
12.72 68.9777
12.8996 70.9782
13.0792 78.9923
13.2589 245.501
13.4386 126.196
13.6183 254.897
13.7981 97.5321
13.9779 75.4762
14.1577 72.1935
14.3376 70.9441
14.5175 68.4944
14.6974 70.4115
14.8774 112.848
15.0574 147.228
15.2374 70.3348
15.4175 66.0995
15.5976 65.7163
15.7778 96.0975
15.958 154.152
16.1382 61.9141
16.3185 58.2714
16.4988 55.4529
16.6792 54.4113
16.8596 55.0247
17.04 55.8023
17.2205 67.1796
17.401 70.6832
17.5815 58.989
17.7622 61.1743
17.9428 73.8433
18.1237 138.297
18.3044 91.0791
18.4852 77.2842
18.666 60.0941
18.8469 58.0394
19.0278 56.7041
19.2088 59.2377
19.3898 75.236
19.5709 54.1164
19.752 53.25
19.9332 56.2151
20.1144 69.0889
20.2957 63.8228
20.477 53.5233
20.6586 49.6183
20.84 48.6394
21.0215 48.4437
21.203 50.6305
21.3846 48.944
21.5662 48.8377
21.7479 52.682
21.9297 64.4129
22.1115 55.9345
22.2933 49.8078
22.4753 48.7282
22.6572 48.6715
22.8393 52.0187
23.0214 57.1769
23.2037 48.7511
23.3859 49.7159
23.5682 56.8189
23.7505 48.0791
23.9329 45.1171
24.1154 44.1482
24.2979 43.4057
24.4805 42.8561
24.6631 42.7967
24.8458 42.2016
25.0286 42.9079
25.2114 44.5722
25.3943 44.3299
25.5773 40.8677
25.7605 40.3137
25.9436 40.8213
26.1268 41.4909
26.31 39.9361
26.4933 40.6476
26.6767 42.0256
26.8601 40.3731
27.0437 38.781
27.2272 38.486
27.4109 38.2705
27.5946 38.3403
27.7784 37.76
27.9623 38.3473
28.1462 38.7218
28.3304 37.0081
28.5145 36.0321
28.6987 35.5138
28.8829 35.4343
29.0673 34.6531
29.2517 34.3335
29.4361 33.9408
29.6207 33.086
29.8053 32.822
29.99 32.5783
30.1748 32.4312
30.3597 32.2387
30.5447 32.0505
30.7297 32.1457
30.915 31.5464
31.1002 30.9488
31.2855 30.8893
31.4708 30.8589
31.6563 30.3323
31.8418 30.126
32.0275 29.8312
32.2132 29.2822
32.399 28.8864
32.5848 28.3793
32.7708 28.0738
32.9569 27.932
33.143 27.7211
33.3293 27.2997
33.5158 27.0112
33.7022 26.5827
33.8887 26.2911
34.0753 25.8765
34.262 25.631
34.4488 25.2698
34.6357 24.8706
34.8227 24.6618
35.0098 24.4436
35.1969 24.2035
35.3842 23.943
35.5716 23.6634
35.759 23.3862
35.9468 23.1752
36.1345 22.7882
36.3222 22.6193
36.5101 22.3581
36.6981 22.1009
36.8861 21.7658
37.0743 21.5236
37.2626 21.3179
37.451 20.94
37.6395 20.7744
37.8281 20.4181
38.0168 20.145
38.2056 19.916
38.3945 19.6207
38.5837 19.4339
38.7728 19.2153
38.9621 18.9521
39.1514 18.6457
39.3409 18.3782
39.5304 18.2379
39.7201 17.989
39.9099 17.8426
40.0999 17.5542
40.2899 17.3189
40.48 17.0786
40.6703 16.8632
40.8607 16.7404
41.0512 16.4448
41.242 16.1735
41.4327 16.0664
41.6236 15.8409
41.8146 15.6151
42.0057 15.3744
42.1969 15.2027
42.3882 14.9913
42.5797 14.7902
42.7713 14.5579
42.963 14.333
43.1549 14.2116
43.3468 13.9524
43.5389 13.7935
43.7312 13.6412
43.9237 13.4111
44.1162 13.286
44.3088 13.0635
44.5016 12.8554
44.6945 12.7271
44.8875 12.5534
45.0806 12.3894
45.2739 12.2033
45.4673 12.0268
45.6609 11.8601
45.8546 11.6832
46.0484 11.4954
46.2424 11.346
46.4365 11.1692
46.631 10.9667
46.8254 10.8613
47.0199 10.7088
47.2146 10.5562
47.4095 10.373
47.6044 10.196
47.7996 10.0466
47.9948 9.90272
48.1902 9.79225
48.3858 9.64652
48.5815 9.48533
48.7774 9.3817
48.9734 9.20432
49.1696 9.10237
49.3661 8.93376
49.5626 8.83437
49.7592 8.71996
49.956 8.55026
50.153 8.40379
50.3501 8.30245
50.5474 8.16159
50.7448 8.10305
50.9424 7.95142
51.1402 7.78843
51.3381 7.64224
51.5362 7.53507
51.7344 7.39529
51.9328 7.27089
52.1316 7.13089
52.3304 7.08011
52.5293 6.9505
52.7284 6.83007
52.9276 6.73226
53.1271 6.60102
53.3267 6.52977
53.5265 6.39695
53.7264 6.2459
53.9266 6.12983
54.1269 6.05217
54.3274 5.95865
54.528 5.84333
54.7289 5.64765
54.9301 5.48549
55.1314 5.38852
55.3328 5.15312
55.5344 4.98172
55.7361 4.86708