File: XRD/Ni3Fe_FD0547.xy
TT I
1.27165 7.41989
1.45013 6.1794
1.62863 5.08295
1.80712 4.66467
1.98562 4.77074
2.16411 4.82055
2.34263 5.28748
2.52115 6.9523
2.69965 7.61428
2.87818 8.84709
3.05672 11.0258
3.23527 14.9966
3.4138 18.5383
3.59237 24.095
3.77094 26.4017
3.9495 29.9405
4.12809 35.3415
4.30669 206.658
4.4853 64.9901
4.6639 55.593
4.84253 67.7849
5.02118 87.9381
5.19981 380.052
5.37848 198.369
5.55716 102.734
5.73586 93.109
5.91455 95.5238
6.09328 4358.37
6.27201 83.8254
6.45075 67.8973
6.62952 63.1097
6.8083 59.0538
6.98711 55.9757
7.16591 55.6478
7.34475 90.2694
7.5236 55.1984
7.70247 56.3594
7.88135 58.2125
8.06026 62.4875
8.23919 70.1857
8.41812 85.7617
8.59709 1194.25
8.77609 100.284
8.9551 91.6045
9.13412 82.2477
9.31318 83.2319
9.49226 85.2899
9.67134 98.6461
9.85047 100.506
10.0296 354.328
10.2088 395.331
10.388 105.472
10.5672 518.782
10.7465 86.8645
10.9257 78.7841
11.105 72.2917
11.2844 70.823
11.4637 65.3331
11.6431 64.0763
11.8225 62.6436
12.002 64.054
12.1814 153.107
12.3609 70.5245
12.5405 65.0812
12.72 70.3549
12.8996 71.1237
13.0792 79.6343
13.2589 241.295
13.4386 123.442
13.6183 250.19
13.7981 97.776
13.9779 76.2177
14.1577 72.7658
14.3376 72.0451
14.5175 69.5477
14.6974 70.9534
14.8774 111.939
15.0574 148.566
15.2374 71.6358
15.4175 66.9533
15.5976 66.3209
15.7778 96.5282
15.958 154.817
16.1382 63.1181
16.3185 59.1388
16.4988 55.9079
16.6792 54.9781
16.8596 55.6028
17.04 56.2209
17.2205 67.3589
17.401 71.6488
17.5815 59.8052
17.7622 61.7954
17.9428 74.5614
18.1237 141.729
18.3044 91.0438
18.4852 77.6765
18.666 60.8848
18.8469 58.5774
19.0278 57.2622
19.2088 60.0983
19.3898 76.9464
19.5709 54.5305
19.752 53.899
19.9332 56.8793
20.1144 70.535
20.2957 64.3965
20.477 53.8221
20.6586 50.0023
20.84 49.136
21.0215 48.9016
21.203 51.1389
21.3846 49.356
21.5662 49.1893
21.7479 53.0975
21.9297 65.2484
22.1115 56.5306
22.2933 50.2832
22.4753 49.2908
22.6572 49.3678
22.8393 52.2948
23.0214 57.8356
23.2037 49.15
23.3859 50.1284
23.5682 57.3545
23.7505 48.3277
23.9329 45.4821
24.1154 44.5242
24.2979 43.7609
24.4805 43.1666
24.6631 43.0649
24.8458 42.4912
25.0286 43.1659
25.2114 45.111
25.3943 45.0098
25.5773 41.2643
25.7605 40.7928
25.9436 41.0567
26.1268 42.0745
26.31 40.4422
26.4933 41.0199
26.6767 42.4704
26.8601 40.7263
27.0437 39.0972
27.2272 38.7592
27.4109 38.6738
27.5946 38.7102
27.7784 38.0927
27.9623 38.6988
28.1462 39.064
28.3304 37.5118
28.5145 36.3005
28.6987 35.7501
28.8829 35.6749
29.0673 34.9467
29.2517 34.626
29.4361 34.3823
29.6207 33.3387
29.8053 33.0965
29.99 32.8058
30.1748 32.6927
30.3597 32.4361
30.5447 32.3429
30.7297 32.5005
30.915 31.8987
31.1002 31.3334
31.2855 31.0459
31.4708 31.0962
31.6563 30.5597
31.8418 30.347
32.0275 30.2134
32.2132 29.5698
32.399 29.1469
32.5848 28.6741
32.7708 28.3767
32.9569 28.2028
33.143 27.9598
33.3293 27.6906
33.5158 27.1447
33.7022 26.8517
33.8887 26.5105
34.0753 26.1602
34.262 25.8408
34.4488 25.5523
34.6357 25.1569
34.8227 24.8969
35.0098 24.6341
35.1969 24.4296
35.3842 24.1496
35.5716 23.9199
35.759 23.5993
35.9468 23.3006
36.1345 23.0903
36.3222 22.817
36.5101 22.6039
36.6981 22.3187
36.8861 21.9218
37.0743 21.6709
37.2626 21.4352
37.451 21.1546
37.6395 20.9782
37.8281 20.6386
38.0168 20.3251
38.2056 20.0743
38.3945 19.8322
38.5837 19.6143
38.7728 19.4401
38.9621 19.1357
39.1514 18.8364
39.3409 18.6303
39.5304 18.366
39.7201 18.1787
39.9099 17.9843
40.0999 17.7307
40.2899 17.5434
40.48 17.2213
40.6703 17.0462
40.8607 16.818
41.0512 16.6154
41.242 16.3154
41.4327 16.1894
41.6236 15.8874
41.8146 15.8048
42.0057 15.5675
42.1969 15.2941
42.3882 15.1555
42.5797 14.9817
42.7713 14.7792
42.963 14.5587
43.1549 14.281
43.3468 14.1439
43.5389 13.9232
43.7312 13.7677
43.9237 13.5559
44.1162 13.3582
44.3088 13.1688
44.5016 12.9979
44.6945 12.7845
44.8875 12.6477
45.0806 12.4657
45.2739 12.3349
45.4673 12.1415
45.6609 11.9043
45.8546 11.7893
46.0484 11.5896
46.2424 11.4641
46.4365 11.2858
46.631 11.1199
46.8254 10.9628
47.0199 10.746
47.2146 10.6399
47.4095 10.4508
47.6044 10.319
47.7996 10.1555
47.9948 10.0431
48.1902 9.84587
48.3858 9.72959
48.5815 9.60886
48.7774 9.44501
48.9734 9.32883
49.1696 9.14409
49.3661 9.01053
49.5626 8.87503
49.7592 8.74092
49.956 8.61448
50.153 8.50577
50.3501 8.35352
50.5474 8.25126
50.7448 8.10237
50.9424 7.95743
51.1402 7.85947
51.3381 7.70716
51.5362 7.58956
51.7344 7.50704
51.9328 7.31806
52.1316 7.20528
52.3304 7.10774
52.5293 7.00875
52.7284 6.8644
52.9276 6.74558
53.1271 6.67584
53.3267 6.51384
53.5265 6.3993
53.7264 6.28797
53.9266 6.17714
54.1269 6.09391
54.3274 5.94913
54.528 5.84126
54.7289 5.72759
54.9301 5.49815
55.1314 5.35095
55.3328 5.18785
55.5344 5.02804
55.7361 4.85309