File: XRD/Ni3Fe_FD0047.xy
TT I
1.27165 33.4733
1.45013 26.9345
1.62863 24.2199
1.80712 22.0716
1.98562 21.1972
2.16411 20.6623
2.34263 21.8125
2.52115 22.6143
2.69965 26.6943
2.87818 37.148
3.05672 64.3812
3.23527 67.8969
3.4138 34.8343
3.59237 27.0669
3.77094 26.0943
3.9495 26.8005
4.12809 29.0007
4.30669 38.0107
4.4853 37.328
4.6639 41.5678
4.84253 53.6391
5.02118 100.761
5.19981 302.531
5.37848 3324.84
5.55716 152.684
5.73586 102.654
5.91455 117.409
6.09328 548.559
6.27201 234.147
6.45075 64.3205
6.62952 47.1031
6.8083 41.4374
6.98711 40.3766
7.16591 43.3789
7.34475 39.3123
7.5236 56.6347
7.70247 43.8127
7.88135 37.9506
8.06026 39.7803
8.23919 45.4839
8.41812 58.1291
8.59709 180.914
8.77609 416.494
8.9551 74.8017
9.13412 64.0608
9.31318 334.697
9.49226 58.0236
9.67134 56.3355
9.85047 62.126
10.0296 114.033
10.2088 664.628
10.388 103.522
10.5672 96.9836
10.7465 213.306
10.9257 50.7319
11.105 44.0151
11.2844 42.0293
11.4637 39.1127
11.6431 38.331
11.8225 39.1289
12.002 111.865
12.1814 49.4651
12.3609 88.9371
12.5405 42.1635
12.72 39.2268
12.8996 40.6629
13.0792 46.7104
13.2589 67.9481
13.4386 186.652
13.6183 82.3557
13.7981 186.561
13.9779 55.5636
14.1577 60.6089
14.3376 46.9142
14.5175 41.1282
14.6974 40.7378
14.8774 47.8445
15.0574 73.5366
15.2374 64.0656
15.4175 41.6319
15.5976 40.0292
15.7778 44.8532
15.958 62.2744
16.1382 86.0441
16.3185 38.4315
16.4988 34.7238
16.6792 33.4657
16.8596 33.6234
17.04 42.7765
17.2205 35.3209
17.401 39.8323
17.5815 40.317
17.7622 37.5169
17.9428 40.856
18.1237 45.3111
18.3044 86.9178
18.4852 55.743
18.666 51.1469
18.8469 37.0153
19.0278 35.3333
19.2088 35.4874
19.3898 46.8234
19.5709 45.3559
19.752 34.3127
19.9332 33.2784
20.1144 33.9475
20.2957 43.5358
20.477 39.2099
20.6586 33.7101
20.84 34.6947
21.0215 30.3453
21.203 29.9104
21.3846 30.9982
21.5662 31.6765
21.7479 30.8081
21.9297 32.1101
22.1115 41.6708
22.2933 38.4533
22.4753 32.0612
22.6572 30.354
22.8393 32.0686
23.0214 31.759
23.2037 38.0992
23.3859 31.9767
23.5682 33.775
23.7505 35.63
23.9329 32.6491
24.1154 29.5113
24.2979 27.9692
24.4805 27.3138
24.6631 27.4792
24.8458 27.6524
25.0286 26.8777
25.2114 27.1097
25.3943 28.8387
25.5773 29.528
25.7605 26.7318
25.9436 26.8569
26.1268 25.8478
26.31 26.9953
26.4933 26.2778
26.6767 25.7912
26.8601 27.5924
27.0437 27.9686
27.2272 25.5641
27.4109 24.918
27.5946 24.8911
27.7784 25.1539
27.9623 24.6085
28.1462 25.5062
28.3304 26.113
28.5145 25.0945
28.6987 23.8737
28.8829 22.9686
29.0673 22.8213
29.2517 22.8004
29.4361 22.0792
29.6207 22.1497
29.8053 21.7654
29.99 21.4194
30.1748 21.4889
30.3597 21.0963
30.5447 21.1848
30.7297 20.9073
30.915 21.1401
31.1002 21.5064
31.2855 20.7105
31.4708 20.3245
31.6563 20.4721
31.8418 20.4957
32.0275 19.9223
32.2132 20.0281
32.399 19.677
32.5848 19.1933
32.7708 18.8326
32.9569 18.8596
33.143 18.53
33.3293 18.3108
33.5158 18.4498
33.7022 18.0353
33.8887 17.6542
34.0753 17.444
34.262 17.3023
34.4488 17.0248
34.6357 16.8413
34.8227 16.647
35.0098 16.3694
35.1969 16.3069
35.3842 16.1057
35.5716 16.0119
35.759 16.0965
35.9468 15.8234
36.1345 15.4975
36.3222 15.3685
36.5101 15.302
36.6981 15.0658
36.8861 14.887
37.0743 14.6285
37.2626 14.4605
37.451 14.3251
37.6395 14.2151
37.8281 13.9341
38.0168 13.7927
38.2056 13.6272
38.3945 13.3778
38.5837 13.2178
38.7728 13.1486
38.9621 13.0482
39.1514 12.8238
39.3409 12.6847
39.5304 12.4432
39.7201 12.3385
39.9099 12.2352
40.0999 12.095
40.2899 11.9497
40.48 11.7936
40.6703 11.6747
40.8607 11.5224
41.0512 11.3912
41.242 11.2303
41.4327 11.117
41.6236 10.9435
41.8146 10.8411
42.0057 10.6423
42.1969 10.5403
42.3882 10.3878
42.5797 10.2452
42.7713 10.1294
42.963 9.98588
43.1549 9.86175
43.3468 9.71361
43.5389 9.61852
43.7312 9.4841
43.9237 9.35326
44.1162 9.26017
44.3088 9.10127
44.5016 8.92879
44.6945 8.86828
44.8875 8.74713
45.0806 8.61076
45.2739 8.51607
45.4673 8.38691
45.6609 8.30741
45.8546 8.19628
46.0484 8.08769
46.2424 7.94907
46.4365 7.8596
46.631 7.72751
46.8254 7.61722
47.0199 7.51035
47.2146 7.41702
47.4095 7.29026
47.6044 7.2141
47.7996 7.12473
47.9948 6.99304
48.1902 6.90252
48.3858 6.81026
48.5815 6.72223
48.7774 6.65398
48.9734 6.53732
49.1696 6.4306
49.3661 6.3436
49.5626 6.22689
49.7592 6.14055
49.956 6.06274
50.153 5.9924
50.3501 5.90088
50.5474 5.81387
50.7448 5.7669
50.9424 5.65573
51.1402 5.57639
51.3381 5.48954
51.5362 5.38218
51.7344 5.3011
51.9328 5.22038
52.1316 5.14469
52.3304 5.0554
52.5293 4.95877
52.7284 4.89205
52.9276 4.82087
53.1271 4.78454
53.3267 4.65035
53.5265 4.58582
53.7264 4.55891
53.9266 4.4703
54.1269 4.32405
54.3274 4.26845
54.528 4.13057
54.7289 3.98641
54.9301 3.88528
55.1314 3.76885
55.3328 3.57683
55.5344 3.4328
55.7361 3.41704