File: XRD/Ni3Fe_FD0469.xy
TT I
1.27165 7.24682
1.45013 6.50446
1.62863 5.14997
1.80712 4.95075
1.98562 4.76222
2.16411 4.84756
2.34263 5.00102
2.52115 6.09083
2.69965 7.26744
2.87818 8.53108
3.05672 11.0699
3.23527 15.0351
3.4138 19.0168
3.59237 23.626
3.77094 26.0093
3.9495 29.5392
4.12809 34.6535
4.30669 123.892
4.4853 56.78
4.6639 56.848
4.84253 69.2164
5.02118 90.2594
5.19981 531.439
5.37848 204.397
5.55716 105.107
5.73586 95.3527
5.91455 99.2435
6.09328 4256.35
6.27201 83.6907
6.45075 69.2111
6.62952 63.3095
6.8083 58.8879
6.98711 56.1995
7.16591 55.9956
7.34475 72.2662
7.5236 55.0575
7.70247 57.2693
7.88135 58.6674
8.06026 63.3568
8.23919 70.6415
8.41812 86.6889
8.59709 1237.49
8.77609 101.823
8.9551 90.5409
9.13412 83.6705
9.31318 85.1322
9.49226 86.2462
9.67134 96.6054
9.85047 102.722
10.0296 411.963
10.2088 397.6
10.388 108.523
10.5672 505.532
10.7465 88.2375
10.9257 78.9637
11.105 72.8114
11.2844 70.0078
11.4637 66.0199
11.6431 64.5918
11.8225 63.706
12.002 66.0453
12.1814 156.76
12.3609 69.13
12.5405 65.719
12.72 69.5682
12.8996 72.5144
13.0792 82.2991
13.2589 252.675
13.4386 124.046
13.6183 255.379
13.7981 97.5119
13.9779 77.189
14.1577 73.3101
14.3376 71.9644
14.5175 70.1814
14.6974 72.3796
14.8774 118.851
15.0574 146.613
15.2374 71.2797
15.4175 67.5968
15.5976 67.5018
15.7778 101.354
15.958 153.944
16.1382 62.5038
16.3185 59.0357
16.4988 56.4394
16.6792 55.4533
16.8596 56.0862
17.04 57.2337
17.2205 68.8916
17.401 71.7172
17.5815 60.2663
17.7622 62.575
17.9428 77.3242
18.1237 139.975
18.3044 92.3672
18.4852 78.0368
18.666 61.1506
18.8469 58.9418
19.0278 57.791
19.2088 60.9905
19.3898 76.4794
19.5709 55.1737
19.752 54.3655
19.9332 57.5575
20.1144 70.6323
20.2957 64.5962
20.477 54.1224
20.6586 50.3794
20.84 49.5048
21.0215 49.634
21.203 51.4482
21.3846 49.7035
21.5662 50.0258
21.7479 54.042
21.9297 65.226
22.1115 56.5201
22.2933 50.6018
22.4753 49.5721
22.6572 49.83
22.8393 53.0385
23.0214 57.8583
23.2037 49.466
23.3859 50.8182
23.5682 57.3476
23.7505 48.7833
23.9329 46.0066
24.1154 44.7915
24.2979 44.2042
24.4805 43.675
24.6631 43.3865
24.8458 43.0117
25.0286 43.6068
25.2114 45.7116
25.3943 45.1737
25.5773 41.4713
25.7605 41.1333
25.9436 41.5367
26.1268 42.3724
26.31 40.7011
26.4933 41.4937
26.6767 42.7805
26.8601 40.9435
27.0437 39.5417
27.2272 39.2575
27.4109 39.0261
27.5946 39.0544
27.7784 38.4708
27.9623 38.9411
28.1462 39.3839
28.3304 37.6879
28.5145 36.5237
28.6987 36.2143
28.8829 36.0806
29.0673 35.2063
29.2517 34.8958
29.4361 34.6365
29.6207 33.7253
29.8053 33.3918
29.99 33.0973
30.1748 33.0481
30.3597 32.7949
30.5447 32.7397
30.7297 32.6849
30.915 32.0957
31.1002 31.5357
31.2855 31.3076
31.4708 31.2574
31.6563 30.8823
31.8418 30.6393
32.0275 30.3363
32.2132 29.8032
32.399 29.4117
32.5848 28.9406
32.7708 28.6792
32.9569 28.3806
33.143 28.2302
33.3293 27.8044
33.5158 27.4958
33.7022 26.945
33.8887 26.7534
34.0753 26.3504
34.262 26.0055
34.4488 25.7161
34.6357 25.4063
34.8227 25.1285
35.0098 24.9297
35.1969 24.602
35.3842 24.4297
35.5716 24.0811
35.759 23.8251
35.9468 23.4978
36.1345 23.2852
36.3222 22.9969
36.5101 22.7485
36.6981 22.4881
36.8861 22.1746
37.0743 21.825
37.2626 21.561
37.451 21.3643
37.6395 21.0972
37.8281 20.8114
38.0168 20.4876
38.2056 20.2951
38.3945 20.0382
38.5837 19.7289
38.7728 19.5147
38.9621 19.2677
39.1514 18.9815
39.3409 18.7497
39.5304 18.5218
39.7201 18.3324
39.9099 18.0817
40.0999 17.8571
40.2899 17.63
40.48 17.3923
40.6703 17.1492
40.8607 17.0409
41.0512 16.75
41.242 16.4993
41.4327 16.2838
41.6236 16.0492
41.8146 15.8662
42.0057 15.6566
42.1969 15.426
42.3882 15.2902
42.5797 15.012
42.7713 14.8248
42.963 14.6684
43.1549 14.4219
43.3468 14.2099
43.5389 13.9931
43.7312 13.8411
43.9237 13.6573
44.1162 13.4561
44.3088 13.2773
44.5016 13.1226
44.6945 12.9246
44.8875 12.6924
45.0806 12.5422
45.2739 12.354
45.4673 12.2399
45.6609 11.9859
45.8546 11.8691
46.0484 11.6938
46.2424 11.5663
46.4365 11.3591
46.631 11.2182
46.8254 10.9944
47.0199 10.8401
47.2146 10.6828
47.4095 10.5071
47.6044 10.3708
47.7996 10.2683
47.9948 10.0638
48.1902 9.97542
48.3858 9.80419
48.5815 9.67407
48.7774 9.53231
48.9734 9.36703
49.1696 9.22741
49.3661 9.09428
49.5626 8.92663
49.7592 8.85871
49.956 8.71128
50.153 8.55368
50.3501 8.39584
50.5474 8.30341
50.7448 8.19071
50.9424 8.06235
51.1402 7.9106
51.3381 7.82679
51.5362 7.633
51.7344 7.53311
51.9328 7.3846
52.1316 7.2921
52.3304 7.17503
52.5293 7.04786
52.7284 6.94032
52.9276 6.7927
53.1271 6.73855
53.3267 6.58856
53.5265 6.45427
53.7264 6.36979
53.9266 6.27041
54.1269 6.12134
54.3274 6.01157
54.528 5.91149
54.7289 5.70399
54.9301 5.53385
55.1314 5.4388
55.3328 5.24334
55.5344 4.99879
55.7361 4.90399