File: XRD/Ni3Fe_FD0696.xy
TT I
1.27165 7.58279
1.45013 5.95014
1.62863 5.77152
1.80712 4.31873
1.98562 4.41101
2.16411 4.8254
2.34263 5.20548
2.52115 5.88713
2.69965 8.01081
2.87818 9.06314
3.05672 10.7763
3.23527 14.6884
3.4138 18.541
3.59237 23.1871
3.77094 25.6817
3.9495 29.5949
4.12809 34.3547
4.30669 117.394
4.4853 55.3327
4.6639 55.5675
4.84253 68.1869
5.02118 87.4312
5.19981 429.011
5.37848 192.807
5.55716 102.746
5.73586 92.5817
5.91455 95.5211
6.09328 4573.84
6.27201 81.0199
6.45075 68.974
6.62952 62.6524
6.8083 58.9165
6.98711 55.242
7.16591 55.817
7.34475 70.1723
7.5236 54.4861
7.70247 56.2826
7.88135 57.5598
8.06026 62.4043
8.23919 69.3766
8.41812 83.8729
8.59709 1245.65
8.77609 98.2313
8.9551 89.2869
9.13412 82.5315
9.31318 84.3321
9.49226 84.6652
9.67134 95.3313
9.85047 100.969
10.0296 365.632
10.2088 356.888
10.388 105.413
10.5672 513.332
10.7465 86.1213
10.9257 77.8664
11.105 71.1745
11.2844 68.5012
11.4637 64.8828
11.6431 62.9842
11.8225 62.6013
12.002 64.321
12.1814 155.441
12.3609 67.4382
12.5405 64.5391
12.72 68.2441
12.8996 71.2805
13.0792 80.7118
13.2589 248.31
13.4386 120.134
13.6183 258.063
13.7981 93.5118
13.9779 75.6021
14.1577 71.9878
14.3376 70.4056
14.5175 68.8499
14.6974 70.7462
14.8774 114.035
15.0574 139.618
15.2374 69.6363
15.4175 66.2071
15.5976 66.171
15.7778 96.6872
15.958 149.825
16.1382 61.4135
16.3185 57.8623
16.4988 55.4729
16.6792 54.3672
16.8596 54.6744
17.04 56.1046
17.2205 67.3358
17.401 69.7023
17.5815 59.0624
17.7622 61.4757
17.9428 74.2453
18.1237 142.379
18.3044 91.5008
18.4852 75.2172
18.666 60.0773
18.8469 57.9696
19.0278 56.637
19.2088 59.2961
19.3898 75.7625
19.5709 54.0206
19.752 53.2207
19.9332 56.2019
20.1144 69.6643
20.2957 64.0744
20.477 52.9009
20.6586 49.5426
20.84 48.6991
21.0215 48.4963
21.203 50.7053
21.3846 48.7153
21.5662 49.0102
21.7479 52.8439
21.9297 64.897
22.1115 56.0228
22.2933 49.566
22.4753 48.5627
22.6572 48.831
22.8393 52.2378
23.0214 56.9548
23.2037 48.6317
23.3859 49.6978
23.5682 57.2171
23.7505 47.8522
23.9329 45.0424
24.1154 43.8791
24.2979 43.3437
24.4805 42.7829
24.6631 42.5701
24.8458 42.2093
25.0286 42.7689
25.2114 44.5759
25.3943 44.4935
25.5773 40.8013
25.7605 40.3282
25.9436 40.8051
26.1268 41.6728
26.31 40.0957
26.4933 40.771
26.6767 42.0997
26.8601 40.2566
27.0437 38.7752
27.2272 38.4707
27.4109 38.4636
27.5946 38.4309
27.7784 37.7623
27.9623 38.3375
28.1462 38.7856
28.3304 37.0495
28.5145 35.8928
28.6987 35.6084
28.8829 35.2847
29.0673 34.686
29.2517 34.2027
29.4361 34.0669
29.6207 33.0387
29.8053 32.7932
29.99 32.4508
30.1748 32.4573
30.3597 32.1603
30.5447 31.9536
30.7297 32.2267
30.915 31.5471
31.1002 31.106
31.2855 30.829
31.4708 30.7891
31.6563 30.2632
31.8418 30.0546
32.0275 29.8062
32.2132 29.342
32.399 28.8862
32.5848 28.4661
32.7708 28.0882
32.9569 27.9918
33.143 27.7184
33.3293 27.3087
33.5158 27.0141
33.7022 26.5273
33.8887 26.3093
34.0753 25.9575
34.262 25.4805
34.4488 25.2532
34.6357 24.9643
34.8227 24.6105
35.0098 24.4575
35.1969 24.1634
35.3842 23.8821
35.5716 23.7913
35.759 23.3756
35.9468 23.0385
36.1345 22.8152
36.3222 22.5336
36.5101 22.3889
36.6981 22.1192
36.8861 21.7365
37.0743 21.4193
37.2626 21.2415
37.451 20.9614
37.6395 20.8085
37.8281 20.3767
38.0168 20.2246
38.2056 19.9319
38.3945 19.629
38.5837 19.3886
38.7728 19.1455
38.9621 18.9527
39.1514 18.6842
39.3409 18.3706
39.5304 18.177
39.7201 17.9676
39.9099 17.8232
40.0999 17.5793
40.2899 17.3449
40.48 17.0586
40.6703 16.8935
40.8607 16.7275
41.0512 16.5037
41.242 16.2074
41.4327 16.0119
41.6236 15.8238
41.8146 15.6311
42.0057 15.3894
42.1969 15.1798
42.3882 14.9998
42.5797 14.7998
42.7713 14.5726
42.963 14.3815
43.1549 14.2073
43.3468 13.9817
43.5389 13.7785
43.7312 13.5686
43.9237 13.4434
44.1162 13.2358
44.3088 13.0411
44.5016 12.879
44.6945 12.7061
44.8875 12.5156
45.0806 12.3614
45.2739 12.1389
45.4673 12.0161
45.6609 11.7914
45.8546 11.6997
46.0484 11.5304
46.2424 11.3233
46.4365 11.1557
46.631 10.9911
46.8254 10.8001
47.0199 10.6589
47.2146 10.5458
47.4095 10.3828
47.6044 10.2067
47.7996 10.0831
47.9948 9.90351
48.1902 9.76273
48.3858 9.62524
48.5815 9.49895
48.7774 9.38384
48.9734 9.21459
49.1696 9.08406
49.3661 8.9631
49.5626 8.80364
49.7592 8.68619
49.956 8.54509
50.153 8.398
50.3501 8.29189
50.5474 8.15049
50.7448 8.05419
50.9424 7.87712
51.1402 7.80394
51.3381 7.64667
51.5362 7.52448
51.7344 7.45111
51.9328 7.30393
52.1316 7.14182
52.3304 7.04585
52.5293 6.90487
52.7284 6.85805
52.9276 6.67699
53.1271 6.63395
53.3267 6.46939
53.5265 6.32545
53.7264 6.28378
53.9266 6.16389
54.1269 6.06599
54.3274 5.9337
54.528 5.80464
54.7289 5.66472
54.9301 5.47177
55.1314 5.35416
55.3328 5.11577
55.5344 4.95846
55.7361 4.82218