File: XRD/Ni3Fe_FD0292.xy
TT I
1.27165 7.83656
1.45013 5.92178
1.62863 5.34935
1.80712 5.47345
1.98562 4.78358
2.16411 4.91825
2.34263 4.76575
2.52115 6.3302
2.69965 6.49136
2.87818 8.3757
3.05672 11.1004
3.23527 15.4747
3.4138 19.6287
3.59237 25.2094
3.77094 26.9008
3.9495 30.6381
4.12809 36.2437
4.30669 282.072
4.4853 72.9947
4.6639 56.6913
4.84253 69.4417
5.02118 90.7981
5.19981 500.557
5.37848 259.389
5.55716 107.519
5.73586 96.6637
5.91455 100.788
6.09328 3721.3
6.27201 89.7857
6.45075 70.3596
6.62952 65.5581
6.8083 61.6037
6.98711 57.7643
7.16591 58.0683
7.34475 107.846
7.5236 56.9333
7.70247 58.4768
7.88135 60.0372
8.06026 64.5755
8.23919 72.0677
8.41812 89.2307
8.59709 1011.3
8.77609 108.462
8.9551 97.0713
9.13412 84.4611
9.31318 85.3573
9.49226 87.2043
9.67134 104.994
9.85047 103.932
10.0296 386.555
10.2088 606.477
10.388 110.697
10.5672 445.504
10.7465 90.8736
10.9257 82.0199
11.105 74.5202
11.2844 73.8487
11.4637 67.0593
11.6431 65.8215
11.8225 64.713
12.002 66.1057
12.1814 137.699
12.3609 76.8888
12.5405 67.0936
12.72 73.8516
12.8996 73.5606
13.0792 81.7932
13.2589 213.096
13.4386 149.774
13.6183 215.621
13.7981 114.474
13.9779 78.6855
14.1577 75.4368
14.3376 74.9326
14.5175 71.4733
14.6974 73.2768
14.8774 109.825
15.0574 176.512
15.2374 74.8331
15.4175 68.7772
15.5976 68.3022
15.7778 96.0567
15.958 178.668
16.1382 66.1141
16.3185 61.2722
16.4988 57.8019
16.6792 56.7169
16.8596 57.4046
17.04 57.8178
17.2205 67.1001
17.401 77.4338
17.5815 61.2849
17.7622 63.5336
17.9428 77.4202
18.1237 137.236
18.3044 89.1722
18.4852 85.7788
18.666 63.0397
18.8469 60.2582
19.0278 58.994
19.2088 61.8764
19.3898 78.1277
19.5709 56.728
19.752 55.2528
19.9332 58.5692
20.1144 71.5389
20.2957 63.9494
20.477 57.1131
20.6586 51.7564
20.84 50.7185
21.0215 50.5885
21.203 52.3591
21.3846 51.138
21.5662 50.5358
21.7479 54.1765
21.9297 66.5033
22.1115 57.7103
22.2933 52.4934
22.4753 51.0321
22.6572 50.8691
22.8393 53.109
23.0214 60.2284
23.2037 50.7353
23.3859 51.547
23.5682 57.4228
23.7505 51.1865
23.9329 47.0726
24.1154 45.7645
24.2979 45.15
24.4805 44.6071
24.6631 44.5319
24.8458 43.8901
25.0286 44.3441
25.2114 46.2759
25.3943 46.5187
25.5773 42.5935
25.7605 41.9597
25.9436 42.3103
26.1268 43.3792
26.31 41.6017
26.4933 42.259
26.6767 43.5458
26.8601 42.1599
27.0437 40.4471
27.2272 39.9724
27.4109 39.9203
27.5946 39.9077
27.7784 39.1953
27.9623 39.6823
28.1462 40.3679
28.3304 38.8154
28.5145 37.3588
28.6987 36.9589
28.8829 36.8504
29.0673 36.0371
29.2517 35.6903
29.4361 35.4416
29.6207 34.5961
29.8053 34.2244
29.99 33.8181
30.1748 33.6399
30.3597 33.6141
30.5447 33.3782
30.7297 33.3505
30.915 32.9536
31.1002 32.42
31.2855 31.9246
31.4708 31.928
31.6563 31.5146
31.8418 31.2925
32.0275 31.1224
32.2132 30.5395
32.399 29.9989
32.5848 29.5949
32.7708 29.2555
32.9569 29.0696
33.143 28.8291
33.3293 28.4505
33.5158 28.0894
33.7022 27.6376
33.8887 27.3873
34.0753 27.0059
34.262 26.6313
34.4488 26.2473
34.6357 25.8903
34.8227 25.7192
35.0098 25.5392
35.1969 25.114
35.3842 24.9123
35.5716 24.73
35.759 24.4013
35.9468 24.0219
36.1345 23.8057
36.3222 23.5026
36.5101 23.2994
36.6981 22.9112
36.8861 22.6483
37.0743 22.3283
37.2626 22.0648
37.451 21.8551
37.6395 21.6364
37.8281 21.2785
38.0168 21.0023
38.2056 20.7093
38.3945 20.4344
38.5837 20.2025
38.7728 19.9782
38.9621 19.7269
39.1514 19.439
39.3409 19.2435
39.5304 18.961
39.7201 18.6981
39.9099 18.5599
40.0999 18.2965
40.2899 18.0218
40.48 17.6975
40.6703 17.6219
40.8607 17.4001
41.0512 17.1552
41.242 16.885
41.4327 16.7125
41.6236 16.4103
41.8146 16.2852
42.0057 16.0608
42.1969 15.826
42.3882 15.5845
42.5797 15.3618
42.7713 15.2245
42.963 14.9876
43.1549 14.739
43.3468 14.5313
43.5389 14.3257
43.7312 14.1518
43.9237 13.9461
44.1162 13.8128
44.3088 13.5525
44.5016 13.3869
44.6945 13.2248
44.8875 13.0267
45.0806 12.7859
45.2739 12.6679
45.4673 12.5594
45.6609 12.2708
45.8546 12.1564
46.0484 11.9496
46.2424 11.7717
46.4365 11.6554
46.631 11.4459
46.8254 11.2909
47.0199 11.144
47.2146 10.9307
47.4095 10.7942
47.6044 10.65
47.7996 10.4932
47.9948 10.3307
48.1902 10.1589
48.3858 10.0225
48.5815 9.88099
48.7774 9.76913
48.9734 9.58319
49.1696 9.45588
49.3661 9.28303
49.5626 9.13441
49.7592 9.03553
49.956 8.94883
50.153 8.75153
50.3501 8.58799
50.5474 8.46597
50.7448 8.35494
50.9424 8.22882
51.1402 8.10742
51.3381 7.98774
51.5362 7.82239
51.7344 7.72237
51.9328 7.55213
52.1316 7.46584
52.3304 7.33694
52.5293 7.18899
52.7284 7.12525
52.9276 6.9742
53.1271 6.86788
53.3267 6.75114
53.5265 6.62101
53.7264 6.52715
53.9266 6.41873
54.1269 6.30762
54.3274 6.16254
54.528 6.00358
54.7289 5.84399
54.9301 5.68391
55.1314 5.56901
55.3328 5.33414
55.5344 5.13597
55.7361 4.99712