File: XRD/Ni3Fe_FD0060.xy
TT I
1.27165 32.3936
1.45013 26.2378
1.62863 22.9666
1.80712 21.2369
1.98562 20.0609
2.16411 20.0508
2.34263 20.3107
2.52115 21.0108
2.69965 25.5681
2.87818 35.2072
3.05672 63.2051
3.23527 63.899
3.4138 33.4303
3.59237 26.6752
3.77094 25.1926
3.9495 26.5306
4.12809 29.3746
4.30669 37.693
4.4853 38.0136
4.6639 43.4119
4.84253 55.7955
5.02118 105.245
5.19981 333.521
5.37848 2843.01
5.55716 148.54
5.73586 104.097
5.91455 121.31
6.09328 608.393
6.27201 201.656
6.45075 63.8979
6.62952 48.3122
6.8083 42.2905
6.98711 41.9036
7.16591 43.508
7.34475 39.8019
7.5236 64.81
7.70247 43.8809
7.88135 39.4894
8.06026 41.595
8.23919 47.4486
8.41812 61.0609
8.59709 196.532
8.77609 311.839
8.9551 74.2768
9.13412 66.4554
9.31318 301.658
9.49226 59.773
9.67134 58.9961
9.85047 65.825
10.0296 130.232
10.2088 703.283
10.388 95.8767
10.5672 101.7
10.7465 176.62
10.9257 52.4157
11.105 46.0509
11.2844 43.6823
11.4637 41.1481
11.6431 40.4553
11.8225 40.8179
12.002 116.26
12.1814 51.6844
12.3609 79.5856
12.5405 42.5836
12.72 40.6062
12.8996 42.7275
13.0792 49.8194
13.2589 70.1401
13.4386 188.027
13.6183 79.3279
13.7981 175.03
13.9779 54.3374
14.1577 70.6219
14.3376 47.0468
14.5175 42.8524
14.6974 42.6081
14.8774 50.4549
15.0574 82.6768
15.2374 56.4078
15.4175 42.6253
15.5976 41.582
15.7778 46.9795
15.958 68.2089
16.1382 72.1379
16.3185 38.4515
16.4988 35.6916
16.6792 34.5519
16.8596 34.5915
17.04 40.9004
17.2205 36.4421
17.401 42.3745
17.5815 38.8357
17.7622 39.2818
17.9428 41.6156
18.1237 46.8013
18.3044 74.4568
18.4852 56.9478
18.666 46.3664
18.8469 37.4378
19.0278 35.8581
19.2088 36.4627
19.3898 47.4538
19.5709 42.792
19.752 34.4058
19.9332 33.7281
20.1144 34.8409
20.2957 41.3497
20.477 39.5498
20.6586 33.0434
20.84 35.1908
21.0215 30.7774
21.203 30.46
21.3846 31.623
21.5662 31.5384
21.7479 31.3503
21.9297 32.7347
22.1115 39.7651
22.2933 36.3597
22.4753 31.6107
22.6572 30.7636
22.8393 32.1841
23.0214 32.0816
23.2037 35.8858
23.3859 31.7417
23.5682 32.6813
23.7505 35.6514
23.9329 30.9357
24.1154 29.3898
24.2979 28.1925
24.4805 27.6269
24.6631 28.0501
24.8458 27.4561
25.0286 27.0003
25.2114 27.229
25.3943 28.3169
25.5773 28.6612
25.7605 26.493
25.9436 26.5763
26.1268 25.8341
26.31 26.8516
26.4933 25.9561
26.6767 25.8727
26.8601 27.3128
27.0437 26.9758
27.2272 25.3831
27.4109 24.7985
27.5946 24.9038
27.7784 24.9326
27.9623 24.5369
28.1462 24.9871
28.3304 25.2144
28.5145 24.2246
28.6987 23.3834
28.8829 22.8652
29.0673 22.8095
29.2517 22.4508
29.4361 22.0051
29.6207 21.9933
29.8053 21.5955
29.99 21.3295
30.1748 21.2942
30.3597 21.0558
30.5447 20.9247
30.7297 20.7552
30.915 20.8678
31.1002 20.8682
31.2855 20.3942
31.4708 20.0955
31.6563 20.1434
31.8418 19.983
32.0275 19.8131
32.2132 19.7389
32.399 19.3316
32.5848 18.9702
32.7708 18.682
32.9569 18.6532
33.143 18.4017
33.3293 18.1391
33.5158 18.0717
33.7022 17.8183
33.8887 17.4859
34.0753 17.3726
34.262 17.0923
34.4488 16.7872
34.6357 16.6764
34.8227 16.4863
35.0098 16.2797
35.1969 16.1234
35.3842 15.891
35.5716 15.8089
35.759 15.8135
35.9468 15.5662
36.1345 15.3445
36.3222 15.2036
36.5101 15.0966
36.6981 14.8155
36.8861 14.6648
37.0743 14.4948
37.2626 14.3122
37.451 14.1293
37.6395 13.9478
37.8281 13.7632
38.0168 13.6023
38.2056 13.438
38.3945 13.3049
38.5837 13.1331
38.7728 13.0141
38.9621 12.7838
39.1514 12.6685
39.3409 12.4715
39.5304 12.3094
39.7201 12.1716
39.9099 12.0691
40.0999 11.8602
40.2899 11.8165
40.48 11.6473
40.6703 11.5269
40.8607 11.3787
41.0512 11.2552
41.242 11.1498
41.4327 10.9807
41.6236 10.8047
41.8146 10.7185
42.0057 10.5592
42.1969 10.4133
42.3882 10.3086
42.5797 10.1665
42.7713 10.017
42.963 9.86529
43.1549 9.72723
43.3468 9.60255
43.5389 9.49314
43.7312 9.32241
43.9237 9.23132
44.1162 9.11027
44.3088 8.97078
44.5016 8.88102
44.6945 8.75643
44.8875 8.64178
45.0806 8.51526
45.2739 8.4091
45.4673 8.32903
45.6609 8.20094
45.8546 8.11068
46.0484 7.92838
46.2424 7.8615
46.4365 7.79395
46.631 7.64028
46.8254 7.54056
47.0199 7.4529
47.2146 7.31116
47.4095 7.18809
47.6044 7.11983
47.7996 7.00161
47.9948 6.89653
48.1902 6.78906
48.3858 6.72778
48.5815 6.63323
48.7774 6.51316
48.9734 6.4478
49.1696 6.35528
49.3661 6.23985
49.5626 6.1331
49.7592 6.06149
49.956 5.98636
50.153 5.95181
50.3501 5.83387
50.5474 5.75432
50.7448 5.67067
50.9424 5.5819
51.1402 5.52311
51.3381 5.38258
51.5362 5.32075
51.7344 5.21418
51.9328 5.15672
52.1316 5.07466
52.3304 5.00745
52.5293 4.94249
52.7284 4.84229
52.9276 4.77257
53.1271 4.73244
53.3267 4.61299
53.5265 4.53479
53.7264 4.46014
53.9266 4.37408
54.1269 4.28978
54.3274 4.16909
54.528 4.06938
54.7289 3.92196
54.9301 3.7923
55.1314 3.74241
55.3328 3.55318
55.5344 3.40588
55.7361 3.31214