File: XRD/Ni3Fe_FD0434.xy
TT I
1.27165 7.6059
1.45013 6.648
1.62863 5.14014
1.80712 4.37594
1.98562 4.52903
2.16411 5.25128
2.34263 5.31825
2.52115 6.42038
2.69965 7.33446
2.87818 8.66077
3.05672 10.9922
3.23527 15.0896
3.4138 19.1295
3.59237 23.9749
3.77094 26.2606
3.9495 30.281
4.12809 35.2654
4.30669 198.095
4.4853 64.6458
4.6639 56.317
4.84253 68.3703
5.02118 89.4469
5.19981 441.326
5.37848 208.037
5.55716 103.771
5.73586 94.4354
5.91455 97.9203
6.09328 4225.53
6.27201 84.928
6.45075 68.5052
6.62952 63.7235
6.8083 59.666
6.98711 56.6117
7.16591 56.5486
7.34475 88.809
7.5236 55.2635
7.70247 56.9921
7.88135 58.8966
8.06026 63.1469
8.23919 70.5388
8.41812 87.308
8.59709 1202.86
8.77609 102.368
8.9551 92.4479
9.13412 83.4656
9.31318 84.2974
9.49226 85.7918
9.67134 99.4568
9.85047 101.456
10.0296 382.332
10.2088 430.869
10.388 107.285
10.5672 505.188
10.7465 88.4419
10.9257 79.6613
11.105 72.795
11.2844 71.1161
11.4637 66.0031
11.6431 64.5428
11.8225 63.453
12.002 65.056
12.1814 152.652
12.3609 71.3689
12.5405 65.4975
12.72 71.1286
12.8996 72.1298
13.0792 80.7125
13.2589 241.835
13.4386 128.537
13.6183 246.781
13.7981 99.43
13.9779 77.1252
14.1577 73.8059
14.3376 72.7436
14.5175 69.9555
14.6974 71.7545
14.8774 114.791
15.0574 154.482
15.2374 71.9598
15.4175 67.3393
15.5976 67.0487
15.7778 98.9363
15.958 159.301
16.1382 63.7753
16.3185 59.5485
16.4988 56.7101
16.6792 55.5567
16.8596 56.1125
17.04 56.7601
17.2205 68.1232
17.401 72.6605
17.5815 60.2644
17.7622 62.4365
17.9428 76.4502
18.1237 139.982
18.3044 91.3356
18.4852 79.1888
18.666 61.4516
18.8469 59.1438
19.0278 57.8496
19.2088 60.8967
19.3898 77.5147
19.5709 55.2768
19.752 54.4427
19.9332 57.561
20.1144 70.9776
20.2957 64.4855
20.477 54.5874
20.6586 50.5543
20.84 49.87
21.0215 49.5906
21.203 51.6353
21.3846 49.8706
21.5662 49.8082
21.7479 53.7923
21.9297 65.4035
22.1115 56.8896
22.2933 50.8298
22.4753 49.7538
22.6572 49.7836
22.8393 52.8079
23.0214 58.3255
23.2037 49.7053
23.3859 50.6982
23.5682 57.5848
23.7505 49.3846
23.9329 45.973
24.1154 45.0173
24.2979 44.3136
24.4805 43.7373
24.6631 43.6214
24.8458 42.9784
25.0286 43.5466
25.2114 45.4889
25.3943 45.5043
25.5773 41.8153
25.7605 41.2694
25.9436 41.5608
26.1268 42.5362
26.31 41.0145
26.4933 41.5659
26.6767 42.8465
26.8601 41.2865
27.0437 39.5463
27.2272 39.2606
27.4109 39.2435
27.5946 39.1974
27.7784 38.4378
27.9623 39.0275
28.1462 39.3898
28.3304 37.91
28.5145 36.7208
28.6987 36.1722
28.8829 36.0838
29.0673 35.1831
29.2517 34.916
29.4361 34.8238
29.6207 33.7065
29.8053 33.511
29.99 33.1985
30.1748 32.9234
30.3597 32.8129
30.5447 32.7385
30.7297 32.7381
30.915 32.1638
31.1002 31.7111
31.2855 31.4177
31.4708 31.3595
31.6563 30.9873
31.8418 30.6643
32.0275 30.4865
32.2132 29.9543
32.399 29.4583
32.5848 29.057
32.7708 28.6567
32.9569 28.5122
33.143 28.2277
33.3293 27.9348
33.5158 27.5942
33.7022 27.0839
33.8887 26.7854
34.0753 26.4605
34.262 26.1821
34.4488 25.6846
34.6357 25.3811
34.8227 25.1357
35.0098 24.965
35.1969 24.6096
35.3842 24.4514
35.5716 24.2162
35.759 23.951
35.9468 23.5426
36.1345 23.2951
36.3222 23.1087
36.5101 22.8302
36.6981 22.548
36.8861 22.24
37.0743 21.9074
37.2626 21.6131
37.451 21.3679
37.6395 21.2128
37.8281 20.8515
38.0168 20.5133
38.2056 20.3276
38.3945 20.0443
38.5837 19.8338
38.7728 19.5945
38.9621 19.3066
39.1514 19.0765
39.3409 18.773
39.5304 18.5753
39.7201 18.3927
39.9099 18.1233
40.0999 17.9215
40.2899 17.6263
40.48 17.4504
40.6703 17.2311
40.8607 17.0857
41.0512 16.8112
41.242 16.5384
41.4327 16.3436
41.6236 16.0537
41.8146 15.8953
42.0057 15.7098
42.1969 15.5019
42.3882 15.3196
42.5797 15.0881
42.7713 14.8701
42.963 14.6748
43.1549 14.4944
43.3468 14.2425
43.5389 14.0952
43.7312 13.8897
43.9237 13.7401
44.1162 13.4666
44.3088 13.3028
44.5016 13.0963
44.6945 12.9892
44.8875 12.8115
45.0806 12.596
45.2739 12.4055
45.4673 12.2503
45.6609 12.0394
45.8546 11.9083
46.0484 11.7307
46.2424 11.5668
46.4365 11.3739
46.631 11.2387
46.8254 11.0021
47.0199 10.9011
47.2146 10.7427
47.4095 10.58
47.6044 10.448
47.7996 10.2899
47.9948 10.1151
48.1902 9.95198
48.3858 9.81832
48.5815 9.7175
48.7774 9.56331
48.9734 9.40085
49.1696 9.29087
49.3661 9.11792
49.5626 8.96439
49.7592 8.85242
49.956 8.70688
50.153 8.58968
50.3501 8.45539
50.5474 8.32599
50.7448 8.2166
50.9424 8.08357
51.1402 7.92191
51.3381 7.84063
51.5362 7.70662
51.7344 7.60826
51.9328 7.41498
52.1316 7.29897
52.3304 7.20343
52.5293 7.05892
52.7284 6.95037
52.9276 6.81978
53.1271 6.75809
53.3267 6.61133
53.5265 6.50789
53.7264 6.37377
53.9266 6.28745
54.1269 6.13688
54.3274 6.05041
54.528 5.91606
54.7289 5.7005
54.9301 5.57837
55.1314 5.48288
55.3328 5.2361
55.5344 5.02564
55.7361 4.93568