File: XRD/Ni3Fe_FD0093.xy
TT I
1.27165 9.09887
1.45013 7.30777
1.62863 6.40066
1.80712 5.9646
1.98562 5.68475
2.16411 5.43056
2.34263 4.68514
2.52115 4.40678
2.69965 4.55322
2.87818 7.70313
3.05672 11.5029
3.23527 14.8733
3.4138 18.5671
3.59237 21.5221
3.77094 25.1605
3.9495 28.287
4.12809 32.8136
4.30669 37.6252
4.4853 44.3089
4.6639 53.422
4.84253 66.3867
5.02118 94.9668
5.19981 709.454
5.37848 803.216
5.55716 114.448
5.73586 99.644
5.91455 115.251
6.09328 1972.93
6.27201 99.7136
6.45075 67.3691
6.62952 59.5641
6.8083 54.9848
6.98711 52.6396
7.16591 51.7714
7.34475 51.3418
7.5236 61.0985
7.70247 53.2474
7.88135 55.3507
8.06026 59.9896
8.23919 67.3781
8.41812 84.6478
8.59709 716.199
8.77609 136.713
8.9551 85.5714
9.13412 81.5156
9.31318 101.571
9.49226 82.7824
9.67134 87.7086
9.85047 98.5141
10.0296 602.608
10.2088 1293.19
10.388 106.334
10.5672 240.15
10.7465 98.2365
10.9257 74.6203
11.105 69.2025
11.2844 65.0846
11.4637 62.5174
11.6431 61.176
11.8225 60.4309
12.002 72.1355
12.1814 99.8514
12.3609 84.5505
12.5405 61.852
12.72 63.8136
12.8996 68.3951
13.0792 79.2994
13.2589 178.301
13.4386 273.709
13.6183 160.454
13.7981 197.885
13.9779 75.0686
14.1577 79.019
14.3376 68.1549
14.5175 67.0255
14.6974 68.7841
14.8774 119.815
15.0574 208.161
15.2374 68.5036
15.4175 65.2457
15.5976 64.6536
15.7778 108.208
15.958 171.211
16.1382 62.8688
16.3185 56.5458
16.4988 54.1464
16.6792 53.0994
16.8596 53.2934
17.04 54.6906
17.2205 62.7158
17.401 81.2631
17.5815 57.8704
17.7622 60.5728
17.9428 85.6532
18.1237 95.2703
18.3044 88.4964
18.4852 101.038
18.666 60.1473
18.8469 57.2386
19.0278 55.8638
19.2088 61.6041
19.3898 63.6457
19.5709 57.861
19.752 52.4289
19.9332 57.6484
20.1144 62.3054
20.2957 59.4045
20.477 61.7473
20.6586 48.9764
20.84 48.6351
21.0215 48.2524
21.203 48.1416
21.3846 50.3021
21.5662 48.1149
21.7479 53.1818
21.9297 57.3718
22.1115 56.2902
22.2933 53.4032
22.4753 47.9061
22.6572 48.2665
22.8393 50.6662
23.0214 53.6255
23.2037 49.9695
23.3859 51.3629
23.5682 50.3024
23.7505 55.2903
23.9329 45.0341
24.1154 43.6962
24.2979 42.9093
24.4805 42.2057
24.6631 42.3834
24.8458 41.8907
25.0286 42.1865
25.2114 43.0272
25.3943 43.403
25.5773 41.7106
25.7605 40.1784
25.9436 40.2462
26.1268 40.5079
26.31 40.7369
26.4933 40.0874
26.6767 40.5756
26.8601 40.8818
27.0437 39.0643
27.2272 38.2544
27.4109 37.7547
27.5946 37.8904
27.7784 37.994
27.9623 37.5209
28.1462 38.3769
28.3304 37.4226
28.5145 35.7552
28.6987 35.285
28.8829 34.9058
29.0673 34.6979
29.2517 33.9141
29.4361 33.4868
29.6207 33.084
29.8053 32.521
29.99 32.2106
30.1748 31.9084
30.3597 32.0467
30.5447 31.7596
30.7297 31.4968
30.915 31.5634
31.1002 30.9024
31.2855 30.4952
31.4708 30.2694
31.6563 30.3666
31.8418 29.7574
32.0275 29.4754
32.2132 29.2905
32.399 28.5958
32.5848 28.1822
32.7708 27.8031
32.9569 27.6985
33.143 27.3302
33.3293 27.0419
33.5158 26.8626
33.7022 26.2633
33.8887 25.9758
34.0753 25.7729
34.262 25.2846
34.4488 25.0426
34.6357 24.6438
34.8227 24.3785
35.0098 24.1609
35.1969 23.9355
35.3842 23.6661
35.5716 23.4858
35.759 23.2937
35.9468 22.7851
36.1345 22.6114
36.3222 22.4263
36.5101 22.0847
36.6981 21.8269
36.8861 21.5455
37.0743 21.2517
37.2626 21.0002
37.451 20.7232
37.6395 20.5585
37.8281 20.2329
38.0168 19.9554
38.2056 19.6948
38.3945 19.4089
38.5837 19.2501
38.7728 18.9716
38.9621 18.7669
39.1514 18.4785
39.3409 18.1945
39.5304 18.0781
39.7201 17.8249
39.9099 17.64
40.0999 17.3637
40.2899 17.2382
40.48 16.8957
40.6703 16.7267
40.8607 16.5331
41.0512 16.3212
41.242 16.0358
41.4327 15.9036
41.6236 15.6423
41.8146 15.4926
42.0057 15.2773
42.1969 15.0169
42.3882 14.8512
42.5797 14.6818
42.7713 14.4506
42.963 14.231
43.1549 14.0956
43.3468 13.8197
43.5389 13.6829
43.7312 13.4491
43.9237 13.2964
44.1162 13.1162
44.3088 12.973
44.5016 12.7381
44.6945 12.5301
44.8875 12.3805
45.0806 12.1889
45.2739 12.0611
45.4673 11.9314
45.6609 11.7396
45.8546 11.584
46.0484 11.4055
46.2424 11.233
46.4365 11.1161
46.631 10.8923
46.8254 10.7176
47.0199 10.5676
47.2146 10.4208
47.4095 10.2737
47.6044 10.1442
47.7996 10.0165
47.9948 9.79688
48.1902 9.71728
48.3858 9.53719
48.5815 9.4611
48.7774 9.28417
48.9734 9.16294
49.1696 9.02208
49.3661 8.89634
49.5626 8.71676
49.7592 8.59907
49.956 8.47731
50.153 8.35453
50.3501 8.18784
50.5474 8.08429
50.7448 7.95668
50.9424 7.85034
51.1402 7.74097
51.3381 7.59455
51.5362 7.49109
51.7344 7.3523
51.9328 7.23028
52.1316 7.10221
52.3304 7.03479
52.5293 6.88746
52.7284 6.77269
52.9276 6.68881
53.1271 6.55882
53.3267 6.44477
53.5265 6.3175
53.7264 6.22624
53.9266 6.11078
54.1269 5.97244
54.3274 5.86148
54.528 5.69866
54.7289 5.4891
54.9301 5.33274
55.1314 5.18882
55.3328 4.95222
55.5344 4.79472
55.7361 4.67296