File: XRD/Ni3Fe_FD0273.xy
TT I
1.27165 7.87108
1.45013 6.13552
1.62863 5.59027
1.80712 5.36319
1.98562 5.10037
2.16411 5.03981
2.34263 5.20994
2.52115 6.12257
2.69965 6.44477
2.87818 7.79417
3.05672 11.6911
3.23527 15.0107
3.4138 19.4454
3.59237 24.538
3.77094 27.0935
3.9495 30.4964
4.12809 35.8991
4.30669 207.322
4.4853 65.6799
4.6639 57.0734
4.84253 70.1884
5.02118 92.8734
5.19981 527.361
5.37848 267.011
5.55716 109.287
5.73586 98.2375
5.91455 103.533
6.09328 3738.67
6.27201 89.5109
6.45075 71.0408
6.62952 65.5696
6.8083 60.8603
6.98711 58.2603
7.16591 58.0727
7.34475 92.2148
7.5236 56.811
7.70247 58.1552
7.88135 59.8885
8.06026 64.7907
8.23919 72.4405
8.41812 89.7042
8.59709 1067.85
8.77609 109.408
8.9551 95.6343
9.13412 85.6396
9.31318 86.475
9.49226 88.3848
9.67134 102.138
9.85047 104.982
10.0296 423.475
10.2088 591.932
10.388 111.112
10.5672 455.678
10.7465 91.4702
10.9257 81.7634
11.105 74.9332
11.2844 73.2319
11.4637 67.5562
11.6431 66.4769
11.8225 65.3204
12.002 66.4465
12.1814 141.529
12.3609 75.1375
12.5405 67.4894
12.72 72.576
12.8996 74.1128
13.0792 82.7001
13.2589 224.509
13.4386 153.314
13.6183 225.784
13.7981 114.909
13.9779 79.1584
14.1577 75.8018
14.3376 74.2066
14.5175 71.6447
14.6974 73.7352
14.8774 114.491
15.0574 174.696
15.2374 73.8605
15.4175 69.2781
15.5976 68.6559
15.7778 99.5513
15.958 174.599
16.1382 65.5437
16.3185 61.0115
16.4988 57.9269
16.6792 56.7809
16.8596 57.3508
17.04 58.0557
17.2205 68.292
17.401 77.557
17.5815 61.8177
17.7622 63.9723
17.9428 79.3938
18.1237 136.916
18.3044 90.5445
18.4852 85.9154
18.666 63.2106
18.8469 60.5765
19.0278 59.3924
19.2088 62.6389
19.3898 77.4071
19.5709 57.0653
19.752 55.6889
19.9332 58.8522
20.1144 71.8617
20.2957 64.7361
20.477 57.353
20.6586 51.8457
20.84 50.8697
21.0215 50.8288
21.203 52.3944
21.3846 51.2927
21.5662 50.9076
21.7479 54.831
21.9297 66.4172
22.1115 57.8912
22.2933 52.4604
22.4753 50.9481
22.6572 51.0432
22.8393 53.6652
23.0214 59.8808
23.2037 51.1367
23.3859 52.1201
23.5682 57.7706
23.7505 51.3964
23.9329 47.2229
24.1154 46.0414
24.2979 45.3049
24.4805 44.665
24.6631 44.5785
24.8458 44.235
25.0286 44.5647
25.2114 46.3107
25.3943 46.495
25.5773 42.7581
25.7605 42.1329
25.9436 42.6279
26.1268 43.3941
26.31 41.9419
26.4933 42.3687
26.6767 43.76
26.8601 42.2746
27.0437 40.6547
27.2272 40.2017
27.4109 39.9554
27.5946 40.0177
27.7784 39.5539
27.9623 39.8694
28.1462 40.4857
28.3304 38.7876
28.5145 37.5628
28.6987 37.0898
28.8829 36.8978
29.0673 36.2232
29.2517 35.7678
29.4361 35.544
29.6207 34.5237
29.8053 34.2073
29.99 33.9228
30.1748 33.676
30.3597 33.6326
30.5447 33.5334
30.7297 33.4664
30.915 33.0715
31.1002 32.4389
31.2855 32.1982
31.4708 32.1418
31.6563 31.7579
31.8418 31.3378
32.0275 31.1595
32.2132 30.706
32.399 30.1793
32.5848 29.652
32.7708 29.4338
32.9569 29.3047
33.143 29.0177
33.3293 28.484
33.5158 28.1958
33.7022 27.7133
33.8887 27.3929
34.0753 27.106
34.262 26.6684
34.4488 26.3608
34.6357 26.0669
34.8227 25.6868
35.0098 25.4566
35.1969 25.1962
35.3842 24.9516
35.5716 24.7174
35.759 24.4456
35.9468 24.1094
36.1345 23.8228
36.3222 23.7053
36.5101 23.2891
36.6981 23.0667
36.8861 22.7084
37.0743 22.3819
37.2626 22.2181
37.451 21.9559
37.6395 21.6559
37.8281 21.4035
38.0168 21.0726
38.2056 20.7892
38.3945 20.4884
38.5837 20.2311
38.7728 20.0315
38.9621 19.728
39.1514 19.5109
39.3409 19.2257
39.5304 19.04
39.7201 18.7385
39.9099 18.597
40.0999 18.3453
40.2899 18.1191
40.48 17.8223
40.6703 17.6469
40.8607 17.4719
41.0512 17.2075
41.242 16.9833
41.4327 16.7422
41.6236 16.5388
41.8146 16.2881
42.0057 16.0658
42.1969 15.8738
42.3882 15.6848
42.5797 15.4412
42.7713 15.2607
42.963 15.0242
43.1549 14.828
43.3468 14.6325
43.5389 14.4551
43.7312 14.2014
43.9237 14.0744
44.1162 13.8819
44.3088 13.6753
44.5016 13.4108
44.6945 13.2858
44.8875 13.0799
45.0806 12.8775
45.2739 12.7116
45.4673 12.5631
45.6609 12.3358
45.8546 12.1389
46.0484 11.9713
46.2424 11.8169
46.4365 11.6491
46.631 11.483
46.8254 11.3189
47.0199 11.1593
47.2146 11.005
47.4095 10.8336
47.6044 10.641
47.7996 10.5004
47.9948 10.3735
48.1902 10.2182
48.3858 10.0352
48.5815 9.9095
48.7774 9.75888
48.9734 9.66631
49.1696 9.49545
49.3661 9.3332
49.5626 9.16818
49.7592 9.07489
49.956 8.95272
50.153 8.78099
50.3501 8.64449
50.5474 8.49168
50.7448 8.38992
50.9424 8.22815
51.1402 8.16029
51.3381 7.98483
51.5362 7.85976
51.7344 7.73456
51.9328 7.62662
52.1316 7.4759
52.3304 7.3667
52.5293 7.23999
52.7284 7.08366
52.9276 6.96977
53.1271 6.89412
53.3267 6.77115
53.5265 6.60845
53.7264 6.55446
53.9266 6.43016
54.1269 6.33451
54.3274 6.17582
54.528 6.02303
54.7289 5.8369
54.9301 5.70102
55.1314 5.58798
55.3328 5.29491
55.5344 5.13326
55.7361 5.02546