File: XRD/Ni3Fe_FD0845.xy
TT I
1.27165 7.05701
1.45013 5.88624
1.62863 5.66227
1.80712 5.31214
1.98562 4.78551
2.16411 5.32949
2.34263 5.56567
2.52115 7.10032
2.69965 9.11124
2.87818 9.50771
3.05672 11.3247
3.23527 15.4579
3.4138 19.0229
3.59237 23.6454
3.77094 25.7708
3.9495 29.3049
4.12809 34.8796
4.30669 187.574
4.4853 62.2853
4.6639 54.6715
4.84253 66.5389
5.02118 85.6339
5.19981 310.034
5.37848 177.106
5.55716 101.308
5.73586 91.2601
5.91455 91.8679
6.09328 4368.18
6.27201 81.2946
6.45075 66.6167
6.62952 62.1585
6.8083 57.9497
6.98711 55.3265
7.16591 54.4465
7.34475 84.5764
7.5236 54.0107
7.70247 55.4785
7.88135 57.1807
8.06026 61.441
8.23919 68.3373
8.41812 83.4569
8.59709 1172.17
8.77609 97.3906
8.9551 89.6663
9.13412 81.1623
9.31318 81.8139
9.49226 83.7222
9.67134 96.2458
9.85047 98.6547
10.0296 319.856
10.2088 401.837
10.388 102.575
10.5672 530.043
10.7465 85.8144
10.9257 77.3012
11.105 70.8475
11.2844 69.4016
11.4637 64.1012
11.6431 62.9007
11.8225 61.8911
12.002 62.5038
12.1814 155.929
12.3609 69.3025
12.5405 63.9434
12.72 68.742
12.8996 70.0533
13.0792 77.7578
13.2589 240.257
13.4386 121.498
13.6183 251.845
13.7981 95.8543
13.9779 74.816
14.1577 71.4976
14.3376 70.6444
14.5175 68.0324
14.6974 69.3922
14.8774 108.535
15.0574 147.079
15.2374 69.9231
15.4175 65.5654
15.5976 64.8408
15.7778 93.0251
15.958 151.415
16.1382 61.6507
16.3185 57.6894
16.4988 54.9735
16.6792 53.7305
16.8596 54.4452
17.04 55.1158
17.2205 66.0296
17.401 69.6912
17.5815 58.3519
17.7622 60.467
17.9428 71.8939
18.1237 137.587
18.3044 90.7536
18.4852 76.0742
18.666 59.824
18.8469 57.4314
19.0278 56.1563
19.2088 58.7828
19.3898 75.6619
19.5709 53.5911
19.752 52.6058
19.9332 55.5555
20.1144 69.2384
20.2957 63.969
20.477 53.0372
20.6586 49.0643
20.84 48.307
21.0215 48.1553
21.203 50.3272
21.3846 48.3145
21.5662 48.2382
21.7479 51.9355
21.9297 63.5971
22.1115 55.4547
22.2933 49.246
22.4753 48.3961
22.6572 48.2111
22.8393 51.2273
23.0214 56.7474
23.2037 48.1216
23.3859 48.9893
23.5682 56.4629
23.7505 47.6453
23.9329 44.7198
24.1154 43.4806
24.2979 42.8679
24.4805 42.4785
24.6631 42.3298
24.8458 41.7733
25.0286 42.3706
25.2114 44.1376
25.3943 44.0546
25.5773 40.453
25.7605 39.8677
25.9436 40.2097
26.1268 41.2754
26.31 39.7849
26.4933 40.1943
26.6767 41.7538
26.8601 40.0012
27.0437 38.3688
27.2272 38.0475
27.4109 37.867
27.5946 37.8539
27.7784 37.4529
27.9623 38.0417
28.1462 38.2458
28.3304 36.6734
28.5145 35.6663
28.6987 35.1616
28.8829 35.03
29.0673 34.1667
29.2517 33.9425
29.4361 33.7957
29.6207 32.8704
29.8053 32.4525
29.99 32.2435
30.1748 32.0486
30.3597 31.9811
30.5447 31.7453
30.7297 31.8374
30.915 31.2141
31.1002 30.7669
31.2855 30.4118
31.4708 30.4359
31.6563 29.9914
31.8418 29.7831
32.0275 29.6285
32.2132 29.1046
32.399 28.5673
32.5848 28.1845
32.7708 27.8442
32.9569 27.6714
33.143 27.4404
33.3293 27.0849
33.5158 26.7592
33.7022 26.3158
33.8887 26.012
34.0753 25.6836
34.262 25.296
34.4488 25.054
34.6357 24.7771
34.8227 24.3649
35.0098 24.2126
35.1969 23.8954
35.3842 23.7636
35.5716 23.5578
35.759 23.206
35.9468 22.8842
36.1345 22.5902
36.3222 22.4375
36.5101 22.1697
36.6981 21.8133
36.8861 21.5351
37.0743 21.189
37.2626 21.0433
37.451 20.6942
37.6395 20.5816
37.8281 20.2491
38.0168 19.9618
38.2056 19.7031
38.3945 19.469
38.5837 19.2827
38.7728 19.0058
38.9621 18.7147
39.1514 18.4986
39.3409 18.2549
39.5304 18.0666
39.7201 17.8169
39.9099 17.6512
40.0999 17.4446
40.2899 17.1538
40.48 16.9019
40.6703 16.7532
40.8607 16.5667
41.0512 16.3002
41.242 16.099
41.4327 15.8354
41.6236 15.6612
41.8146 15.4801
42.0057 15.2886
42.1969 15.0035
42.3882 14.8564
42.5797 14.6895
42.7713 14.4776
42.963 14.265
43.1549 14.131
43.3468 13.8553
43.5389 13.6948
43.7312 13.5049
43.9237 13.3175
44.1162 13.0799
44.3088 12.9567
44.5016 12.7153
44.6945 12.6303
44.8875 12.4244
45.0806 12.2529
45.2739 12.0071
45.4673 11.8975
45.6609 11.74
45.8546 11.6025
46.0484 11.4021
46.2424 11.2579
46.4365 11.0984
46.631 10.9337
46.8254 10.7327
47.0199 10.5948
47.2146 10.4321
47.4095 10.2602
47.6044 10.1319
47.7996 9.97988
47.9948 9.82755
48.1902 9.64279
48.3858 9.57308
48.5815 9.41188
48.7774 9.27662
48.9734 9.1361
49.1696 9.00842
49.3661 8.83396
49.5626 8.74391
49.7592 8.60225
49.956 8.48089
50.153 8.34985
50.3501 8.19776
50.5474 8.10283
50.7448 7.9554
50.9424 7.83207
51.1402 7.71346
51.3381 7.57422
51.5362 7.44019
51.7344 7.36948
51.9328 7.20421
52.1316 7.09832
52.3304 6.98484
52.5293 6.88173
52.7284 6.77663
52.9276 6.61614
53.1271 6.56833
53.3267 6.44754
53.5265 6.33267
53.7264 6.22297
53.9266 6.13547
54.1269 5.95106
54.3274 5.87307
54.528 5.75256
54.7289 5.60529
54.9301 5.4012
55.1314 5.29771
55.3328 5.11254
55.5344 4.93274
55.7361 4.78242