File: XRD/Ni3Fe_FD0423.xy
TT I
1.27165 7.47344
1.45013 6.22317
1.62863 4.72769
1.80712 4.9207
1.98562 4.79552
2.16411 4.57783
2.34263 5.41616
2.52115 5.8554
2.69965 7.63625
2.87818 8.40589
3.05672 10.8424
3.23527 14.626
3.4138 19.3208
3.59237 24.7696
3.77094 26.7366
3.9495 30.1902
4.12809 35.8198
4.30669 301.455
4.4853 75.2042
4.6639 56.0285
4.84253 67.8474
5.02118 88.0587
5.19981 417.903
5.37848 223.327
5.55716 103.901
5.73586 94.0624
5.91455 96.5665
6.09328 3931.16
6.27201 87.4293
6.45075 69.1333
6.62952 65.0209
6.8083 60.6096
6.98711 57.3928
7.16591 57.2434
7.34475 110.832
7.5236 56.2698
7.70247 57.4384
7.88135 59.2251
8.06026 63.3729
8.23919 71.1843
8.41812 87.6004
8.59709 1054.65
8.77609 104.038
8.9551 96.1281
9.13412 82.983
9.31318 84.0191
9.49226 85.826
9.67134 104.582
9.85047 101.73
10.0296 349.146
10.2088 501.897
10.388 108.327
10.5672 471.932
10.7465 89.136
10.9257 80.9118
11.105 73.5778
11.2844 73.2618
11.4637 66.4735
11.6431 65.0608
11.8225 63.6234
12.002 65.1622
12.1814 141.895
12.3609 75.3654
12.5405 66.0136
12.72 73.2793
12.8996 72.3034
13.0792 80.1582
13.2589 219.25
13.4386 139.584
13.6183 225.119
13.7981 106.435
13.9779 77.3264
14.1577 74.517
14.3376 74.2342
14.5175 70.4175
14.6974 72.1355
14.8774 108.871
15.0574 167.671
15.2374 73.805
15.4175 67.8689
15.5976 67.0906
15.7778 94.1623
15.958 171.66
16.1382 65.369
16.3185 60.7358
16.4988 56.9915
16.6792 55.7344
16.8596 56.6566
17.04 57.0952
17.2205 66.7604
17.401 74.7972
17.5815 60.4929
17.7622 62.4967
17.9428 75.1338
18.1237 137.393
18.3044 88.8368
18.4852 83.0568
18.666 61.9995
18.8469 59.3871
19.0278 58.5118
19.2088 60.7232
19.3898 77.7805
19.5709 55.6068
19.752 54.4527
19.9332 57.2536
20.1144 70.8578
20.2957 63.5475
20.477 55.8729
20.6586 50.8259
20.84 49.7947
21.0215 49.673
21.203 51.6593
21.3846 50.4391
21.5662 49.8059
21.7479 53.4778
21.9297 65.5552
22.1115 56.957
22.2933 51.3972
22.4753 50.1338
22.6572 49.7394
22.8393 52.7294
23.0214 58.9544
23.2037 49.9397
23.3859 50.545
23.5682 57.0344
23.7505 50.0165
23.9329 46.3982
24.1154 45.2137
24.2979 44.3595
24.4805 43.8617
24.6631 43.9387
24.8458 43.1615
25.0286 43.5705
25.2114 45.6163
25.3943 45.9393
25.5773 42.039
25.7605 41.465
25.9436 41.7118
26.1268 42.6669
26.31 41.074
26.4933 41.5578
26.6767 43.0066
26.8601 41.4905
27.0437 39.8222
27.2272 39.4217
27.4109 39.3702
27.5946 39.2117
27.7784 38.6586
27.9623 39.0012
28.1462 39.7702
28.3304 38.1208
28.5145 36.8577
28.6987 36.4099
28.8829 36.1589
29.0673 35.4492
29.2517 34.9786
29.4361 34.8648
29.6207 33.8777
29.8053 33.6802
29.99 33.2408
30.1748 33.1435
30.3597 33.0316
30.5447 32.7596
30.7297 32.9314
30.915 32.3637
31.1002 31.7864
31.2855 31.57
31.4708 31.5682
31.6563 30.982
31.8418 30.6798
32.0275 30.6423
32.2132 30.0307
32.399 29.5928
32.5848 29.065
32.7708 28.8114
32.9569 28.6669
33.143 28.4178
33.3293 28.0239
33.5158 27.6459
33.7022 27.2469
33.8887 26.9479
34.0753 26.6603
34.262 26.2718
34.4488 25.8354
34.6357 25.5369
34.8227 25.3475
35.0098 25.0753
35.1969 24.6972
35.3842 24.5419
35.5716 24.3257
35.759 24.0489
35.9468 23.6532
36.1345 23.4014
36.3222 23.1582
36.5101 22.9456
36.6981 22.5999
36.8861 22.3749
37.0743 22.0623
37.2626 21.7583
37.451 21.4631
37.6395 21.2897
37.8281 20.9775
38.0168 20.6826
38.2056 20.4056
38.3945 20.1131
38.5837 19.9047
38.7728 19.6509
38.9621 19.3144
39.1514 19.2028
39.3409 18.8859
39.5304 18.6968
39.7201 18.5092
39.9099 18.2077
40.0999 18.0018
40.2899 17.7541
40.48 17.5083
40.6703 17.3751
40.8607 17.1274
41.0512 16.9277
41.242 16.6313
41.4327 16.4944
41.6236 16.2386
41.8146 16.0033
42.0057 15.7447
42.1969 15.554
42.3882 15.3569
42.5797 15.1722
42.7713 14.9833
42.963 14.7153
43.1549 14.5473
43.3468 14.3631
43.5389 14.1339
43.7312 13.9461
43.9237 13.787
44.1162 13.5952
44.3088 13.4073
44.5016 13.1978
44.6945 13.0161
44.8875 12.8688
45.0806 12.7007
45.2739 12.4953
45.4673 12.3217
45.6609 12.1255
45.8546 11.9939
46.0484 11.8087
46.2424 11.6469
46.4365 11.4613
46.631 11.2759
46.8254 11.0847
47.0199 10.9459
47.2146 10.8076
47.4095 10.6221
47.6044 10.4992
47.7996 10.2972
47.9948 10.1845
48.1902 10.0341
48.3858 9.90661
48.5815 9.74974
48.7774 9.64588
48.9734 9.47191
49.1696 9.31275
49.3661 9.12394
49.5626 9.04912
49.7592 8.90864
49.956 8.76538
50.153 8.66863
50.3501 8.50592
50.5474 8.37701
50.7448 8.22952
50.9424 8.10098
51.1402 8.00326
51.3381 7.83622
51.5362 7.76182
51.7344 7.57354
51.9328 7.45618
52.1316 7.31002
52.3304 7.21672
52.5293 7.09425
52.7284 7.02595
52.9276 6.86053
53.1271 6.79826
53.3267 6.70452
53.5265 6.535
53.7264 6.46818
53.9266 6.32359
54.1269 6.21341
54.3274 6.05052
54.528 5.90974
54.7289 5.78115
54.9301 5.62322
55.1314 5.45196
55.3328 5.32807
55.5344 5.0792
55.7361 4.90942