File: XRD/Ni3Fe_FD0107.xy
TT I
1.27165 8.20581
1.45013 7.01296
1.62863 6.36024
1.80712 5.5545
1.98562 5.43977
2.16411 5.10372
2.34263 4.26612
2.52115 4.21986
2.69965 5.2646
2.87818 7.50719
3.05672 10.6258
3.23527 14.546
3.4138 18.55
3.59237 21.4495
3.77094 24.6713
3.9495 28.5541
4.12809 32.3525
4.30669 36.8813
4.4853 44.0246
4.6639 53.4059
4.84253 65.6444
5.02118 91.9251
5.19981 634.06
5.37848 614.526
5.55716 110.124
5.73586 96.9115
5.91455 109.618
6.09328 2304.87
6.27201 93.907
6.45075 66.0261
6.62952 59.0068
6.8083 54.8887
6.98711 52.8144
7.16591 51.837
7.34475 51.4737
7.5236 57.7022
7.70247 53.2059
7.88135 55.6077
8.06026 59.9299
8.23919 66.7192
8.41812 83.8694
8.59709 786.545
8.77609 125.588
8.9551 84.8282
9.13412 80.633
9.31318 91.6294
9.49226 82.3036
9.67134 87.3393
9.85047 98.2238
10.0296 577.741
10.2088 1143.78
10.388 105.209
10.5672 279.285
10.7465 93.3769
10.9257 74.7446
11.105 69.3995
11.2844 65.2103
11.4637 62.5203
11.6431 61.3163
11.8225 60.2863
12.002 67.5706
12.1814 107.42
12.3609 79.2032
12.5405 62.4778
12.72 64.3759
12.8996 68.666
13.0792 78.7169
13.2589 189.192
13.4386 242.805
13.6183 173.627
13.7981 177.71
13.9779 75.313
14.1577 75.6532
14.3376 67.9942
14.5175 67.4972
14.6974 68.8979
14.8774 120.284
15.0574 207.257
15.2374 68.489
15.4175 65.2565
15.5976 64.6895
15.7778 107.865
15.958 178.399
16.1382 61.9723
16.3185 56.4142
16.4988 54.2426
16.6792 53.1548
16.8596 53.536
17.04 54.6955
17.2205 63.4558
17.401 80.7417
17.5815 58.2535
17.7622 60.4936
17.9428 84.5342
18.1237 103.65
18.3044 87.785
18.4852 98.3351
18.666 60.3644
18.8469 57.5889
19.0278 56.0033
19.2088 61.4435
19.3898 65.9014
19.5709 56.8461
19.752 52.5097
19.9332 57.8056
20.1144 64.3613
20.2957 59.8293
20.477 60.1214
20.6586 49.1776
20.84 48.4777
21.0215 48.3456
21.203 48.5547
21.3846 50.198
21.5662 48.3708
21.7479 53.4536
21.9297 59.4108
22.1115 55.9252
22.2933 52.8417
22.4753 48.4165
22.6572 48.5373
22.8393 51.1226
23.0214 55.0827
23.2037 49.7151
23.3859 51.3375
23.5682 51.7176
23.7505 54.2961
23.9329 45.132
24.1154 43.7449
24.2979 43.0705
24.4805 42.3123
24.6631 42.5625
24.8458 42.0337
25.0286 42.276
25.2114 43.8011
25.3943 43.8626
25.5773 41.4329
25.7605 40.2171
25.9436 40.3978
26.1268 40.8409
26.31 40.6652
26.4933 40.291
26.6767 41.1937
26.8601 41.0231
27.0437 39.1382
27.2272 38.4898
27.4109 38.1001
27.5946 38.1722
27.7784 38.0938
27.9623 37.8739
28.1462 38.6519
28.3304 37.652
28.5145 35.9042
28.6987 35.4404
28.8829 35.0364
29.0673 34.6959
29.2517 34.0522
29.4361 33.7134
29.6207 33.1031
29.8053 32.584
29.99 32.3969
30.1748 32.2307
30.3597 32.1651
30.5447 31.9184
30.7297 31.7751
30.915 31.6624
31.1002 31.0112
31.2855 30.6327
31.4708 30.5344
31.6563 30.5259
31.8418 29.9582
32.0275 29.7548
32.2132 29.3545
32.399 28.7864
32.5848 28.305
32.7708 27.9231
32.9569 27.803
33.143 27.4938
33.3293 27.1952
33.5158 27.0691
33.7022 26.3979
33.8887 26.1526
34.0753 25.96
34.262 25.4825
34.4488 25.1136
34.6357 24.798
34.8227 24.4688
35.0098 24.3586
35.1969 24.0159
35.3842 23.7776
35.5716 23.6474
35.759 23.3548
35.9468 22.9804
36.1345 22.6824
36.3222 22.5295
36.5101 22.3088
36.6981 21.9657
36.8861 21.6627
37.0743 21.3189
37.2626 21.121
37.451 20.8585
37.6395 20.7316
37.8281 20.4098
38.0168 20.0252
38.2056 19.7478
38.3945 19.5842
38.5837 19.3224
38.7728 19.1117
38.9621 18.8665
39.1514 18.5953
39.3409 18.3096
39.5304 18.0934
39.7201 17.9151
39.9099 17.7294
40.0999 17.4093
40.2899 17.3005
40.48 17.0276
40.6703 16.7606
40.8607 16.6583
41.0512 16.4018
41.242 16.1283
41.4327 15.9755
41.6236 15.7107
41.8146 15.5154
42.0057 15.3419
42.1969 15.0923
42.3882 14.9046
42.5797 14.7324
42.7713 14.4919
42.963 14.3135
43.1549 14.1516
43.3468 13.9623
43.5389 13.7667
43.7312 13.5357
43.9237 13.366
44.1162 13.1956
44.3088 12.9798
44.5016 12.8102
44.6945 12.6448
44.8875 12.4354
45.0806 12.2659
45.2739 12.0706
45.4673 11.9343
45.6609 11.7809
45.8546 11.6357
46.0484 11.4161
46.2424 11.3032
46.4365 11.178
46.631 10.9589
46.8254 10.7612
47.0199 10.6509
47.2146 10.5005
47.4095 10.3075
47.6044 10.1484
47.7996 10.0278
47.9948 9.86797
48.1902 9.74321
48.3858 9.62039
48.5815 9.43783
48.7774 9.36714
48.9734 9.18157
49.1696 9.03725
49.3661 8.93665
49.5626 8.72672
49.7592 8.63886
49.956 8.51529
50.153 8.37684
50.3501 8.24889
50.5474 8.14181
50.7448 8.02276
50.9424 7.86969
51.1402 7.75563
51.3381 7.63479
51.5362 7.51326
51.7344 7.39447
51.9328 7.24027
52.1316 7.15004
52.3304 7.05867
52.5293 6.91708
52.7284 6.8248
52.9276 6.67584
53.1271 6.5813
53.3267 6.47233
53.5265 6.34229
53.7264 6.19278
53.9266 6.11899
54.1269 5.98902
54.3274 5.92427
54.528 5.70428
54.7289 5.52939
54.9301 5.35749
55.1314 5.19064
55.3328 4.98965
55.5344 4.78025
55.7361 4.71464