File: XRD/Ni3Fe_FD0222.xy
TT I
1.27165 7.71309
1.45013 6.37961
1.62863 5.47442
1.80712 4.99872
1.98562 5.01116
2.16411 4.81635
2.34263 4.55182
2.52115 5.10234
2.69965 6.10866
2.87818 8.17616
3.05672 10.8994
3.23527 14.9078
3.4138 18.9005
3.59237 22.5269
3.77094 26.0364
3.9495 29.9623
4.12809 34.8384
4.30669 40.8772
4.4853 48.4104
4.6639 58.0829
4.84253 71.8099
5.02118 96.7137
5.19981 887.507
5.37848 274.679
5.55716 112.634
5.73586 100.914
5.91455 110.679
6.09328 3597.34
6.27201 89.3533
6.45075 71.0466
6.62952 64.3145
6.8083 59.7838
6.98711 57.1042
7.16591 56.2328
7.34475 55.4865
7.5236 56.786
7.70247 58.2383
7.88135 60.217
8.06026 65.4632
8.23919 73.341
8.41812 90.9942
8.59709 1058.29
8.77609 111.015
8.9551 90.6488
9.13412 86.9534
9.31318 88.4298
9.49226 89.7478
9.67134 95.3467
9.85047 106.652
10.0296 519.615
10.2088 565.964
10.388 115.142
10.5672 438.039
10.7465 92.4732
10.9257 80.8164
11.105 74.9952
11.2844 70.5004
11.4637 67.7915
11.6431 66.4751
11.8225 65.3619
12.002 68.5251
12.1814 140.509
12.3609 70.1293
12.5405 67.6247
12.72 69.7483
12.8996 75.0874
13.0792 86.4141
13.2589 227.688
13.4386 150.051
13.6183 225.07
13.7981 112.445
13.9779 80.246
14.1577 75.3537
14.3376 73.2879
14.5175 72.7641
14.6974 74.5955
14.8774 119.393
15.0574 173.221
15.2374 72.4653
15.4175 69.7765
15.5976 69.8445
15.7778 103.536
15.958 178.378
16.1382 64.053
16.3185 60.3084
16.4988 58.0353
16.6792 57.0482
16.8596 57.2507
17.04 59.3029
17.2205 68.7544
17.401 77.6578
17.5815 62.3515
17.7622 64.8577
17.9428 82.9037
18.1237 139.378
18.3044 90.1942
18.4852 84.3402
18.666 63.4428
18.8469 60.9635
19.0278 59.7694
19.2088 62.8556
19.3898 76.1915
19.5709 57.2352
19.752 56.0607
19.9332 59.4222
20.1144 72.6589
20.2957 64.408
20.477 56.986
20.6586 52.2728
20.84 51.2327
21.0215 51.4556
21.203 52.5959
21.3846 51.7278
21.5662 51.9089
21.7479 55.502
21.9297 66.6506
22.1115 57.8232
22.2933 52.6121
22.4753 50.9528
22.6572 52.1394
22.8393 54.3294
23.0214 59.9966
23.2037 51.4933
23.3859 52.7058
23.5682 57.6012
23.7505 51.4135
23.9329 47.5429
24.1154 46.3615
24.2979 45.5201
24.4805 44.9448
24.6631 44.8054
24.8458 44.4779
25.0286 45.1407
25.2114 46.6174
25.3943 46.808
25.5773 42.9466
25.7605 42.5164
25.9436 42.7823
26.1268 43.6296
26.31 42.1971
26.4933 42.6269
26.6767 44.0134
26.8601 42.3672
27.0437 40.8289
27.2272 40.4576
27.4109 40.2498
27.5946 40.2303
27.7784 39.8733
27.9623 40.0266
28.1462 40.7342
28.3304 39.0083
28.5145 37.7774
28.6987 37.4174
28.8829 36.9891
29.0673 36.3858
29.2517 35.8595
29.4361 35.6779
29.6207 34.6734
29.8053 34.3459
29.99 34.1616
30.1748 33.9118
30.3597 33.8084
30.5447 33.676
30.7297 33.671
30.915 33.1619
31.1002 32.6218
31.2855 32.3325
31.4708 32.2418
31.6563 31.9181
31.8418 31.5965
32.0275 31.3139
32.2132 30.7603
32.399 30.4048
32.5848 29.8648
32.7708 29.5771
32.9569 29.3185
33.143 29.0614
33.3293 28.7678
33.5158 28.371
33.7022 27.8146
33.8887 27.5632
34.0753 27.2184
34.262 26.8189
34.4488 26.4705
34.6357 26.1726
34.8227 25.8023
35.0098 25.6574
35.1969 25.3597
35.3842 25.1426
35.5716 24.8813
35.759 24.5756
35.9468 24.2355
36.1345 24.0005
36.3222 23.7414
36.5101 23.5236
36.6981 23.1516
36.8861 22.8797
37.0743 22.4871
37.2626 22.2321
37.451 21.9196
37.6395 21.8364
37.8281 21.4924
38.0168 21.0478
38.2056 20.8471
38.3945 20.5936
38.5837 20.3381
38.7728 20.0737
38.9621 19.7959
39.1514 19.55
39.3409 19.3115
39.5304 19.1146
39.7201 18.8813
39.9099 18.6514
40.0999 18.4162
40.2899 18.1726
40.48 17.9281
40.6703 17.6573
40.8607 17.5313
41.0512 17.2272
41.242 16.9928
41.4327 16.8336
41.6236 16.4894
41.8146 16.3036
42.0057 16.1299
42.1969 15.9348
42.3882 15.7366
42.5797 15.5027
42.7713 15.3169
42.963 15.0543
43.1549 14.8595
43.3468 14.6407
43.5389 14.4169
43.7312 14.2919
43.9237 14.0469
44.1162 13.8801
44.3088 13.6828
44.5016 13.5058
44.6945 13.3265
44.8875 13.1166
45.0806 12.8888
45.2739 12.7452
45.4673 12.5376
45.6609 12.4064
45.8546 12.2191
46.0484 12.0375
46.2424 11.9062
46.4365 11.7109
46.631 11.4532
46.8254 11.3271
47.0199 11.1646
47.2146 11.0081
47.4095 10.829
47.6044 10.6671
47.7996 10.5088
47.9948 10.3473
48.1902 10.2277
48.3858 10.0951
48.5815 9.92402
48.7774 9.80839
48.9734 9.68935
49.1696 9.47633
49.3661 9.3805
49.5626 9.21265
49.7592 9.08944
49.956 8.94179
50.153 8.82966
50.3501 8.65296
50.5474 8.54043
50.7448 8.39567
50.9424 8.25977
51.1402 8.16783
51.3381 8.01517
51.5362 7.85973
51.7344 7.74088
51.9328 7.64718
52.1316 7.48027
52.3304 7.36746
52.5293 7.26016
52.7284 7.10441
52.9276 6.99966
53.1271 6.89815
53.3267 6.76845
53.5265 6.62817
53.7264 6.53937
53.9266 6.42115
54.1269 6.29832
54.3274 6.20211
54.528 6.01493
54.7289 5.88111
54.9301 5.69367
55.1314 5.53852
55.3328 5.30703
55.5344 5.15193
55.7361 5.04273