File: XRD/Ni3Fe_FD0530.xy
TT I
1.27165 7.12959
1.45013 6.05274
1.62863 4.62404
1.80712 4.68757
1.98562 4.5948
2.16411 4.48826
2.34263 5.17223
2.52115 6.76037
2.69965 7.82636
2.87818 8.97587
3.05672 11.1677
3.23527 15.1832
3.4138 19.2976
3.59237 24.8818
3.77094 26.5558
3.9495 29.95
4.12809 35.4932
4.30669 274.371
4.4853 71.7523
4.6639 55.7962
4.84253 67.4882
5.02118 87.4828
5.19981 371.795
5.37848 206.164
5.55716 103.19
5.73586 93.0265
5.91455 94.9759
6.09328 4091.81
6.27201 85.7789
6.45075 68.428
6.62952 64.1148
6.8083 59.6468
6.98711 56.8497
7.16591 56.3987
7.34475 104.599
7.5236 55.6144
7.70247 56.803
7.88135 58.4865
8.06026 62.6937
8.23919 70.4808
8.41812 86.9038
8.59709 1098.01
8.77609 102.33
8.9551 94.441
9.13412 82.8856
9.31318 82.9855
9.49226 85.0567
9.67134 102.111
9.85047 100.378
10.0296 332.333
10.2088 467.786
10.388 106.519
10.5672 494.358
10.7465 87.9456
10.9257 79.798
11.105 72.6645
11.2844 72.2256
11.4637 65.8644
11.6431 64.4484
11.8225 63.1757
12.002 63.9828
12.1814 146.938
12.3609 73.5335
12.5405 65.429
12.72 71.8847
12.8996 71.7126
13.0792 79.2638
13.2589 226.121
13.4386 132.842
13.6183 234.091
13.7981 103.468
13.9779 76.5752
14.1577 73.5168
14.3376 73.0148
14.5175 69.4702
14.6974 71.1868
14.8774 108.471
15.0574 159.179
15.2374 72.6638
15.4175 67.1239
15.5976 66.5598
15.7778 93.7642
15.958 165.02
16.1382 64.1634
16.3185 59.712
16.4988 56.0866
16.6792 55.3575
16.8596 56.0942
17.04 56.3875
17.2205 66.4728
17.401 73.5819
17.5815 59.7094
17.7622 61.8474
17.9428 73.7405
18.1237 137.897
18.3044 89.5962
18.4852 81.5146
18.666 61.1732
18.8469 58.7594
19.0278 57.5624
19.2088 60.0561
19.3898 76.8603
19.5709 55.0905
19.752 53.7544
19.9332 56.7061
20.1144 70.3872
20.2957 63.812
20.477 54.9137
20.6586 50.217
20.84 49.3351
21.0215 48.9567
21.203 51.217
21.3846 49.6183
21.5662 49.4101
21.7479 52.9083
21.9297 65.0098
22.1115 56.6215
22.2933 50.6208
22.4753 49.4907
22.6572 49.2537
22.8393 52.3218
23.0214 58.3983
23.2037 49.3526
23.3859 50.1075
23.5682 57.0137
23.7505 49.2701
23.9329 45.9266
24.1154 44.5808
24.2979 44.0375
24.4805 43.3264
24.6631 43.3009
24.8458 42.7307
25.0286 43.1895
25.2114 45.1308
25.3943 45.2606
25.5773 41.4187
25.7605 40.8718
25.9436 41.3004
26.1268 42.2049
26.31 40.6278
26.4933 41.0668
26.6767 42.6305
26.8601 40.9409
27.0437 39.3694
27.2272 38.9756
27.4109 38.8208
27.5946 38.816
27.7784 38.3598
27.9623 38.6907
28.1462 39.2616
28.3304 37.7081
28.5145 36.4854
28.6987 36.0446
28.8829 35.8719
29.0673 35.1192
29.2517 34.7918
29.4361 34.6018
29.6207 33.6012
29.8053 33.2769
29.99 32.9668
30.1748 32.8948
30.3597 32.5801
30.5447 32.5653
30.7297 32.6082
30.915 31.965
31.1002 31.495
31.2855 31.1798
31.4708 31.1926
31.6563 30.6955
31.8418 30.455
32.0275 30.3116
32.2132 29.6952
32.399 29.3069
32.5848 28.8583
32.7708 28.4877
32.9569 28.3515
33.143 28.0891
33.3293 27.732
33.5158 27.4048
33.7022 26.9429
33.8887 26.5734
34.0753 26.2396
34.262 25.8798
34.4488 25.5551
34.6357 25.3225
34.8227 25.0223
35.0098 24.8126
35.1969 24.4623
35.3842 24.2095
35.5716 24.0799
35.759 23.7902
35.9468 23.4379
36.1345 23.0772
36.3222 22.9231
36.5101 22.6444
36.6981 22.3792
36.8861 22.0543
37.0743 21.8071
37.2626 21.5431
37.451 21.2563
37.6395 21.0902
37.8281 20.8124
38.0168 20.4612
38.2056 20.2167
38.3945 19.9305
38.5837 19.7178
38.7728 19.4644
38.9621 19.2352
39.1514 18.9699
39.3409 18.6816
39.5304 18.503
39.7201 18.3319
39.9099 18.0538
40.0999 17.804
40.2899 17.5757
40.48 17.3394
40.6703 17.174
40.8607 17.0104
41.0512 16.718
41.242 16.4882
41.4327 16.2515
41.6236 16.0262
41.8146 15.9008
42.0057 15.6645
42.1969 15.4334
42.3882 15.2311
42.5797 15.0594
42.7713 14.7297
42.963 14.6406
43.1549 14.3771
43.3468 14.2072
43.5389 14.0091
43.7312 13.8334
43.9237 13.5981
44.1162 13.4256
44.3088 13.2794
44.5016 13.0326
44.6945 12.9602
44.8875 12.7029
45.0806 12.5499
45.2739 12.3602
45.4673 12.1916
45.6609 12.0271
45.8546 11.8773
46.0484 11.7052
46.2424 11.5072
46.4365 11.3525
46.631 11.1232
46.8254 10.9762
47.0199 10.8501
47.2146 10.6901
47.4095 10.5117
47.6044 10.3551
47.7996 10.2193
47.9948 10.045
48.1902 9.90685
48.3858 9.8182
48.5815 9.65417
48.7774 9.51031
48.9734 9.33725
49.1696 9.22909
49.3661 9.08587
49.5626 8.93728
49.7592 8.81762
49.956 8.73855
50.153 8.54351
50.3501 8.37869
50.5474 8.31479
50.7448 8.16064
50.9424 8.02333
51.1402 7.92941
51.3381 7.77358
51.5362 7.66598
51.7344 7.54448
51.9328 7.40447
52.1316 7.28048
52.3304 7.15997
52.5293 7.0411
52.7284 6.93203
52.9276 6.79112
53.1271 6.71312
53.3267 6.57394
53.5265 6.44477
53.7264 6.34054
53.9266 6.25756
54.1269 6.18286
54.3274 6.06543
54.528 5.91366
54.7289 5.66835
54.9301 5.53584
55.1314 5.41587
55.3328 5.18291
55.5344 5.03516
55.7361 4.8738