File: XRD/Ni3Fe_FD0527.xy
TT I
1.27165 7.23365
1.45013 5.94715
1.62863 5.64032
1.80712 4.91182
1.98562 5.45841
2.16411 5.19226
2.34263 5.0949
2.52115 6.5541
2.69965 8.13239
2.87818 8.4025
3.05672 11.3236
3.23527 15.5509
3.4138 19.1671
3.59237 24.2426
3.77094 26.4527
3.9495 30.3939
4.12809 35.2583
4.30669 267.303
4.4853 71.4035
4.6639 56.0432
4.84253 67.9654
5.02118 87.3234
5.19981 375.203
5.37848 205.832
5.55716 103.439
5.73586 93.3021
5.91455 95.177
6.09328 4116.21
6.27201 85.7162
6.45075 68.352
6.62952 63.7389
6.8083 59.5823
6.98711 56.699
7.16591 56.2901
7.34475 103.05
7.5236 56.073
7.70247 56.9063
7.88135 58.4694
8.06026 62.7032
8.23919 69.9276
8.41812 86.3322
8.59709 1100.75
8.77609 102.319
8.9551 94.4541
9.13412 82.9128
9.31318 83.3947
9.49226 85.2
9.67134 101.993
9.85047 100.753
10.0296 337.105
10.2088 461.754
10.388 106.565
10.5672 494.615
10.7465 87.6955
10.9257 79.7161
11.105 72.4699
11.2844 72.2323
11.4637 65.7467
11.6431 64.4425
11.8225 63.2387
12.002 64.2553
12.1814 147.154
12.3609 73.3194
12.5405 65.4483
12.72 71.5448
12.8996 71.4931
13.0792 79.1956
13.2589 226.57
13.4386 132.078
13.6183 235.408
13.7981 103.464
13.9779 76.6132
14.1577 73.285
14.3376 72.9321
14.5175 69.5829
14.6974 71.2599
14.8774 108.835
15.0574 158.634
15.2374 72.3943
15.4175 67.0598
15.5976 66.4303
15.7778 93.8175
15.958 164.385
16.1382 63.8611
16.3185 59.7749
16.4988 56.2456
16.6792 55.0036
16.8596 55.9991
17.04 56.489
17.2205 66.4821
17.401 73.1265
17.5815 59.7905
17.7622 61.9776
17.9428 73.8669
18.1237 137.046
18.3044 89.6601
18.4852 80.7372
18.666 61.124
18.8469 58.7066
19.0278 57.5868
19.2088 60.3198
19.3898 76.779
19.5709 54.8817
19.752 53.8251
19.9332 56.7184
20.1144 70.1804
20.2957 63.5482
20.477 54.7916
20.6586 50.4266
20.84 49.3376
21.0215 49.1318
21.203 51.1438
21.3846 49.8001
21.5662 49.0856
21.7479 52.8055
21.9297 64.9995
22.1115 56.5632
22.2933 50.75
22.4753 49.6035
22.6572 49.3403
22.8393 52.236
23.0214 58.3617
23.2037 49.37
23.3859 50.3621
23.5682 56.9322
23.7505 49.2913
23.9329 45.8184
24.1154 44.6455
24.2979 44.0396
24.4805 43.3301
24.6631 43.3804
24.8458 42.6039
25.0286 43.3305
25.2114 45.0303
25.3943 45.2021
25.5773 41.4157
25.7605 40.9579
25.9436 41.2127
26.1268 42.1511
26.31 40.5271
26.4933 41.2203
26.6767 42.4986
26.8601 41.0273
27.0437 39.3701
27.2272 39.1109
27.4109 38.8176
27.5946 38.9027
27.7784 38.2628
27.9623 38.5967
28.1462 39.3462
28.3304 37.5417
28.5145 36.4091
28.6987 36.1198
28.8829 35.7792
29.0673 35.0753
29.2517 34.7152
29.4361 34.554
29.6207 33.4552
29.8053 33.3554
29.99 32.9745
30.1748 32.9369
30.3597 32.7238
30.5447 32.5678
30.7297 32.5628
30.915 32.0485
31.1002 31.4909
31.2855 31.241
31.4708 31.1171
31.6563 30.7431
31.8418 30.4815
32.0275 30.2325
32.2132 29.8131
32.399 29.2481
32.5848 28.9123
32.7708 28.4881
32.9569 28.4389
33.143 28.0842
33.3293 27.7457
33.5158 27.3348
33.7022 26.8456
33.8887 26.6022
34.0753 26.359
34.262 25.9189
34.4488 25.5339
34.6357 25.2307
34.8227 25.0114
35.0098 24.7998
35.1969 24.4706
35.3842 24.3107
35.5716 24.0804
35.759 23.78
35.9468 23.4014
36.1345 23.1303
36.3222 22.9858
36.5101 22.6714
36.6981 22.3751
36.8861 22.0682
37.0743 21.7308
37.2626 21.5104
37.451 21.2359
37.6395 21.0585
37.8281 20.7379
38.0168 20.4374
38.2056 20.1986
38.3945 19.8905
38.5837 19.7009
38.7728 19.4593
38.9621 19.2465
39.1514 18.9488
39.3409 18.6767
39.5304 18.4096
39.7201 18.2934
39.9099 18.0187
40.0999 17.7293
40.2899 17.5981
40.48 17.3487
40.6703 17.1412
40.8607 16.9619
41.0512 16.7344
41.242 16.375
41.4327 16.3074
41.6236 16.0133
41.8146 15.8667
42.0057 15.6406
42.1969 15.4234
42.3882 15.2405
42.5797 14.9864
42.7713 14.7891
42.963 14.5991
43.1549 14.3852
43.3468 14.2411
43.5389 13.9919
43.7312 13.784
43.9237 13.632
44.1162 13.4326
44.3088 13.2629
44.5016 13.0647
44.6945 12.8855
44.8875 12.7325
45.0806 12.5335
45.2739 12.3574
45.4673 12.1606
45.6609 11.9665
45.8546 11.8443
46.0484 11.6928
46.2424 11.5091
46.4365 11.3811
46.631 11.1592
46.8254 11.0042
47.0199 10.8335
47.2146 10.6904
47.4095 10.4752
47.6044 10.3763
47.7996 10.211
47.9948 10.0812
48.1902 9.92473
48.3858 9.75155
48.5815 9.62563
48.7774 9.53404
48.9734 9.32317
49.1696 9.20968
49.3661 9.10601
49.5626 8.92415
49.7592 8.79389
49.956 8.66036
50.153 8.5561
50.3501 8.40517
50.5474 8.32612
50.7448 8.16801
50.9424 8.01774
51.1402 7.93457
51.3381 7.76563
51.5362 7.64921
51.7344 7.54439
51.9328 7.39093
52.1316 7.26673
52.3304 7.17147
52.5293 7.06063
52.7284 6.94852
52.9276 6.83536
53.1271 6.70218
53.3267 6.62133
53.5265 6.45119
53.7264 6.34123
53.9266 6.22703
54.1269 6.11689
54.3274 6.05248
54.528 5.92664
54.7289 5.69806
54.9301 5.55159
55.1314 5.40808
55.3328 5.24265
55.5344 5.0437
55.7361 4.90335