File: XRD/Ni3Fe_FD0994.xy
TT I
1.27165 7.21705
1.45013 6.39086
1.62863 4.90837
1.80712 4.95053
1.98562 4.46299
2.16411 5.18997
2.34263 5.99289
2.52115 7.59374
2.69965 8.99772
2.87818 8.66788
3.05672 11.1476
3.23527 15.235
3.4138 19.3384
3.59237 23.9357
3.77094 25.9341
3.9495 29.8795
4.12809 33.9984
4.30669 253.329
4.4853 68.3717
4.6639 54.4367
4.84253 65.9226
5.02118 83.7975
5.19981 267.821
5.37848 173.009
5.55716 99.0374
5.73586 89.7765
5.91455 89.9062
6.09328 4516.71
6.27201 80.9224
6.45075 65.9943
6.62952 61.8249
6.8083 57.9277
6.98711 55.1816
7.16591 54.9423
7.34475 99.371
7.5236 53.9429
7.70247 55.2083
7.88135 56.7606
8.06026 60.7498
8.23919 68.0789
8.41812 82.9293
8.59709 1108.12
8.77609 96.6186
8.9551 91.0298
9.13412 80.2113
9.31318 80.9058
9.49226 82.7154
9.67134 97.7748
9.85047 97.3927
10.0296 282.55
10.2088 372.711
10.388 101.815
10.5672 530.939
10.7465 84.7315
10.9257 77.2882
11.105 70.4107
11.2844 69.6267
11.4637 63.8443
11.6431 62.8149
11.8225 61.1364
12.002 62.1626
12.1814 148.662
12.3609 70.0932
12.5405 63.0988
12.72 69.3096
12.8996 69.4481
13.0792 76.4224
13.2589 222.784
13.4386 121.086
13.6183 237.023
13.7981 94.7397
13.9779 74.3281
14.1577 71.0056
14.3376 70.5343
14.5175 67.4665
14.6974 68.8568
14.8774 102.475
15.0574 150.668
15.2374 69.8168
15.4175 64.8837
15.5976 64.2988
15.7778 88.3966
15.958 154.131
16.1382 61.6814
16.3185 57.5467
16.4988 54.2475
16.6792 53.3437
16.8596 54.2585
17.04 54.3481
17.2205 64.5616
17.401 69.0303
17.5815 57.7672
17.7622 59.7552
17.9428 70.0489
18.1237 138.424
18.3044 87.8356
18.4852 75.7245
18.666 59.1546
18.8469 56.7878
19.0278 55.6685
19.2088 57.9615
19.3898 75.4598
19.5709 53.036
19.752 52.1338
19.9332 54.6229
20.1144 69.0539
20.2957 62.9726
20.477 52.3778
20.6586 48.6979
20.84 47.9389
21.0215 47.6037
21.203 49.8263
21.3846 47.7422
21.5662 47.611
21.7479 51.0177
21.9297 63.562
22.1115 55.304
22.2933 48.9195
22.4753 47.9529
22.6572 47.7194
22.8393 50.6761
23.0214 56.5426
23.2037 47.7432
23.3859 48.4012
23.5682 56.3933
23.7505 47.2581
23.9329 44.4871
24.1154 43.3184
24.2979 42.4846
24.4805 42.0871
24.6631 41.8117
24.8458 41.3834
25.0286 41.8058
25.2114 43.694
25.3943 43.8482
25.5773 40.0213
25.7605 39.7309
25.9436 39.9143
26.1268 40.9607
26.31 39.2741
26.4933 39.8743
26.6767 41.4418
26.8601 39.6893
27.0437 38.0769
27.2272 37.8022
27.4109 37.6431
27.5946 37.7164
27.7784 37.1037
27.9623 37.711
28.1462 38.1058
28.3304 36.3407
28.5145 35.2625
28.6987 34.9587
28.8829 34.727
29.0673 34.0894
29.2517 33.4778
29.4361 33.5228
29.6207 32.4723
29.8053 32.2559
29.99 31.9389
30.1748 31.8284
30.3597 31.55
30.5447 31.4633
30.7297 31.7165
30.915 31.019
31.1002 30.4699
31.2855 30.3323
31.4708 30.2216
31.6563 29.7215
31.8418 29.6048
32.0275 29.3542
32.2132 28.7337
32.399 28.3332
32.5848 27.8975
32.7708 27.5875
32.9569 27.484
33.143 27.2927
33.3293 26.8563
33.5158 26.5856
33.7022 26.0287
33.8887 25.8648
34.0753 25.5029
34.262 25.1925
34.4488 24.7516
34.6357 24.3926
34.8227 24.2547
35.0098 24.0032
35.1969 23.7186
35.3842 23.5244
35.5716 23.3235
35.759 23.0204
35.9468 22.6195
36.1345 22.4464
36.3222 22.2403
36.5101 22.0482
36.6981 21.6722
36.8861 21.4004
37.0743 21.0475
37.2626 20.8263
37.451 20.5865
37.6395 20.3953
37.8281 20.1323
38.0168 19.8704
38.2056 19.5417
38.3945 19.295
38.5837 19.1134
38.7728 18.7633
38.9621 18.5535
39.1514 18.3777
39.3409 18.1325
39.5304 17.9245
39.7201 17.7432
39.9099 17.5161
40.0999 17.2594
40.2899 17.0475
40.48 16.8152
40.6703 16.5964
40.8607 16.4115
41.0512 16.2297
41.242 15.9583
41.4327 15.7612
41.6236 15.514
41.8146 15.3694
42.0057 15.1306
42.1969 14.9093
42.3882 14.7545
42.5797 14.5194
42.7713 14.3266
42.963 14.1639
43.1549 14.0328
43.3468 13.7248
43.5389 13.6052
43.7312 13.3825
43.9237 13.2014
44.1162 13.0501
44.3088 12.8658
44.5016 12.6622
44.6945 12.4812
44.8875 12.3226
45.0806 12.1715
45.2739 11.9986
45.4673 11.8094
45.6609 11.6267
45.8546 11.5074
46.0484 11.3249
46.2424 11.1493
46.4365 11.0431
46.631 10.8311
46.8254 10.6225
47.0199 10.4816
47.2146 10.327
47.4095 10.1976
47.6044 10.0446
47.7996 9.88944
47.9948 9.71969
48.1902 9.62286
48.3858 9.53481
48.5815 9.33214
48.7774 9.23922
48.9734 9.07919
49.1696 8.93271
49.3661 8.79919
49.5626 8.63633
49.7592 8.52668
49.956 8.41432
50.153 8.28129
50.3501 8.12996
50.5474 8.05851
50.7448 7.91563
50.9424 7.77929
51.1402 7.66107
51.3381 7.52226
51.5362 7.4407
51.7344 7.32483
51.9328 7.1727
52.1316 7.0497
52.3304 6.93285
52.5293 6.80513
52.7284 6.70731
52.9276 6.60737
53.1271 6.54017
53.3267 6.38522
53.5265 6.26691
53.7264 6.18604
53.9266 6.06645
54.1269 6.00671
54.3274 5.81295
54.528 5.66551
54.7289 5.52236
54.9301 5.38637
55.1314 5.25645
55.3328 5.0691
55.5344 4.86058
55.7361 4.77653