File: XRD/Ni3Fe_FD0518.xy
TT I
1.27165 7.30663
1.45013 6.26654
1.62863 5.36112
1.80712 4.99162
1.98562 4.86343
2.16411 4.96759
2.34263 4.78616
2.52115 6.20162
2.69965 8.17362
2.87818 9.21973
3.05672 11.2783
3.23527 14.8043
3.4138 18.5652
3.59237 24.7222
3.77094 26.5807
3.9495 30.2198
4.12809 35.1981
4.30669 245.021
4.4853 68.762
4.6639 56.0629
4.84253 67.8379
5.02118 87.753
5.19981 383.146
5.37848 205.3
5.55716 103.884
5.73586 93.675
5.91455 95.4768
6.09328 4110.99
6.27201 85.058
6.45075 68.237
6.62952 63.8264
6.8083 59.5903
6.98711 56.9354
7.16591 56.2249
7.34475 98.4199
7.5236 55.5921
7.70247 56.7575
7.88135 58.6913
8.06026 62.9033
8.23919 70.2966
8.41812 86.6033
8.59709 1131.65
8.77609 102.218
8.9551 93.7723
9.13412 82.6941
9.31318 83.5883
9.49226 85.5588
9.67134 101.254
9.85047 101.116
10.0296 344.324
10.2088 448.793
10.388 106.136
10.5672 494.969
10.7465 87.5592
10.9257 79.5297
11.105 72.8673
11.2844 72.0104
11.4637 65.8347
11.6431 64.4148
11.8225 63.2307
12.002 64.3107
12.1814 151.521
12.3609 73.0484
12.5405 65.3019
12.72 71.417
12.8996 71.9131
13.0792 79.5866
13.2589 231.761
13.4386 132.286
13.6183 238.713
13.7981 102.725
13.9779 76.8777
14.1577 73.6404
14.3376 73.0693
14.5175 69.4559
14.6974 71.3393
14.8774 110.351
15.0574 156.755
15.2374 72.3488
15.4175 67.3446
15.5976 66.4615
15.7778 95.0073
15.958 162.809
16.1382 64.2955
16.3185 59.7307
16.4988 56.1766
16.6792 55.308
16.8596 56.2189
17.04 56.3007
17.2205 67.0856
17.401 72.5485
17.5815 60.0464
17.7622 62.0264
17.9428 74.5984
18.1237 137.883
18.3044 90.2355
18.4852 80.4001
18.666 61.1564
18.8469 58.8898
19.0278 57.7115
19.2088 60.2625
19.3898 76.9247
19.5709 55.1612
19.752 53.9583
19.9332 56.8808
20.1144 70.4582
20.2957 64.0752
20.477 54.6783
20.6586 50.2971
20.84 49.4255
21.0215 49.0763
21.203 51.1995
21.3846 49.6791
21.5662 49.4431
21.7479 53.1278
21.9297 65.046
22.1115 56.5308
22.2933 50.7155
22.4753 49.4991
22.6572 49.4554
22.8393 52.4146
23.0214 58.1348
23.2037 49.5238
23.3859 50.3428
23.5682 57.0786
23.7505 49.2519
23.9329 45.8398
24.1154 44.7458
24.2979 43.9929
24.4805 43.4848
24.6631 43.4149
24.8458 42.8433
25.0286 43.398
25.2114 45.1363
25.3943 45.1797
25.5773 41.5296
25.7605 40.9217
25.9436 41.3794
26.1268 42.2215
26.31 40.6899
26.4933 41.206
26.6767 42.5249
26.8601 41.0788
27.0437 39.4018
27.2272 39.0374
27.4109 38.8401
27.5946 38.9081
27.7784 38.392
27.9623 38.8107
28.1462 39.4119
28.3304 37.7407
28.5145 36.4313
28.6987 36.094
28.8829 35.9109
29.0673 35.2485
29.2517 34.7998
29.4361 34.502
29.6207 33.5732
29.8053 33.3107
29.99 33.018
30.1748 32.9142
30.3597 32.6398
30.5447 32.5409
30.7297 32.7053
30.915 31.9362
31.1002 31.4844
31.2855 31.2762
31.4708 31.2013
31.6563 30.7154
31.8418 30.5438
32.0275 30.3263
32.2132 29.7906
32.399 29.2514
32.5848 28.8521
32.7708 28.5448
32.9569 28.4434
33.143 28.183
33.3293 27.7302
33.5158 27.3046
33.7022 26.9428
33.8887 26.6957
34.0753 26.2821
34.262 25.9152
34.4488 25.6483
34.6357 25.3881
34.8227 25.0389
35.0098 24.8238
35.1969 24.5281
35.3842 24.301
35.5716 24.0578
35.759 23.8517
35.9468 23.3799
36.1345 23.1673
36.3222 22.9617
36.5101 22.7808
36.6981 22.4247
36.8861 22.0724
37.0743 21.7934
37.2626 21.5514
37.451 21.2294
37.6395 21.1175
37.8281 20.7778
38.0168 20.4489
38.2056 20.3222
38.3945 19.951
38.5837 19.6844
38.7728 19.4638
38.9621 19.2152
39.1514 18.918
39.3409 18.643
39.5304 18.504
39.7201 18.2907
39.9099 18.1085
40.0999 17.8188
40.2899 17.5912
40.48 17.3528
40.6703 17.1911
40.8607 16.9654
41.0512 16.687
41.242 16.5057
41.4327 16.2653
41.6236 16.035
41.8146 15.8774
42.0057 15.6298
42.1969 15.4543
42.3882 15.2331
42.5797 15.0622
42.7713 14.8128
42.963 14.6357
43.1549 14.4508
43.3468 14.186
43.5389 14.0157
43.7312 13.8219
43.9237 13.642
44.1162 13.4639
44.3088 13.2401
44.5016 13.061
44.6945 12.887
44.8875 12.7261
45.0806 12.5566
45.2739 12.342
45.4673 12.1513
45.6609 12.0338
45.8546 11.8883
46.0484 11.6561
46.2424 11.5167
46.4365 11.3545
46.631 11.1716
46.8254 11.0099
47.0199 10.8639
47.2146 10.6708
47.4095 10.57
47.6044 10.39
47.7996 10.2176
47.9948 10.0625
48.1902 9.92758
48.3858 9.78507
48.5815 9.63994
48.7774 9.49447
48.9734 9.36987
49.1696 9.23016
49.3661 9.07658
49.5626 8.92338
49.7592 8.8037
49.956 8.69784
50.153 8.52043
50.3501 8.42511
50.5474 8.31396
50.7448 8.16592
50.9424 8.02349
51.1402 7.9078
51.3381 7.77707
51.5362 7.66111
51.7344 7.50943
51.9328 7.40855
52.1316 7.27285
52.3304 7.16372
52.5293 7.03605
52.7284 6.94596
52.9276 6.81001
53.1271 6.72979
53.3267 6.5971
53.5265 6.48194
53.7264 6.37007
53.9266 6.26041
54.1269 6.12732
54.3274 6.02593
54.528 5.89302
54.7289 5.6991
54.9301 5.60191
55.1314 5.4217
55.3328 5.20763
55.5344 5.02876
55.7361 4.91018