File: XRD/Ni3Fe_FD0213.xy
TT I
1.27165 7.79361
1.45013 6.75821
1.62863 5.88964
1.80712 5.58378
1.98562 5.62218
2.16411 4.71823
2.34263 4.81557
2.52115 4.62919
2.69965 6.0632
2.87818 8.20637
3.05672 11.083
3.23527 14.6916
3.4138 19.3286
3.59237 22.1765
3.77094 26.2325
3.9495 30.0817
4.12809 35.1023
4.30669 40.5778
4.4853 48.8187
4.6639 58.4352
4.84253 71.6461
5.02118 97.1077
5.19981 889.587
5.37848 281.122
5.55716 112.764
5.73586 101.739
5.91455 111.307
6.09328 3581.41
6.27201 89.5699
6.45075 71.2498
6.62952 64.2737
6.8083 59.9175
6.98711 57.3592
7.16591 56.5907
7.34475 55.8709
7.5236 56.6748
7.70247 57.8726
7.88135 60.4758
8.06026 65.6701
8.23919 73.069
8.41812 90.6855
8.59709 1047.61
8.77609 111.95
8.9551 90.7771
9.13412 87.3023
9.31318 88.4215
9.49226 89.8773
9.67134 95.5909
9.85047 106.779
10.0296 524.431
10.2088 584.559
10.388 114.598
10.5672 436.066
10.7465 92.769
10.9257 80.6269
11.105 75.168
11.2844 70.6571
11.4637 67.9924
11.6431 66.3963
11.8225 65.3253
12.002 68.5613
12.1814 137.749
12.3609 70.6024
12.5405 67.5258
12.72 69.6713
12.8996 74.9123
13.0792 86.4283
13.2589 225.954
13.4386 152.952
13.6183 222.084
13.7981 114.699
13.9779 80.2472
14.1577 75.4371
14.3376 73.3005
14.5175 72.7062
14.6974 74.6482
14.8774 119.149
15.0574 177.764
15.2374 72.7544
15.4175 69.86
15.5976 69.9444
15.7778 103.712
15.958 178.958
16.1382 63.8566
16.3185 60.3144
16.4988 58.1312
16.6792 57.0032
16.8596 57.4174
17.04 59.3684
17.2205 68.8256
17.401 78.114
17.5815 62.2159
17.7622 64.6207
17.9428 83.1098
18.1237 137.936
18.3044 90.1023
18.4852 85.167
18.666 63.5987
18.8469 61.1859
19.0278 59.8002
19.2088 63.0358
19.3898 76.0584
19.5709 57.2661
19.752 56.1873
19.9332 59.7132
20.1144 72.4465
20.2957 64.4014
20.477 57.2947
20.6586 52.1569
20.84 51.3407
21.0215 51.1982
21.203 52.6399
21.3846 51.6658
21.5662 51.9709
21.7479 55.5608
21.9297 66.6008
22.1115 57.6414
22.2933 52.7966
22.4753 51.0933
22.6572 52.1893
22.8393 54.2173
23.0214 60.081
23.2037 51.5692
23.3859 52.8743
23.5682 57.4511
23.7505 51.6333
23.9329 47.5724
24.1154 46.2261
24.2979 45.4915
24.4805 44.8926
24.6631 44.9817
24.8458 44.4064
25.0286 45.2998
25.2114 46.7209
25.3943 46.8498
25.5773 43.1134
25.7605 42.6044
25.9436 42.744
26.1268 43.7362
26.31 42.3259
26.4933 42.6474
26.6767 44.1311
26.8601 42.5356
27.0437 40.9163
27.2272 40.4187
27.4109 40.1348
27.5946 40.4374
27.7784 39.9798
27.9623 40.0606
28.1462 40.704
28.3304 39.0694
28.5145 37.7629
28.6987 37.3299
28.8829 36.9451
29.0673 36.4448
29.2517 35.9725
29.4361 35.7187
29.6207 34.8305
29.8053 34.5705
29.99 34.1963
30.1748 33.9978
30.3597 33.9753
30.5447 33.721
30.7297 33.7282
30.915 33.1862
31.1002 32.746
31.2855 32.3858
31.4708 32.2724
31.6563 31.8363
31.8418 31.6118
32.0275 31.375
32.2132 30.8671
32.399 30.312
32.5848 29.956
32.7708 29.5415
32.9569 29.2923
33.143 29.0903
33.3293 28.7186
33.5158 28.4064
33.7022 27.8254
33.8887 27.6136
34.0753 27.2123
34.262 26.9406
34.4488 26.5718
34.6357 26.2006
34.8227 25.8769
35.0098 25.6851
35.1969 25.3392
35.3842 25.0875
35.5716 24.9042
35.759 24.5893
35.9468 24.2502
36.1345 24.0177
36.3222 23.8396
36.5101 23.4332
36.6981 23.2341
36.8861 22.8493
37.0743 22.4696
37.2626 22.3724
37.451 22.013
37.6395 21.8359
37.8281 21.5207
38.0168 21.1738
38.2056 20.8937
38.3945 20.5833
38.5837 20.3435
38.7728 20.1359
38.9621 19.9075
39.1514 19.6013
39.3409 19.3295
39.5304 19.1766
39.7201 18.8244
39.9099 18.6942
40.0999 18.4213
40.2899 18.1995
40.48 17.886
40.6703 17.7352
40.8607 17.5408
41.0512 17.2907
41.242 17.0543
41.4327 16.779
41.6236 16.5767
41.8146 16.4085
42.0057 16.1622
42.1969 15.9445
42.3882 15.7161
42.5797 15.4956
42.7713 15.2669
42.963 15.1094
43.1549 14.899
43.3468 14.6778
43.5389 14.474
43.7312 14.2396
43.9237 14.1188
44.1162 13.917
44.3088 13.679
44.5016 13.4756
44.6945 13.2699
44.8875 13.1287
45.0806 12.9663
45.2739 12.7514
45.4673 12.5643
45.6609 12.4022
45.8546 12.2289
46.0484 12.0586
46.2424 11.8972
46.4365 11.6942
46.631 11.5245
46.8254 11.3735
47.0199 11.1811
47.2146 11.0128
47.4095 10.8529
47.6044 10.7151
47.7996 10.5829
47.9948 10.4248
48.1902 10.2503
48.3858 10.0915
48.5815 9.96638
48.7774 9.8287
48.9734 9.63531
49.1696 9.52016
49.3661 9.38923
49.5626 9.20777
49.7592 9.11299
49.956 8.97166
50.153 8.81389
50.3501 8.68352
50.5474 8.56064
50.7448 8.40797
50.9424 8.27478
51.1402 8.16263
51.3381 8.04463
51.5362 7.89893
51.7344 7.70958
51.9328 7.59777
52.1316 7.49425
52.3304 7.38629
52.5293 7.2713
52.7284 7.15698
52.9276 7.02074
53.1271 6.90528
53.3267 6.80308
53.5265 6.68619
53.7264 6.55171
53.9266 6.45072
54.1269 6.30137
54.3274 6.16208
54.528 6.02228
54.7289 5.84577
54.9301 5.69185
55.1314 5.53587
55.3328 5.32566
55.5344 5.15818
55.7361 5.00652