File: XRD/Ni3Fe_FD0609.xy
TT I
1.27165 7.12358
1.45013 6.41089
1.62863 5.14342
1.80712 4.76465
1.98562 4.5114
2.16411 4.819
2.34263 4.71636
2.52115 7.33254
2.69965 7.99586
2.87818 8.46902
3.05672 11.2366
3.23527 15.1143
3.4138 18.8043
3.59237 23.8327
3.77094 26.6454
3.9495 30.1223
4.12809 35.1171
4.30669 179.008
4.4853 62.3723
4.6639 55.7872
4.84253 67.6933
5.02118 87.3214
5.19981 372.035
5.37848 195.744
5.55716 103.291
5.73586 93.1767
5.91455 95.6173
6.09328 4303.04
6.27201 82.8497
6.45075 67.7749
6.62952 62.69
6.8083 58.657
6.98711 55.6996
7.16591 55.3142
7.34475 84.286
7.5236 55.05
7.70247 56.3846
7.88135 58.4271
8.06026 62.443
8.23919 69.6866
8.41812 85.6327
8.59709 1221.16
8.77609 100.495
8.9551 91.2182
9.13412 82.1365
9.31318 83.286
9.49226 84.7942
9.67134 97.5809
9.85047 100.62
10.0296 356.534
10.2088 417.593
10.388 105.194
10.5672 503.294
10.7465 87.0524
10.9257 78.4211
11.105 72.1206
11.2844 70.1606
11.4637 65.5122
11.6431 64.0201
11.8225 62.9672
12.002 64.1205
12.1814 154.186
12.3609 70.0815
12.5405 64.8709
12.72 69.754
12.8996 71.3115
13.0792 79.7845
13.2589 245.837
13.4386 128.736
13.6183 252.397
13.7981 100.576
13.9779 76.4363
14.1577 72.8848
14.3376 71.8513
14.5175 69.387
14.6974 70.8315
14.8774 113.445
15.0574 152.46
15.2374 71.1549
15.4175 66.8616
15.5976 66.2542
15.7778 96.8106
15.958 155.243
16.1382 62.8341
16.3185 58.9408
16.4988 55.8989
16.6792 54.8681
16.8596 55.6296
17.04 56.397
17.2205 67.4146
17.401 72.906
17.5815 59.6158
17.7622 61.6464
17.9428 74.749
18.1237 137.999
18.3044 91.7284
18.4852 79.4714
18.666 60.8946
18.8469 58.4429
19.0278 57.3713
19.2088 59.997
19.3898 75.9404
19.5709 54.6362
19.752 53.6457
19.9332 56.8403
20.1144 69.5218
20.2957 64.0852
20.477 54.2628
20.6586 50.1501
20.84 49.0939
21.0215 48.8633
21.203 51.1846
21.3846 49.3685
21.5662 49.0203
21.7479 53.0763
21.9297 64.3828
22.1115 56.3738
22.2933 50.4304
22.4753 49.0364
22.6572 49.2306
22.8393 52.287
23.0214 57.5458
23.2037 49.0462
23.3859 50.1179
23.5682 56.9138
23.7505 48.7143
23.9329 45.466
24.1154 44.4221
24.2979 43.6523
24.4805 43.1709
24.6631 43.0446
24.8458 42.5485
25.0286 43.0502
25.2114 45.1187
25.3943 44.7889
25.5773 41.2442
25.7605 40.8469
25.9436 41.1097
26.1268 41.9217
26.31 40.4198
26.4933 41.0964
26.6767 42.3175
26.8601 40.6914
27.0437 39.1079
27.2272 38.6944
27.4109 38.6688
27.5946 38.6124
27.7784 38.1574
27.9623 38.7185
28.1462 39.0261
28.3304 37.4556
28.5145 36.2262
28.6987 35.8971
28.8829 35.6916
29.0673 34.8496
29.2517 34.6595
29.4361 34.4125
29.6207 33.3487
29.8053 33.1015
29.99 32.8463
30.1748 32.6482
30.3597 32.4749
30.5447 32.4724
30.7297 32.4332
30.915 31.8357
31.1002 31.3609
31.2855 31.12
31.4708 30.9899
31.6563 30.6567
31.8418 30.4104
32.0275 30.1498
32.2132 29.5492
32.399 29.1867
32.5848 28.6821
32.7708 28.2981
32.9569 28.1475
33.143 27.9709
33.3293 27.4815
33.5158 27.2862
33.7022 26.8551
33.8887 26.4588
34.0753 26.1662
34.262 25.8858
34.4488 25.4281
34.6357 25.1374
34.8227 24.9136
35.0098 24.6378
35.1969 24.4285
35.3842 24.2026
35.5716 23.8754
35.759 23.6885
35.9468 23.2519
36.1345 23.056
36.3222 22.8067
36.5101 22.5555
36.6981 22.3028
36.8861 21.8932
37.0743 21.5766
37.2626 21.4847
37.451 21.1658
37.6395 20.9626
37.8281 20.5919
38.0168 20.3144
38.2056 20.0632
38.3945 19.8267
38.5837 19.5004
38.7728 19.304
38.9621 19.1733
39.1514 18.8182
39.3409 18.5949
39.5304 18.3962
39.7201 18.1895
39.9099 18.0058
40.0999 17.6615
40.2899 17.4232
40.48 17.2448
40.6703 17.0188
40.8607 16.8215
41.0512 16.5768
41.242 16.3554
41.4327 16.1499
41.6236 15.9497
41.8146 15.6776
42.0057 15.49
42.1969 15.3389
42.3882 15.1299
42.5797 14.9347
42.7713 14.7619
42.963 14.5296
43.1549 14.2876
43.3468 14.1244
43.5389 13.9275
43.7312 13.7298
43.9237 13.5293
44.1162 13.363
44.3088 13.1598
44.5016 12.9355
44.6945 12.7881
44.8875 12.6186
45.0806 12.4484
45.2739 12.2558
45.4673 12.1293
45.6609 11.9108
45.8546 11.7601
46.0484 11.6331
46.2424 11.4181
46.4365 11.2805
46.631 11.1238
46.8254 10.9385
47.0199 10.7763
47.2146 10.6157
47.4095 10.5032
47.6044 10.3068
47.7996 10.1651
47.9948 9.96373
48.1902 9.85036
48.3858 9.74006
48.5815 9.60092
48.7774 9.48961
48.9734 9.3003
49.1696 9.18344
49.3661 9.00663
49.5626 8.86449
49.7592 8.73868
49.956 8.60617
50.153 8.48735
50.3501 8.35941
50.5474 8.1957
50.7448 8.11285
50.9424 7.99161
51.1402 7.82374
51.3381 7.68602
51.5362 7.58896
51.7344 7.48961
51.9328 7.3368
52.1316 7.22791
52.3304 7.12362
52.5293 7.01094
52.7284 6.8927
52.9276 6.7314
53.1271 6.65091
53.3267 6.54698
53.5265 6.41784
53.7264 6.32563
53.9266 6.20976
54.1269 6.11716
54.3274 6.01284
54.528 5.87213
54.7289 5.69634
54.9301 5.51651
55.1314 5.38311
55.3328 5.23688
55.5344 4.99767
55.7361 4.90882