File: XRD/Ni3Fe_FD1015.xy
TT I
1.27165 6.98372
1.45013 5.75378
1.62863 4.93449
1.80712 4.33685
1.98562 4.46074
2.16411 4.62795
2.34263 4.91833
2.52115 7.27439
2.69965 8.68096
2.87818 9.20406
3.05672 10.9571
3.23527 15.0254
3.4138 18.4423
3.59237 21.4436
3.77094 24.8044
3.9495 28.2971
4.12809 32.1062
4.30669 59.7112
4.4853 46.3222
4.6639 52.351
4.84253 63.351
5.02118 81.6804
5.19981 221.97
5.37848 244.748
5.55716 96.2809
5.73586 86.7908
5.91455 87.1818
6.09328 4326.67
6.27201 75.0017
6.45075 62.8464
6.62952 57.2597
6.8083 54.1675
6.98711 51.9665
7.16591 51.2196
7.34475 56.7162
7.5236 63.1313
7.70247 52.6671
7.88135 54.3308
8.06026 57.9525
8.23919 64.592
8.41812 76.3402
8.59709 1034.11
8.77609 94.4079
8.9551 81.6962
9.13412 78.8159
9.31318 96.7283
9.49226 80.0416
9.67134 85.2478
9.85047 92.05
10.0296 304.902
10.2088 467.228
10.388 96.4411
10.5672 488.598
10.7465 87.9169
10.9257 72.2808
11.105 67.2428
11.2844 63.8301
11.4637 61.2612
11.6431 59.8442
11.8225 58.9621
12.002 69.9872
12.1814 141.192
12.3609 63.6676
12.5405 60.4438
12.72 63.1229
12.8996 66.6239
13.0792 75.6548
13.2589 214.754
13.4386 127.581
13.6183 226.102
13.7981 99.8158
13.9779 72.4024
14.1577 78.6042
14.3376 66.4852
14.5175 65.3371
14.6974 66.0832
14.8774 103.44
15.0574 158.674
15.2374 65.55
15.4175 63.0191
15.5976 62.3047
15.7778 88.7992
15.958 172.319
16.1382 59.7704
16.3185 54.7523
16.4988 52.7569
16.6792 51.6146
16.8596 52.1006
17.04 53.1498
17.2205 62.9051
17.401 71.4453
17.5815 56.2893
17.7622 59.4004
17.9428 69.9904
18.1237 140.312
18.3044 86.7773
18.4852 78.5744
18.666 58.0177
18.8469 55.577
19.0278 54.256
19.2088 56.6453
19.3898 75.9825
19.5709 52.2406
19.752 50.8446
19.9332 53.7609
20.1144 69.4415
20.2957 62.3977
20.477 52.2096
20.6586 47.718
20.84 47.5506
21.0215 46.3945
21.203 48.5832
21.3846 47.268
21.5662 46.696
21.7479 50.4634
21.9297 64.356
22.1115 55.1016
22.2933 48.3868
22.4753 46.7126
22.6572 47.0068
22.8393 50.1163
23.0214 56.9196
23.2037 47.2383
23.3859 48.3974
23.5682 56.3459
23.7505 47.562
23.9329 43.4223
24.1154 42.5182
24.2979 41.6714
24.4805 41.4523
24.6631 41.4464
24.8458 40.6666
25.0286 41.2042
25.2114 43.5451
25.3943 43.8906
25.5773 39.5963
25.7605 38.997
25.9436 39.4435
26.1268 40.7791
26.31 38.7262
26.4933 39.3355
26.6767 41.3922
26.8601 39.5702
27.0437 37.7215
27.2272 37.2713
27.4109 37.157
27.5946 37.2357
27.7784 36.7355
27.9623 37.4215
28.1462 38.1264
28.3304 36.3543
28.5145 34.8095
28.6987 34.504
28.8829 34.4202
29.0673 33.5987
29.2517 33.2552
29.4361 33.0353
29.6207 32.1948
29.8053 31.8165
29.99 31.565
30.1748 31.4446
30.3597 31.1972
30.5447 31.1552
30.7297 31.4026
30.915 30.7002
31.1002 30.274
31.2855 29.9244
31.4708 29.9649
31.6563 29.4888
31.8418 29.3108
32.0275 29.1732
32.2132 28.5706
32.399 28.0813
32.5848 27.592
32.7708 27.3016
32.9569 27.1128
33.143 26.9272
33.3293 26.6346
33.5158 26.2128
33.7022 25.7837
33.8887 25.5708
34.0753 25.2108
34.262 24.8325
34.4488 24.4989
34.6357 24.2444
34.8227 24.0121
35.0098 23.7409
35.1969 23.5203
35.3842 23.2677
35.5716 23.1405
35.759 22.8279
35.9468 22.5103
36.1345 22.27
36.3222 22.0074
36.5101 21.7807
36.6981 21.4319
36.8861 21.1683
37.0743 20.867
37.2626 20.6762
37.451 20.3994
37.6395 20.2918
37.8281 19.8663
38.0168 19.6465
38.2056 19.3365
38.3945 19.077
38.5837 18.8861
38.7728 18.6637
38.9621 18.4004
39.1514 18.1616
39.3409 17.9186
39.5304 17.6981
39.7201 17.5032
39.9099 17.3177
40.0999 17.0789
40.2899 16.7963
40.48 16.6935
40.6703 16.3659
40.8607 16.2559
41.0512 16.0452
41.242 15.8057
41.4327 15.5715
41.6236 15.3835
41.8146 15.224
42.0057 14.9689
42.1969 14.7738
42.3882 14.5606
42.5797 14.4109
42.7713 14.174
42.963 13.9846
43.1549 13.8634
43.3468 13.5699
43.5389 13.4304
43.7312 13.246
43.9237 13.0665
44.1162 12.8826
44.3088 12.6862
44.5016 12.485
44.6945 12.3989
44.8875 12.1887
45.0806 11.9927
45.2739 11.8501
45.4673 11.7239
45.6609 11.4955
45.8546 11.357
46.0484 11.2217
46.2424 11.0236
46.4365 10.8509
46.631 10.6554
46.8254 10.5257
47.0199 10.4635
47.2146 10.265
47.4095 10.0741
47.6044 9.93409
47.7996 9.78426
47.9948 9.67735
48.1902 9.50235
48.3858 9.39779
48.5815 9.25082
48.7774 9.11956
48.9734 8.99807
49.1696 8.84212
49.3661 8.65822
49.5626 8.56876
49.7592 8.45764
49.956 8.31356
50.153 8.20493
50.3501 8.03496
50.5474 7.92309
50.7448 7.81191
50.9424 7.70501
51.1402 7.57789
51.3381 7.43678
51.5362 7.35885
51.7344 7.21723
51.9328 7.08487
52.1316 6.9825
52.3304 6.85117
52.5293 6.7575
52.7284 6.63493
52.9276 6.56436
53.1271 6.45648
53.3267 6.33207
53.5265 6.20077
53.7264 6.05953
53.9266 5.99282
54.1269 5.89794
54.3274 5.77841
54.528 5.69888
54.7289 5.53072
54.9301 5.31538
55.1314 5.17684
55.3328 5.0029
55.5344 4.79813
55.7361 4.71353