File: XRD/Ni3Fe_FD0355.xy
TT I
1.27165 7.49061
1.45013 6.4023
1.62863 5.53176
1.80712 4.89793
1.98562 4.75529
2.16411 4.51342
2.34263 5.23759
2.52115 6.78754
2.69965 7.45336
2.87818 8.70612
3.05672 11.2759
3.23527 15.0733
3.4138 18.57
3.59237 23.6332
3.77094 26.0027
3.9495 30.2424
4.12809 35.2659
4.30669 124.146
4.4853 56.6639
4.6639 57.2012
4.84253 69.7915
5.02118 92.167
5.19981 611.944
5.37848 220.835
5.55716 106.664
5.73586 96.6757
5.91455 101.532
6.09328 3975.04
6.27201 85.3505
6.45075 69.2453
6.62952 63.86
6.8083 59.6507
6.98711 57.2329
7.16591 56.4593
7.34475 73.3381
7.5236 55.6138
7.70247 57.7156
7.88135 59.0652
8.06026 63.9341
8.23919 71.56
8.41812 88.0708
8.59709 1190.62
8.77609 104.401
8.9551 91.2734
9.13412 85.0575
9.31318 85.5513
9.49226 87.6188
9.67134 97.269
9.85047 103.657
10.0296 443.01
10.2088 459.685
10.388 110.179
10.5672 489.942
10.7465 89.8597
10.9257 79.6471
11.105 73.8281
11.2844 70.7257
11.4637 66.6791
11.6431 64.987
11.8225 64.0188
12.002 66.5815
12.1814 150.972
12.3609 70.1758
12.5405 66.3394
12.72 70.1712
12.8996 73.4638
13.0792 83.3003
13.2589 247.09
13.4386 133.101
13.6183 244.662
13.7981 102.024
13.9779 78.1046
14.1577 74.0843
14.3376 72.7264
14.5175 71.1415
14.6974 73.099
14.8774 120.138
15.0574 153.126
15.2374 71.8703
15.4175 68.3511
15.5976 68.2134
15.7778 103.361
15.958 161.866
16.1382 63.3495
16.3185 59.844
16.4988 57.0347
16.6792 56.0625
16.8596 56.5807
17.04 57.8709
17.2205 69.3994
17.401 73.5586
17.5815 60.9239
17.7622 63.269
17.9428 79.1198
18.1237 139.824
18.3044 91.7489
18.4852 79.2703
18.666 62.1352
18.8469 59.6204
19.0278 58.4669
19.2088 61.9663
19.3898 76.8198
19.5709 55.9518
19.752 54.9668
19.9332 58.4908
20.1144 71.4338
20.2957 64.5804
20.477 55.1651
20.6586 51.0936
20.84 50.2078
21.0215 50.1778
21.203 52.1885
21.3846 50.463
21.5662 50.5569
21.7479 54.6737
21.9297 66.1015
22.1115 57.1492
22.2933 51.2553
22.4753 50.1278
22.6572 50.6382
22.8393 53.8827
23.0214 58.8618
23.2037 50.398
23.3859 51.6792
23.5682 57.6922
23.7505 49.6963
23.9329 46.534
24.1154 45.4245
24.2979 44.725
24.4805 44.0689
24.6631 44.1785
24.8458 43.5585
25.0286 44.1666
25.2114 46.0721
25.3943 45.9426
25.5773 42.0506
25.7605 41.6654
25.9436 42.1581
26.1268 42.7933
26.31 41.3511
26.4933 42.0673
26.6767 43.3262
26.8601 41.583
27.0437 39.9543
27.2272 39.7194
27.4109 39.646
27.5946 39.6148
27.7784 38.9652
27.9623 39.4608
28.1462 39.9092
28.3304 38.1502
28.5145 37.0177
28.6987 36.5713
28.8829 36.3403
29.0673 35.5788
29.2517 35.2592
29.4361 35.078
29.6207 34.0813
29.8053 33.7762
29.99 33.523
30.1748 33.3561
30.3597 33.2465
30.5447 33.0485
30.7297 33.1552
30.915 32.5278
31.1002 31.9453
31.2855 31.7446
31.4708 31.6871
31.6563 31.1577
31.8418 31.0388
32.0275 30.7399
32.2132 30.0788
32.399 29.7531
32.5848 29.3177
32.7708 28.9723
32.9569 28.8235
33.143 28.5199
33.3293 28.1847
33.5158 27.79
33.7022 27.3172
33.8887 26.9859
34.0753 26.6883
34.262 26.3474
34.4488 26.03
34.6357 25.7448
34.8227 25.3674
35.0098 25.2332
35.1969 24.8841
35.3842 24.7678
35.5716 24.4161
35.759 24.1368
35.9468 23.6548
36.1345 23.4977
36.3222 23.3222
36.5101 23.0852
36.6981 22.6415
36.8861 22.4508
37.0743 22.1069
37.2626 21.8436
37.451 21.5624
37.6395 21.375
37.8281 21.0119
38.0168 20.7373
38.2056 20.5237
38.3945 20.2027
38.5837 19.9571
38.7728 19.6962
38.9621 19.459
39.1514 19.2517
39.3409 18.9554
39.5304 18.7938
39.7201 18.546
39.9099 18.3656
40.0999 18.0632
40.2899 17.8334
40.48 17.6272
40.6703 17.3628
40.8607 17.2385
41.0512 16.9903
41.242 16.6713
41.4327 16.5377
41.6236 16.2603
41.8146 16.0902
42.0057 15.8534
42.1969 15.668
42.3882 15.4786
42.5797 15.219
42.7713 15.0194
42.963 14.8008
43.1549 14.623
43.3468 14.3939
43.5389 14.1849
43.7312 13.986
43.9237 13.8065
44.1162 13.6176
44.3088 13.3668
44.5016 13.2361
44.6945 13.0466
44.8875 12.8749
45.0806 12.685
45.2739 12.5226
45.4673 12.3328
45.6609 12.1583
45.8546 12.0072
46.0484 11.7838
46.2424 11.677
46.4365 11.4965
46.631 11.3102
46.8254 11.1351
47.0199 10.953
47.2146 10.8074
47.4095 10.6748
47.6044 10.4655
47.7996 10.3625
47.9948 10.1933
48.1902 10.0762
48.3858 9.895
48.5815 9.76752
48.7774 9.65156
48.9734 9.47536
49.1696 9.36274
49.3661 9.18795
49.5626 9.0328
49.7592 8.92356
49.956 8.75469
50.153 8.65435
50.3501 8.52782
50.5474 8.40373
50.7448 8.27735
50.9424 8.125
51.1402 8.00351
51.3381 7.87832
51.5362 7.73641
51.7344 7.64038
51.9328 7.47899
52.1316 7.35917
52.3304 7.23627
52.5293 7.10977
52.7284 7.00947
52.9276 6.89757
53.1271 6.79773
53.3267 6.62403
53.5265 6.5421
53.7264 6.38964
53.9266 6.33558
54.1269 6.19049
54.3274 6.05035
54.528 5.95259
54.7289 5.78478
54.9301 5.61434
55.1314 5.50138
55.3328 5.29031
55.5344 5.10327
55.7361 4.96617