File: XRD/Ni3Fe_FD0109.xy
TT I
1.27165 8.36992
1.45013 6.65393
1.62863 6.23404
1.80712 5.36043
1.98562 5.01982
2.16411 4.72168
2.34263 4.0233
2.52115 4.0413
2.69965 5.35583
2.87818 7.59308
3.05672 11.1405
3.23527 14.9232
3.4138 18.2216
3.59237 21.4874
3.77094 24.6742
3.9495 28.2625
4.12809 32.3032
4.30669 37.4455
4.4853 44.1403
4.6639 53.1343
4.84253 65.1544
5.02118 91.6483
5.19981 621.741
5.37848 607.103
5.55716 109.805
5.73586 96.4673
5.91455 108.782
6.09328 2329.2
6.27201 93.1581
6.45075 66.2976
6.62952 59.326
6.8083 55.094
6.98711 52.6782
7.16591 51.5732
7.34475 51.2628
7.5236 57.0769
7.70247 53.3821
7.88135 55.5028
8.06026 59.6401
8.23919 67.4085
8.41812 83.3374
8.59709 796.367
8.77609 123.801
8.9551 84.8304
9.13412 80.493
9.31318 90.9338
9.49226 82.3939
9.67134 87.6428
9.85047 98.1622
10.0296 574.424
10.2088 1134.7
10.388 104.695
10.5672 282.844
10.7465 93.0976
10.9257 74.6831
11.105 69.1822
11.2844 65.189
11.4637 62.1844
11.6431 61.1224
11.8225 60.2071
12.002 67.2483
12.1814 107.743
12.3609 79.336
12.5405 62.1456
12.72 64.1785
12.8996 68.7412
13.0792 78.531
13.2589 190.516
13.4386 242.217
13.6183 175.235
13.7981 175.419
13.9779 74.9492
14.1577 75.288
14.3376 68.0328
14.5175 67.1284
14.6974 68.7139
14.8774 120.314
15.0574 207.333
15.2374 68.2719
15.4175 65.295
15.5976 64.8989
15.7778 107.846
15.958 179.131
16.1382 61.8898
16.3185 56.6767
16.4988 54.3618
16.6792 53.1693
16.8596 53.4165
17.04 54.6992
17.2205 63.6967
17.401 80.8448
17.5815 58.0672
17.7622 60.5393
17.9428 84.3348
18.1237 104.471
18.3044 88.0965
18.4852 98.3165
18.666 60.2637
18.8469 57.2625
19.0278 55.8739
19.2088 61.3979
19.3898 65.9732
19.5709 56.83
19.752 52.771
19.9332 57.7224
20.1144 64.3103
20.2957 59.8792
20.477 60.0152
20.6586 49.081
20.84 48.4589
21.0215 48.4719
21.203 48.775
21.3846 50.2129
21.5662 48.392
21.7479 53.4841
21.9297 59.5442
22.1115 56.0056
22.2933 52.6425
22.4753 48.2555
22.6572 48.5509
22.8393 51.2124
23.0214 55.3397
23.2037 49.7366
23.3859 51.5223
23.5682 51.9026
23.7505 54.318
23.9329 45.1431
24.1154 43.7321
24.2979 43.1432
24.4805 42.4716
24.6631 42.6179
24.8458 41.9194
25.0286 42.4839
25.2114 43.7095
25.3943 44.0414
25.5773 41.4791
25.7605 40.204
25.9436 40.4468
26.1268 40.834
26.31 40.7315
26.4933 40.3268
26.6767 41.3025
26.8601 41.0125
27.0437 39.2712
27.2272 38.5297
27.4109 38.0674
27.5946 38.1195
27.7784 38.2012
27.9623 37.9462
28.1462 38.8063
28.3304 37.6678
28.5145 35.909
28.6987 35.4121
28.8829 35.1
29.0673 34.8649
29.2517 34.0755
29.4361 33.7972
29.6207 33.2731
29.8053 32.7151
29.99 32.2732
30.1748 32.0357
30.3597 32.3301
30.5447 31.9626
30.7297 31.7792
30.915 31.7288
31.1002 31.101
31.2855 30.7828
31.4708 30.5346
31.6563 30.6019
31.8418 29.9425
32.0275 29.7795
32.2132 29.4178
32.399 28.8248
32.5848 28.3421
32.7708 28.04
32.9569 27.9061
33.143 27.5901
33.3293 27.2126
33.5158 27.0108
33.7022 26.5255
33.8887 26.2352
34.0753 25.8369
34.262 25.4652
34.4488 25.2188
34.6357 24.8514
34.8227 24.5429
35.0098 24.326
35.1969 24.0135
35.3842 23.8933
35.5716 23.5954
35.759 23.3653
35.9468 23.0198
36.1345 22.6844
36.3222 22.5507
36.5101 22.2558
36.6981 22.0446
36.8861 21.684
37.0743 21.3424
37.2626 21.0798
37.451 20.876
37.6395 20.7309
37.8281 20.3615
38.0168 20.0913
38.2056 19.9081
38.3945 19.5763
38.5837 19.3027
38.7728 19.0871
38.9621 18.8307
39.1514 18.6107
39.3409 18.2773
39.5304 18.0816
39.7201 17.8933
39.9099 17.743
40.0999 17.4388
40.2899 17.2714
40.48 17.0095
40.6703 16.8192
40.8607 16.6976
41.0512 16.4288
41.242 16.166
41.4327 15.9818
41.6236 15.6876
41.8146 15.5324
42.0057 15.3323
42.1969 15.0877
42.3882 14.9129
42.5797 14.767
42.7713 14.5232
42.963 14.2833
43.1549 14.1172
43.3468 13.9259
43.5389 13.7645
43.7312 13.4938
43.9237 13.3975
44.1162 13.2119
44.3088 13.0391
44.5016 12.7477
44.6945 12.6802
44.8875 12.4297
45.0806 12.2642
45.2739 12.1569
45.4673 11.9676
45.6609 11.8213
45.8546 11.6009
46.0484 11.4445
46.2424 11.3371
46.4365 11.1596
46.631 10.962
46.8254 10.7527
47.0199 10.6294
47.2146 10.4564
47.4095 10.337
47.6044 10.1863
47.7996 10.031
47.9948 9.87605
48.1902 9.74182
48.3858 9.60653
48.5815 9.45138
48.7774 9.32173
48.9734 9.16234
49.1696 9.06489
49.3661 8.92411
49.5626 8.77893
49.7592 8.65376
49.956 8.53367
50.153 8.3755
50.3501 8.26764
50.5474 8.12918
50.7448 8.04227
50.9424 7.89444
51.1402 7.79713
51.3381 7.66253
51.5362 7.52736
51.7344 7.4173
51.9328 7.27896
52.1316 7.11435
52.3304 7.04612
52.5293 6.89138
52.7284 6.79626
52.9276 6.69132
53.1271 6.56352
53.3267 6.45925
53.5265 6.37261
53.7264 6.24504
53.9266 6.11623
54.1269 5.9778
54.3274 5.87357
54.528 5.72176
54.7289 5.52174
54.9301 5.42645
55.1314 5.22773
55.3328 5.01432
55.5344 4.84479
55.7361 4.66771