File: XRD/Ni3Fe_FD0713.xy
TT I
1.27165 7.46149
1.45013 6.13623
1.62863 4.88359
1.80712 5.10949
1.98562 4.67821
2.16411 5.15726
2.34263 5.372
2.52115 7.21377
2.69965 8.0711
2.87818 8.93039
3.05672 10.9859
3.23527 15.3838
3.4138 18.7895
3.59237 23.043
3.77094 25.7398
3.9495 29.6889
4.12809 34.302
4.30669 98.5494
4.4853 53.5224
4.6639 55.6881
4.84253 68.9775
5.02118 88.2519
5.19981 437.029
5.37848 198.913
5.55716 103.024
5.73586 93.5627
5.91455 96.35
6.09328 4616.08
6.27201 80.782
6.45075 69.7021
6.62952 62.9677
6.8083 59.5434
6.98711 55.2544
7.16591 56.0349
7.34475 66.6389
7.5236 54.2536
7.70247 56.7404
7.88135 57.34
8.06026 62.5795
8.23919 69.6274
8.41812 84.3227
8.59709 1246.86
8.77609 98.019
8.9551 89.522
9.13412 83.3154
9.31318 85.1596
9.49226 85.0793
9.67134 95.2769
9.85047 102.09
10.0296 368.272
10.2088 352.009
10.388 106.145
10.5672 524.202
10.7465 85.9305
10.9257 78.0906
11.105 71.8515
11.2844 68.3211
11.4637 64.715
11.6431 63.3552
11.8225 62.8959
12.002 64.7289
12.1814 157.637
12.3609 66.9335
12.5405 65.1937
12.72 68.2796
12.8996 71.6717
13.0792 81.0592
13.2589 252.612
13.4386 119.806
13.6183 259.992
13.7981 93.6522
13.9779 75.8609
14.1577 71.9676
14.3376 70.3743
14.5175 68.96
14.6974 71.0627
14.8774 114.944
15.0574 138.38
15.2374 69.6283
15.4175 66.4116
15.5976 65.8893
15.7778 97.3661
15.958 147.32
16.1382 61.4258
16.3185 57.9988
16.4988 55.3204
16.6792 54.4649
16.8596 54.7593
17.04 56.1458
17.2205 67.0974
17.401 69.5858
17.5815 59.2929
17.7622 61.4799
17.9428 74.5424
18.1237 140.853
18.3044 91.5231
18.4852 74.5388
18.666 60.1762
18.8469 57.9879
19.0278 56.9329
19.2088 59.3776
19.3898 75.5552
19.5709 53.9956
19.752 53.3821
19.9332 56.3465
20.1144 69.9073
20.2957 64.0712
20.477 52.8792
20.6586 49.5199
20.84 48.7526
21.0215 48.4552
21.203 50.775
21.3846 48.8295
21.5662 49.0158
21.7479 53.04
21.9297 64.8364
22.1115 55.974
22.2933 49.5842
22.4753 48.5595
22.6572 48.9279
22.8393 52.3384
23.0214 56.8792
23.2037 48.8208
23.3859 49.7977
23.5682 57.1334
23.7505 47.9007
23.9329 45.0699
24.1154 43.972
24.2979 43.3049
24.4805 42.8451
24.6631 42.6828
24.8458 42.1698
25.0286 42.8147
25.2114 44.6639
25.3943 44.5832
25.5773 40.8717
25.7605 40.5298
25.9436 40.7851
26.1268 41.5724
26.31 40.0314
26.4933 40.6619
26.6767 42.1289
26.8601 40.3031
27.0437 38.8518
27.2272 38.4793
27.4109 38.3917
27.5946 38.3512
27.7784 38.0512
27.9623 38.4337
28.1462 38.6637
28.3304 36.9215
28.5145 35.8922
28.6987 35.5594
28.8829 35.2841
29.0673 34.5634
29.2517 34.3678
29.4361 34.16
29.6207 33.0081
29.8053 32.8788
29.99 32.5383
30.1748 32.3053
30.3597 32.216
30.5447 32.1337
30.7297 32.1915
30.915 31.5748
31.1002 31.0755
31.2855 30.7697
31.4708 30.7497
31.6563 30.322
31.8418 30.0987
32.0275 29.9215
32.2132 29.2401
32.399 28.8903
32.5848 28.4769
32.7708 28.0315
32.9569 27.8379
33.143 27.6689
33.3293 27.3507
33.5158 26.9618
33.7022 26.5234
33.8887 26.2574
34.0753 25.8871
34.262 25.576
34.4488 25.2675
34.6357 24.9519
34.8227 24.5523
35.0098 24.4423
35.1969 24.132
35.3842 23.8977
35.5716 23.6804
35.759 23.3882
35.9468 23.0351
36.1345 22.8722
36.3222 22.6716
36.5101 22.4111
36.6981 22.1351
36.8861 21.7387
37.0743 21.4668
37.2626 21.2052
37.451 20.9103
37.6395 20.8014
37.8281 20.4612
38.0168 20.1069
38.2056 19.888
38.3945 19.6822
38.5837 19.4701
38.7728 19.1736
38.9621 18.856
39.1514 18.6334
39.3409 18.3688
39.5304 18.2448
39.7201 17.9784
39.9099 17.7641
40.0999 17.5269
40.2899 17.351
40.48 17.1009
40.6703 16.8127
40.8607 16.666
41.0512 16.3948
41.242 16.2517
41.4327 16.0126
41.6236 15.8047
41.8146 15.6317
42.0057 15.457
42.1969 15.1452
42.3882 14.9989
42.5797 14.7777
42.7713 14.5641
42.963 14.3517
43.1549 14.1829
43.3468 13.9666
43.5389 13.7858
43.7312 13.5754
43.9237 13.4608
44.1162 13.2178
44.3088 13.0506
44.5016 12.8799
44.6945 12.6848
44.8875 12.5179
45.0806 12.3117
45.2739 12.1275
45.4673 12.0039
45.6609 11.8016
45.8546 11.6655
46.0484 11.5068
46.2424 11.2923
46.4365 11.1932
46.631 10.9819
46.8254 10.8373
47.0199 10.6528
47.2146 10.5205
47.4095 10.3634
47.6044 10.1657
47.7996 10.048
47.9948 9.89218
48.1902 9.76017
48.3858 9.61447
48.5815 9.49658
48.7774 9.36059
48.9734 9.20981
49.1696 9.11751
49.3661 8.91693
49.5626 8.80236
49.7592 8.69313
49.956 8.56472
50.153 8.4272
50.3501 8.2686
50.5474 8.15408
50.7448 8.05831
50.9424 7.88117
51.1402 7.79509
51.3381 7.63974
51.5362 7.55749
51.7344 7.38525
51.9328 7.26842
52.1316 7.19782
52.3304 7.03339
52.5293 6.93607
52.7284 6.80896
52.9276 6.67126
53.1271 6.57649
53.3267 6.51498
53.5265 6.36487
53.7264 6.27369
53.9266 6.15532
54.1269 6.0525
54.3274 5.89417
54.528 5.78227
54.7289 5.62345
54.9301 5.47784
55.1314 5.30548
55.3328 5.05402
55.5344 4.94669
55.7361 4.82814