File: XRD/Ni3Fe_FD0401.xy
TT I
1.27165 8.00762
1.45013 6.57698
1.62863 5.49057
1.80712 4.88274
1.98562 5.21073
2.16411 4.94584
2.34263 4.96633
2.52115 6.67463
2.69965 7.34798
2.87818 8.13195
3.05672 11.2651
3.23527 14.6809
3.4138 19.161
3.59237 24.5774
3.77094 26.5266
3.9495 30.4689
4.12809 36.0939
4.30669 251.687
4.4853 69.7535
4.6639 56.4504
4.84253 68.6651
5.02118 88.9735
5.19981 435.681
5.37848 224.651
5.55716 105.346
5.73586 94.4674
5.91455 97.7468
6.09328 3920.83
6.27201 87.1955
6.45075 69.1222
6.62952 64.524
6.8083 60.6574
6.98711 57.3344
7.16591 56.7898
7.34475 100.058
7.5236 56.1156
7.70247 57.4612
7.88135 59.1317
8.06026 64.1913
8.23919 70.808
8.41812 87.8745
8.59709 1103.93
8.77609 104.587
8.9551 94.9992
9.13412 83.659
9.31318 84.7745
9.49226 86.4366
9.67134 102.151
9.85047 102.404
10.0296 367.235
10.2088 506.516
10.388 108.184
10.5672 478.533
10.7465 89.3093
10.9257 80.5845
11.105 73.8996
11.2844 72.8831
11.4637 66.5166
11.6431 65.0413
11.8225 64.0539
12.002 65.054
12.1814 146.168
12.3609 74.0152
12.5405 66.339
12.72 72.565
12.8996 72.6897
13.0792 80.6883
13.2589 228.806
13.4386 137.987
13.6183 231.727
13.7981 106.765
13.9779 77.7537
14.1577 74.147
14.3376 73.6548
14.5175 70.3566
14.6974 72.0816
14.8774 111.704
15.0574 165.503
15.2374 73.2708
15.4175 68.0835
15.5976 67.4958
15.7778 96.3673
15.958 172.178
16.1382 64.8764
16.3185 60.3259
16.4988 56.9381
16.6792 55.9026
16.8596 56.6981
17.04 57.3385
17.2205 67.6568
17.401 74.6431
17.5815 60.733
17.7622 62.6583
17.9428 76.0037
18.1237 137.264
18.3044 90.1679
18.4852 82.5231
18.666 61.9823
18.8469 59.489
19.0278 58.2148
19.2088 61.2342
19.3898 77.5344
19.5709 55.9221
19.752 54.6635
19.9332 57.7389
20.1144 70.5533
20.2957 64.0098
20.477 55.7113
20.6586 51.0041
20.84 50.111
21.0215 50.0067
21.203 51.93
21.3846 50.3324
21.5662 49.951
21.7479 53.7773
21.9297 65.7541
22.1115 57.2267
22.2933 51.2732
22.4753 50.3254
22.6572 50.1918
22.8393 52.8068
23.0214 58.8649
23.2037 50.0464
23.3859 51.0601
23.5682 57.3605
23.7505 50.1221
23.9329 46.4078
24.1154 45.3133
24.2979 44.4948
24.4805 43.9043
24.6631 43.9705
24.8458 43.2367
25.0286 43.9016
25.2114 45.6748
25.3943 45.855
25.5773 41.9735
25.7605 41.4774
25.9436 41.8035
26.1268 42.7841
26.31 41.1178
26.4933 41.7644
26.6767 43.0594
26.8601 41.4272
27.0437 39.9915
27.2272 39.5436
27.4109 39.3963
27.5946 39.3108
27.7784 38.8311
27.9623 39.3557
28.1462 39.6399
28.3304 38.1745
28.5145 36.8716
28.6987 36.4936
28.8829 36.2628
29.0673 35.5892
29.2517 35.0737
29.4361 34.9861
29.6207 34.1203
29.8053 33.7717
29.99 33.4306
30.1748 33.232
30.3597 33.0893
30.5447 32.8789
30.7297 32.9513
30.915 32.2759
31.1002 31.7748
31.2855 31.6072
31.4708 31.5223
31.6563 31.1014
31.8418 30.8654
32.0275 30.635
32.2132 30.1984
32.399 29.6782
32.5848 29.2596
32.7708 28.7827
32.9569 28.6616
33.143 28.426
33.3293 28.0963
33.5158 27.676
33.7022 27.2465
33.8887 26.9322
34.0753 26.6645
34.262 26.2818
34.4488 25.8606
34.6357 25.6488
34.8227 25.3279
35.0098 25.1093
35.1969 24.8146
35.3842 24.6244
35.5716 24.4118
35.759 24.0231
35.9468 23.601
36.1345 23.4468
36.3222 23.1823
36.5101 22.9162
36.6981 22.7359
36.8861 22.371
37.0743 22.0467
37.2626 21.853
37.451 21.54
37.6395 21.3736
37.8281 20.9425
38.0168 20.7173
38.2056 20.5111
38.3945 20.1991
38.5837 19.9506
38.7728 19.6626
38.9621 19.3675
39.1514 19.219
39.3409 18.9389
39.5304 18.6958
39.7201 18.5189
39.9099 18.2742
40.0999 17.9492
40.2899 17.718
40.48 17.5866
40.6703 17.3314
40.8607 17.1826
41.0512 16.924
41.242 16.6531
41.4327 16.4567
41.6236 16.2239
41.8146 16.0577
42.0057 15.8206
42.1969 15.5921
42.3882 15.37
42.5797 15.1691
42.7713 14.9584
42.963 14.7561
43.1549 14.5959
43.3468 14.3239
43.5389 14.1799
43.7312 14.0023
43.9237 13.7629
44.1162 13.6062
44.3088 13.4122
44.5016 13.2069
44.6945 13.0516
44.8875 12.8899
45.0806 12.6845
45.2739 12.4899
45.4673 12.3275
45.6609 12.1453
45.8546 11.9806
46.0484 11.819
46.2424 11.6292
46.4365 11.4974
46.631 11.2792
46.8254 11.0688
47.0199 10.9852
47.2146 10.8287
47.4095 10.6264
47.6044 10.4801
47.7996 10.3292
47.9948 10.1993
48.1902 10.0288
48.3858 9.91646
48.5815 9.78547
48.7774 9.59427
48.9734 9.47835
49.1696 9.35829
49.3661 9.1969
49.5626 9.03701
49.7592 8.92532
49.956 8.80648
50.153 8.64861
50.3501 8.47698
50.5474 8.37997
50.7448 8.26914
50.9424 8.13827
51.1402 8.01324
51.3381 7.87033
51.5362 7.74091
51.7344 7.58354
51.9328 7.51055
52.1316 7.33803
52.3304 7.2465
52.5293 7.13397
52.7284 7.00052
52.9276 6.85535
53.1271 6.79395
53.3267 6.66046
53.5265 6.54588
53.7264 6.43738
53.9266 6.2962
54.1269 6.17524
54.3274 6.0733
54.528 5.91939
54.7289 5.78745
54.9301 5.58981
55.1314 5.51629
55.3328 5.29615
55.5344 5.04089
55.7361 4.92593