File: XRD/Ni3Fe_FD0215.xy
TT I
1.27165 7.763
1.45013 6.71508
1.62863 6.01644
1.80712 5.40265
1.98562 4.96917
2.16411 4.8391
2.34263 4.95196
2.52115 5.10902
2.69965 6.45951
2.87818 8.22896
3.05672 11.1632
3.23527 15.6737
3.4138 19.3023
3.59237 22.2126
3.77094 25.8814
3.9495 30.0858
4.12809 34.6457
4.30669 40.8387
4.4853 48.852
4.6639 58.1792
4.84253 71.939
5.02118 97.1974
5.19981 898.151
5.37848 278.102
5.55716 112.892
5.73586 101.524
5.91455 111.47
6.09328 3589.18
6.27201 89.563
6.45075 71.3239
6.62952 64.4501
6.8083 59.923
6.98711 57.6374
7.16591 56.547
7.34475 56.1006
7.5236 56.5948
7.70247 58.2819
7.88135 60.456
8.06026 65.1834
8.23919 73.4045
8.41812 90.8188
8.59709 1055.44
8.77609 111.652
8.9551 91.0959
9.13412 87.1212
9.31318 88.4054
9.49226 89.8943
9.67134 95.9616
9.85047 107.009
10.0296 525.532
10.2088 567.253
10.388 114.832
10.5672 436.726
10.7465 93.0289
10.9257 81.1341
11.105 75.1981
11.2844 71.1983
11.4637 68.0512
11.6431 66.455
11.8225 65.7351
12.002 68.7532
12.1814 139.046
12.3609 70.8003
12.5405 67.73
12.72 69.8953
12.8996 74.7636
13.0792 86.2784
13.2589 227.141
13.4386 151.917
13.6183 223.808
13.7981 113.216
13.9779 80.3354
14.1577 75.846
14.3376 73.501
14.5175 73.0941
14.6974 74.8508
14.8774 119.213
15.0574 174.628
15.2374 72.6218
15.4175 70.1043
15.5976 70.2249
15.7778 103.579
15.958 178.989
16.1382 64.1369
16.3185 60.3856
16.4988 58.1318
16.6792 57.1846
16.8596 57.5894
17.04 59.1919
17.2205 68.9226
17.401 77.927
17.5815 62.4478
17.7622 64.8545
17.9428 82.9065
18.1237 138.255
18.3044 90.1888
18.4852 84.8351
18.666 63.5961
18.8469 61.0288
19.0278 59.6413
19.2088 63.1289
19.3898 76.227
19.5709 57.2506
19.752 56.1976
19.9332 59.8419
20.1144 72.5587
20.2957 64.2961
20.477 56.9377
20.6586 52.2961
20.84 51.2118
21.0215 51.4403
21.203 52.5648
21.3846 51.7815
21.5662 51.9766
21.7479 55.5113
21.9297 66.5153
22.1115 57.7541
22.2933 52.7803
22.4753 51.0496
22.6572 52.0366
22.8393 54.1883
23.0214 60.0477
23.2037 51.4682
23.3859 52.8162
23.5682 57.4103
23.7505 51.6309
23.9329 47.454
24.1154 46.3285
24.2979 45.6558
24.4805 45.0227
24.6631 45.0081
24.8458 44.3899
25.0286 45.1874
25.2114 46.6638
25.3943 46.7811
25.5773 43.0254
25.7605 42.7218
25.9436 42.7567
26.1268 43.7158
26.31 42.2981
26.4933 42.5524
26.6767 43.984
26.8601 42.4307
27.0437 40.7358
27.2272 40.503
27.4109 40.2489
27.5946 40.4311
27.7784 39.8483
27.9623 39.9683
28.1462 40.6078
28.3304 39.0788
28.5145 37.602
28.6987 37.3643
28.8829 37.0159
29.0673 36.5008
29.2517 35.9551
29.4361 35.7395
29.6207 34.8334
29.8053 34.6257
29.99 34.1297
30.1748 34.0215
30.3597 33.8777
30.5447 33.655
30.7297 33.6318
30.915 33.1147
31.1002 32.6178
31.2855 32.3904
31.4708 32.195
31.6563 31.829
31.8418 31.5783
32.0275 31.2648
32.2132 30.8316
32.399 30.3829
32.5848 29.847
32.7708 29.5327
32.9569 29.4666
33.143 29.0904
33.3293 28.7786
33.5158 28.2709
33.7022 27.8842
33.8887 27.5018
34.0753 27.1957
34.262 26.8362
34.4488 26.4987
34.6357 26.1831
34.8227 25.8819
35.0098 25.7455
35.1969 25.3983
35.3842 25.0665
35.5716 24.8657
35.759 24.5924
35.9468 24.2102
36.1345 23.9215
36.3222 23.7331
36.5101 23.57
36.6981 23.1762
36.8861 22.8892
37.0743 22.5017
37.2626 22.2286
37.451 22.0066
37.6395 21.8533
37.8281 21.396
38.0168 21.1678
38.2056 20.9203
38.3945 20.5602
38.5837 20.3509
38.7728 20.0876
38.9621 19.8022
39.1514 19.6111
39.3409 19.3787
39.5304 19.127
39.7201 18.9656
39.9099 18.668
40.0999 18.4571
40.2899 18.23
40.48 17.8858
40.6703 17.7136
40.8607 17.4967
41.0512 17.2634
41.242 17.0011
41.4327 16.8842
41.6236 16.6275
41.8146 16.3831
42.0057 16.1469
42.1969 15.8932
42.3882 15.7489
42.5797 15.5099
42.7713 15.3083
42.963 15.1049
43.1549 14.9163
43.3468 14.688
43.5389 14.5006
43.7312 14.2507
43.9237 14.0534
44.1162 13.8661
44.3088 13.6959
44.5016 13.5018
44.6945 13.317
44.8875 13.1983
45.0806 12.9482
45.2739 12.7634
45.4673 12.5679
45.6609 12.4178
45.8546 12.2387
46.0484 12.0569
46.2424 11.8654
46.4365 11.7342
46.631 11.5596
46.8254 11.3884
47.0199 11.1921
47.2146 11.031
47.4095 10.8508
47.6044 10.705
47.7996 10.5573
47.9948 10.3852
48.1902 10.2713
48.3858 10.1118
48.5815 9.97389
48.7774 9.75467
48.9734 9.65063
49.1696 9.52934
49.3661 9.36797
49.5626 9.22976
49.7592 9.09732
49.956 8.96705
50.153 8.8135
50.3501 8.6839
50.5474 8.55752
50.7448 8.44444
50.9424 8.30652
51.1402 8.13121
51.3381 8.00143
51.5362 7.87601
51.7344 7.78486
51.9328 7.59809
52.1316 7.50122
52.3304 7.3996
52.5293 7.27406
52.7284 7.14915
52.9276 7.00932
53.1271 6.94006
53.3267 6.77756
53.5265 6.68293
53.7264 6.53849
53.9266 6.4261
54.1269 6.29261
54.3274 6.21619
54.528 6.04813
54.7289 5.86472
54.9301 5.6732
55.1314 5.57817
55.3328 5.29121
55.5344 5.13865
55.7361 5.0558