File: XRD/Ni3Fe_FD0517.xy
TT I
1.27165 7.47784
1.45013 6.35157
1.62863 5.70717
1.80712 4.84967
1.98562 4.64628
2.16411 5.00259
2.34263 5.43003
2.52115 5.90281
2.69965 7.17545
2.87818 8.69272
3.05672 11.8515
3.23527 14.7455
3.4138 19.0887
3.59237 24.1846
3.77094 26.4107
3.9495 30.2443
4.12809 35.6116
4.30669 241.719
4.4853 68.3339
4.6639 56.0222
4.84253 67.7741
5.02118 87.9046
5.19981 384.138
5.37848 205.213
5.55716 103.848
5.73586 93.1167
5.91455 95.7869
6.09328 4089.48
6.27201 85.0847
6.45075 68.5372
6.62952 63.5516
6.8083 59.4902
6.98711 56.3883
7.16591 56.412
7.34475 97.6074
7.5236 55.4878
7.70247 56.9077
7.88135 58.4618
8.06026 62.8644
8.23919 70.3408
8.41812 86.568
8.59709 1129.29
8.77609 102.467
8.9551 93.4613
9.13412 82.4408
9.31318 83.3232
9.49226 85.2584
9.67134 101.105
9.85047 100.827
10.0296 345.267
10.2088 449.219
10.388 106.525
10.5672 492.424
10.7465 87.9207
10.9257 79.6591
11.105 72.8144
11.2844 71.5664
11.4637 65.7303
11.6431 64.1479
11.8225 63.4363
12.002 64.2336
12.1814 150.242
12.3609 72.6126
12.5405 65.2105
12.72 71.455
12.8996 71.9342
13.0792 79.5267
13.2589 231.653
13.4386 132.145
13.6183 239.449
13.7981 102.824
13.9779 76.5146
14.1577 73.4916
14.3376 72.4917
14.5175 69.6966
14.6974 71.1761
14.8774 110.081
15.0574 156.403
15.2374 72.2427
15.4175 67.3223
15.5976 66.4724
15.7778 95.2056
15.958 161.805
16.1382 64.0363
16.3185 59.8067
16.4988 56.2032
16.6792 55.3213
16.8596 56.0821
17.04 56.4133
17.2205 67.2538
17.401 72.7491
17.5815 60.071
17.7622 61.8263
17.9428 74.4399
18.1237 137.878
18.3044 90.3325
18.4852 80.6083
18.666 61.2661
18.8469 58.7629
19.0278 57.6043
19.2088 60.2812
19.3898 76.9567
19.5709 54.9942
19.752 54.0062
19.9332 56.8935
20.1144 70.3342
20.2957 64.0388
20.477 54.7961
20.6586 50.2235
20.84 49.4271
21.0215 49.2288
21.203 51.1805
21.3846 49.821
21.5662 49.2777
21.7479 53.234
21.9297 64.9047
22.1115 56.3692
22.2933 50.651
22.4753 49.4084
22.6572 49.4562
22.8393 52.2788
23.0214 58.2164
23.2037 49.3752
23.3859 50.3084
23.5682 57.004
23.7505 49.2803
23.9329 45.6635
24.1154 44.6153
24.2979 44.1404
24.4805 43.4493
24.6631 43.4395
24.8458 42.8727
25.0286 43.4528
25.2114 45.0357
25.3943 45.2391
25.5773 41.5099
25.7605 40.8824
25.9436 41.3943
26.1268 42.1943
26.31 40.6661
26.4933 41.1911
26.6767 42.753
26.8601 41.004
27.0437 39.3293
27.2272 39.0412
27.4109 38.9596
27.5946 38.8624
27.7784 38.3657
27.9623 38.809
28.1462 39.3663
28.3304 37.7726
28.5145 36.3894
28.6987 36.0473
28.8829 35.9379
29.0673 35.0681
29.2517 34.6612
29.4361 34.617
29.6207 33.5175
29.8053 33.3213
29.99 32.992
30.1748 32.9043
30.3597 32.6222
30.5447 32.5702
30.7297 32.5635
30.915 31.9836
31.1002 31.5503
31.2855 31.3029
31.4708 31.1813
31.6563 30.795
31.8418 30.4085
32.0275 30.3445
32.2132 29.7941
32.399 29.2723
32.5848 28.9809
32.7708 28.5976
32.9569 28.3632
33.143 28.1422
33.3293 27.7637
33.5158 27.38
33.7022 26.9424
33.8887 26.6309
34.0753 26.3001
34.262 25.9236
34.4488 25.6909
34.6357 25.3141
34.8227 25.014
35.0098 24.7752
35.1969 24.4622
35.3842 24.3253
35.5716 24.1211
35.759 23.7509
35.9468 23.4119
36.1345 23.1916
36.3222 23.0107
36.5101 22.6699
36.6981 22.4123
36.8861 22.0309
37.0743 21.742
37.2626 21.6094
37.451 21.2782
37.6395 21.0647
37.8281 20.8172
38.0168 20.4483
38.2056 20.2199
38.3945 20.023
38.5837 19.6268
38.7728 19.4625
38.9621 19.1461
39.1514 18.9231
39.3409 18.6905
39.5304 18.5124
39.7201 18.2466
39.9099 18.0605
40.0999 17.7632
40.2899 17.6647
40.48 17.3374
40.6703 17.1346
40.8607 17.0141
41.0512 16.7128
41.242 16.4117
41.4327 16.2663
41.6236 16.0505
41.8146 15.8723
42.0057 15.6458
42.1969 15.4042
42.3882 15.2238
42.5797 15.0183
42.7713 14.7996
42.963 14.6354
43.1549 14.4114
43.3468 14.193
43.5389 14.0528
43.7312 13.7898
43.9237 13.6562
44.1162 13.4578
44.3088 13.2394
44.5016 13.052
44.6945 12.8589
44.8875 12.7148
45.0806 12.5126
45.2739 12.3682
45.4673 12.226
45.6609 12.0427
45.8546 11.8352
46.0484 11.6775
46.2424 11.4663
46.4365 11.3395
46.631 11.1328
46.8254 10.9623
47.0199 10.831
47.2146 10.6832
47.4095 10.5461
47.6044 10.3597
47.7996 10.226
47.9948 10.0764
48.1902 9.91939
48.3858 9.78732
48.5815 9.65943
48.7774 9.53498
48.9734 9.32844
49.1696 9.21446
49.3661 9.06449
49.5626 8.93358
49.7592 8.80387
49.956 8.69448
50.153 8.52387
50.3501 8.42089
50.5474 8.30505
50.7448 8.15464
50.9424 8.03202
51.1402 7.89008
51.3381 7.77145
51.5362 7.68057
51.7344 7.52805
51.9328 7.41239
52.1316 7.28231
52.3304 7.13388
52.5293 7.03106
52.7284 6.937
52.9276 6.83314
53.1271 6.68463
53.3267 6.59034
53.5265 6.47309
53.7264 6.36801
53.9266 6.25754
54.1269 6.15464
54.3274 6.04801
54.528 5.86355
54.7289 5.71914
54.9301 5.54489
55.1314 5.4375
55.3328 5.22636
55.5344 5.08045
55.7361 4.87985