File: XRD/Ni3Fe_FD0702.xy
TT I
1.27165 7.26495
1.45013 6.26074
1.62863 5.0325
1.80712 5.4171
1.98562 4.45589
2.16411 4.60512
2.34263 5.33356
2.52115 7.08395
2.69965 7.686
2.87818 8.88832
3.05672 11.3678
3.23527 15.2346
3.4138 18.7303
3.59237 23.4719
3.77094 26.0719
3.9495 29.7931
4.12809 34.2416
4.30669 111.594
4.4853 54.304
4.6639 55.2048
4.84253 68.372
5.02118 87.6492
5.19981 434.732
5.37848 195.302
5.55716 102.396
5.73586 92.8328
5.91455 96.3985
6.09328 4605.15
6.27201 80.9407
6.45075 69.1912
6.62952 62.3403
6.8083 59.1739
6.98711 55.4512
7.16591 55.5154
7.34475 68.7482
7.5236 54.1739
7.70247 56.4775
7.88135 57.4254
8.06026 62.7433
8.23919 69.4492
8.41812 84.3164
8.59709 1248.09
8.77609 97.9454
8.9551 89.9431
9.13412 82.4889
9.31318 84.4765
9.49226 85.212
9.67134 95.7085
9.85047 101.37
10.0296 366.267
10.2088 356.274
10.388 106.071
10.5672 518.33
10.7465 86.2503
10.9257 77.6492
11.105 71.4316
11.2844 68.4921
11.4637 64.5527
11.6431 63.3643
11.8225 62.5026
12.002 64.39
12.1814 155.81
12.3609 66.9559
12.5405 64.9009
12.72 68.0663
12.8996 71.3249
13.0792 80.3691
13.2589 249.865
13.4386 120.455
13.6183 258.989
13.7981 93.885
13.9779 75.6649
14.1577 72.1227
14.3376 70.2489
14.5175 69.068
14.6974 70.8752
14.8774 114.633
15.0574 139.602
15.2374 69.6703
15.4175 66.3861
15.5976 65.8494
15.7778 97.4177
15.958 148.773
16.1382 61.5407
16.3185 57.856
16.4988 55.1854
16.6792 54.496
16.8596 54.8932
17.04 56.1101
17.2205 67.3629
17.401 69.7529
17.5815 59.0519
17.7622 61.5451
17.9428 74.3584
18.1237 141.97
18.3044 91.5968
18.4852 75.0174
18.666 60.1935
18.8469 57.9508
19.0278 56.555
19.2088 59.2669
19.3898 75.9867
19.5709 53.8094
19.752 53.2133
19.9332 56.3946
20.1144 69.5886
20.2957 64.1192
20.477 52.7842
20.6586 49.5182
20.84 48.8991
21.0215 48.4948
21.203 50.9433
21.3846 48.7556
21.5662 49.1344
21.7479 53.1153
21.9297 64.9756
22.1115 56.0109
22.2933 49.557
22.4753 48.6079
22.6572 48.9718
22.8393 52.0054
23.0214 56.955
23.2037 48.7594
23.3859 49.7877
23.5682 57.4108
23.7505 47.9605
23.9329 45.0533
24.1154 43.9874
24.2979 43.3604
24.4805 42.8933
24.6631 42.7119
24.8458 42.1546
25.0286 42.9317
25.2114 44.6776
25.3943 44.5003
25.5773 40.7746
25.7605 40.3649
25.9436 40.7408
26.1268 41.6272
26.31 39.9794
26.4933 40.7116
26.6767 42.1351
26.8601 40.356
27.0437 38.8413
27.2272 38.5501
27.4109 38.3637
27.5946 38.2714
27.7784 37.777
27.9623 38.4869
28.1462 38.7712
28.3304 37.0208
28.5145 35.905
28.6987 35.7404
28.8829 35.3516
29.0673 34.6699
29.2517 34.3173
29.4361 34.0779
29.6207 33.0617
29.8053 32.7779
29.99 32.437
30.1748 32.4657
30.3597 32.1922
30.5447 32.1866
30.7297 32.1426
30.915 31.5948
31.1002 31.049
31.2855 30.8899
31.4708 30.8126
31.6563 30.2037
31.8418 30.1647
32.0275 29.8325
32.2132 29.2798
32.399 28.8823
32.5848 28.4533
32.7708 28.0458
32.9569 27.9889
33.143 27.7643
33.3293 27.3264
33.5158 26.9714
33.7022 26.5627
33.8887 26.2531
34.0753 25.9601
34.262 25.5797
34.4488 25.2175
34.6357 24.8877
34.8227 24.7086
35.0098 24.4971
35.1969 24.1722
35.3842 23.922
35.5716 23.7361
35.759 23.5036
35.9468 23.1181
36.1345 22.9079
36.3222 22.6501
36.5101 22.3625
36.6981 22.1036
36.8861 21.6927
37.0743 21.4304
37.2626 21.1537
37.451 20.9298
37.6395 20.8273
37.8281 20.3993
38.0168 20.2085
38.2056 19.9695
38.3945 19.615
38.5837 19.4104
38.7728 19.1837
38.9621 18.9316
39.1514 18.6656
39.3409 18.4482
39.5304 18.1677
39.7201 18.0054
39.9099 17.7666
40.0999 17.5534
40.2899 17.3419
40.48 17.1156
40.6703 16.8656
40.8607 16.7112
41.0512 16.4907
41.242 16.2304
41.4327 16.0019
41.6236 15.794
41.8146 15.6394
42.0057 15.3531
42.1969 15.1897
42.3882 15.0022
42.5797 14.8185
42.7713 14.6015
42.963 14.4052
43.1549 14.2076
43.3468 13.9894
43.5389 13.8095
43.7312 13.5907
43.9237 13.4231
44.1162 13.2228
44.3088 13.0576
44.5016 12.878
44.6945 12.6776
44.8875 12.5341
45.0806 12.3394
45.2739 12.1822
45.4673 11.9837
45.6609 11.857
45.8546 11.6434
46.0484 11.5174
46.2424 11.3416
46.4365 11.2404
46.631 11.0328
46.8254 10.8078
47.0199 10.7062
47.2146 10.5607
47.4095 10.3673
47.6044 10.2428
47.7996 10.0874
47.9948 9.90154
48.1902 9.81386
48.3858 9.63137
48.5815 9.48686
48.7774 9.38479
48.9734 9.22917
49.1696 9.08683
49.3661 8.93019
49.5626 8.78015
49.7592 8.66697
49.956 8.52899
50.153 8.40857
50.3501 8.27642
50.5474 8.13881
50.7448 8.02854
50.9424 7.94447
51.1402 7.81257
51.3381 7.64822
51.5362 7.51768
51.7344 7.42799
51.9328 7.26661
52.1316 7.16008
52.3304 7.05831
52.5293 6.93292
52.7284 6.84602
52.9276 6.73823
53.1271 6.58031
53.3267 6.49024
53.5265 6.35942
53.7264 6.25517
53.9266 6.12328
54.1269 6.05387
54.3274 5.93956
54.528 5.7835
54.7289 5.60329
54.9301 5.48752
55.1314 5.37872
55.3328 5.12081
55.5344 4.95132
55.7361 4.80466