File: XRD/Ni3Fe_FD0753.xy
TT I
1.27165 7.21674
1.45013 6.65793
1.62863 5.33239
1.80712 4.58884
1.98562 4.88808
2.16411 4.95271
2.34263 5.59772
2.52115 7.06721
2.69965 8.29836
2.87818 8.64051
3.05672 10.7776
3.23527 15.5528
3.4138 19.0633
3.59237 24.3328
3.77094 26.3481
3.9495 29.706
4.12809 34.7499
4.30669 245.443
4.4853 67.9932
4.6639 55.2016
4.84253 66.6245
5.02118 85.3986
5.19981 309.264
5.37848 186.357
5.55716 101.345
5.73586 90.9103
5.91455 92.5287
6.09328 4274.23
6.27201 82.5942
6.45075 66.7914
6.62952 63.0494
6.8083 58.3198
6.98711 55.9074
7.16591 55.341
7.34475 97.0486
7.5236 54.6966
7.70247 56.1358
7.88135 57.4378
8.06026 62.1198
8.23919 68.8665
8.41812 84.436
8.59709 1127.27
8.77609 98.7523
8.9551 91.8949
9.13412 81.2653
9.31318 81.4501
9.49226 83.5718
9.67134 98.9491
9.85047 98.5458
10.0296 310.59
10.2088 403.648
10.388 103.596
10.5672 509.582
10.7465 85.8452
10.9257 77.9911
11.105 71.5371
11.2844 70.7289
11.4637 64.3311
11.6431 63.2841
11.8225 62.2495
12.002 62.9765
12.1814 148.266
12.3609 71.0141
12.5405 63.858
12.72 70.2926
12.8996 70.3118
13.0792 77.6078
13.2589 230.182
13.4386 125.909
13.6183 241.003
13.7981 97.4434
13.9779 75.3802
14.1577 72.0262
14.3376 71.3543
14.5175 68.292
14.6974 69.929
14.8774 106.376
15.0574 152.137
15.2374 71.1756
15.4175 65.8671
15.5976 65.223
15.7778 91.7763
15.958 156.658
16.1382 62.5155
16.3185 58.5422
16.4988 55.2067
16.6792 54.211
16.8596 54.9605
17.04 55.5218
17.2205 65.8546
17.401 71.0736
17.5815 58.7223
17.7622 60.8375
17.9428 72.0442
18.1237 138.39
18.3044 89.0631
18.4852 77.4686
18.666 60.16
18.8469 57.559
19.0278 56.467
19.2088 58.9196
19.3898 76.4336
19.5709 53.8944
19.752 53.0405
19.9332 55.4054
20.1144 69.3674
20.2957 63.1979
20.477 53.6923
20.6586 49.4249
20.84 48.5925
21.0215 48.2684
21.203 50.446
21.3846 48.7282
21.5662 48.2775
21.7479 51.997
21.9297 64.1586
22.1115 55.7658
22.2933 49.652
22.4753 48.5688
22.6572 48.4748
22.8393 51.1529
23.0214 57.0176
23.2037 48.5633
23.3859 49.2847
23.5682 56.7906
23.7505 48.2938
23.9329 44.9035
24.1154 43.8063
24.2979 43.1339
24.4805 42.6888
24.6631 42.483
24.8458 41.9583
25.0286 42.4547
25.2114 44.3456
25.3943 44.3541
25.5773 40.5436
25.7605 40.1533
25.9436 40.5468
26.1268 41.6111
26.31 39.8233
26.4933 40.4708
26.6767 41.841
26.8601 40.0959
27.0437 38.6144
27.2272 38.3518
27.4109 38.03
27.5946 38.1358
27.7784 37.5457
27.9623 38.2112
28.1462 38.583
28.3304 37.1014
28.5145 35.754
28.6987 35.3656
28.8829 35.2589
29.0673 34.4113
29.2517 34.1328
29.4361 33.9542
29.6207 32.9547
29.8053 32.6789
29.99 32.3992
30.1748 32.2063
30.3597 31.9455
30.5447 31.9619
30.7297 31.9724
30.915 31.4485
31.1002 30.9478
31.2855 30.6014
31.4708 30.5775
31.6563 30.2563
31.8418 29.8309
32.0275 29.6783
32.2132 29.13
32.399 28.7033
32.5848 28.1952
32.7708 27.9541
32.9569 27.8906
33.143 27.7212
33.3293 27.2784
33.5158 26.8904
33.7022 26.4595
33.8887 26.213
34.0753 25.8519
34.262 25.4026
34.4488 25.0794
34.6357 24.8362
34.8227 24.5328
35.0098 24.3104
35.1969 24.0578
35.3842 23.9013
35.5716 23.6301
35.759 23.3341
35.9468 22.8994
36.1345 22.8921
36.3222 22.516
36.5101 22.3278
36.6981 22.0059
36.8861 21.703
37.0743 21.4168
37.2626 21.1627
37.451 20.8538
37.6395 20.6877
37.8281 20.3588
38.0168 20.1455
38.2056 19.7992
38.3945 19.5771
38.5837 19.4232
38.7728 19.0651
38.9621 18.8486
39.1514 18.6391
39.3409 18.3584
39.5304 18.1842
39.7201 17.8966
39.9099 17.7343
40.0999 17.5043
40.2899 17.2768
40.48 17.0184
40.6703 16.8237
40.8607 16.6435
41.0512 16.4484
41.242 16.2182
41.4327 16.0196
41.6236 15.7524
41.8146 15.5451
42.0057 15.4389
42.1969 15.1395
42.3882 14.9932
42.5797 14.7444
42.7713 14.5721
42.963 14.3683
43.1549 14.1701
43.3468 13.9352
43.5389 13.7367
43.7312 13.544
43.9237 13.3838
44.1162 13.1701
44.3088 12.9824
44.5016 12.8308
44.6945 12.6984
44.8875 12.5241
45.0806 12.3291
45.2739 12.1728
45.4673 11.9766
45.6609 11.7685
45.8546 11.663
46.0484 11.4826
46.2424 11.3115
46.4365 11.1583
46.631 10.9558
46.8254 10.8003
47.0199 10.6582
47.2146 10.5465
47.4095 10.3424
47.6044 10.1778
47.7996 10.0599
47.9948 9.90927
48.1902 9.78854
48.3858 9.62594
48.5815 9.45807
48.7774 9.33546
48.9734 9.17223
49.1696 9.04545
49.3661 8.89271
49.5626 8.74908
49.7592 8.68023
49.956 8.52301
50.153 8.39493
50.3501 8.24227
50.5474 8.15634
50.7448 8.00994
50.9424 7.88022
51.1402 7.76993
51.3381 7.65069
51.5362 7.54164
51.7344 7.39963
51.9328 7.27795
52.1316 7.17115
52.3304 7.02115
52.5293 6.90735
52.7284 6.80417
52.9276 6.66526
53.1271 6.57786
53.3267 6.48552
53.5265 6.34302
53.7264 6.24892
53.9266 6.17071
54.1269 5.98931
54.3274 5.92398
54.528 5.78733
54.7289 5.58246
54.9301 5.51459
55.1314 5.41956
55.3328 5.1161
55.5344 4.97469
55.7361 4.83294