File: XRD/Ni3Fe_FD0674.xy
TT I
1.27165 7.46449
1.45013 6.28813
1.62863 4.93676
1.80712 4.95614
1.98562 5.03846
2.16411 5.07719
2.34263 5.97089
2.52115 6.46766
2.69965 7.98578
2.87818 9.05231
3.05672 11.1002
3.23527 14.807
3.4138 19.0511
3.59237 23.3998
3.77094 26.0023
3.9495 29.7774
4.12809 34.5667
4.30669 158.061
4.4853 59.5203
4.6639 55.2149
4.84253 67.447
5.02118 87.7133
5.19981 389.584
5.37848 182.276
5.55716 102.194
5.73586 92.6657
5.91455 94.7859
6.09328 4558.91
6.27201 81.5233
6.45075 67.2108
6.62952 62.0761
6.8083 58.2957
6.98711 55.4737
7.16591 54.8872
7.34475 79.3719
7.5236 54.6938
7.70247 56.1503
7.88135 57.8039
8.06026 62.7111
8.23919 69.267
8.41812 85.2474
8.59709 1227.87
8.77609 98.3335
8.9551 89.2262
9.13412 82.1363
9.31318 82.6521
9.49226 84.8034
9.67134 96.0322
9.85047 99.6318
10.0296 362.68
10.2088 374.588
10.388 104.652
10.5672 513.565
10.7465 86.3827
10.9257 77.7279
11.105 71.4486
11.2844 69.1477
11.4637 64.3642
11.6431 63.4484
11.8225 62.3462
12.002 64.1028
12.1814 154.13
12.3609 68.4555
12.5405 64.3959
12.72 68.7723
12.8996 70.9114
13.0792 79.7393
13.2589 247.307
13.4386 119.911
13.6183 254.661
13.7981 93.6117
13.9779 75.5892
14.1577 71.9689
14.3376 71.0787
14.5175 69.0439
14.6974 70.4147
14.8774 113.017
15.0574 141.341
15.2374 69.857
15.4175 66.0406
15.5976 65.8702
15.7778 96.425
15.958 152.08
16.1382 61.8927
16.3185 58.0435
16.4988 55.4071
16.6792 54.4889
16.8596 54.8508
17.04 55.9131
17.2205 67.196
17.401 69.8721
17.5815 59.1364
17.7622 61.2659
17.9428 74.3671
18.1237 142.798
18.3044 91.1707
18.4852 75.4761
18.666 60.3393
18.8469 57.9896
19.0278 56.6072
19.2088 59.4786
19.3898 76.4363
19.5709 54.0412
19.752 53.3724
19.9332 56.3911
20.1144 69.7943
20.2957 64.1521
20.477 52.8475
20.6586 49.5086
20.84 48.798
21.0215 48.5536
21.203 50.9521
21.3846 48.6467
21.5662 48.8687
21.7479 52.7246
21.9297 64.8942
22.1115 55.9852
22.2933 49.7427
22.4753 48.5628
22.6572 48.9704
22.8393 52.1292
23.0214 57.1885
23.2037 48.5279
23.3859 49.6642
23.5682 57.427
23.7505 47.8567
23.9329 45.1147
24.1154 44.0008
24.2979 43.2556
24.4805 43.0771
24.6631 42.753
24.8458 42.1255
25.0286 42.8523
25.2114 44.6966
25.3943 44.4882
25.5773 40.8183
25.7605 40.4293
25.9436 40.9068
26.1268 41.5756
26.31 40.098
26.4933 40.7825
26.6767 42.1543
26.8601 40.3326
27.0437 38.7584
27.2272 38.5845
27.4109 38.4446
27.5946 38.4289
27.7784 37.8174
27.9623 38.4643
28.1462 38.6502
28.3304 36.9592
28.5145 35.8275
28.6987 35.6095
28.8829 35.4028
29.0673 34.5764
29.2517 34.24
29.4361 34.0601
29.6207 33.0053
29.8053 32.8182
29.99 32.4774
30.1748 32.4218
30.3597 32.2529
30.5447 32.0604
30.7297 32.1576
30.915 31.4802
31.1002 31.0903
31.2855 30.8199
31.4708 30.7973
31.6563 30.3672
31.8418 30.0821
32.0275 29.798
32.2132 29.4426
32.399 28.8954
32.5848 28.4058
32.7708 28.0191
32.9569 28.0986
33.143 27.784
33.3293 27.3622
33.5158 27.012
33.7022 26.4525
33.8887 26.317
34.0753 25.977
34.262 25.5295
34.4488 25.2913
34.6357 24.8901
34.8227 24.6577
35.0098 24.4474
35.1969 24.0914
35.3842 24.014
35.5716 23.6932
35.759 23.381
35.9468 23.1496
36.1345 22.9063
36.3222 22.5923
36.5101 22.3803
36.6981 22.087
36.8861 21.759
37.0743 21.4887
37.2626 21.2182
37.451 20.9987
37.6395 20.8532
37.8281 20.4736
38.0168 20.1494
38.2056 19.9184
38.3945 19.6441
38.5837 19.4523
38.7728 19.1429
38.9621 18.924
39.1514 18.7347
39.3409 18.4517
39.5304 18.2937
39.7201 18.0568
39.9099 17.8205
40.0999 17.5662
40.2899 17.337
40.48 17.0616
40.6703 16.9098
40.8607 16.7037
41.0512 16.5137
41.242 16.21
41.4327 16.0446
41.6236 15.8104
41.8146 15.6739
42.0057 15.37
42.1969 15.2336
42.3882 14.9931
42.5797 14.7638
42.7713 14.6299
42.963 14.3358
43.1549 14.1994
43.3468 14.0231
43.5389 13.824
43.7312 13.6318
43.9237 13.432
44.1162 13.2286
44.3088 13.0353
44.5016 12.8865
44.6945 12.7184
44.8875 12.56
45.0806 12.3717
45.2739 12.2326
45.4673 12.0507
45.6609 11.7984
45.8546 11.6871
46.0484 11.4851
46.2424 11.3599
46.4365 11.1705
46.631 11.0155
46.8254 10.8408
47.0199 10.7186
47.2146 10.5597
47.4095 10.3747
47.6044 10.2424
47.7996 10.0708
47.9948 9.92177
48.1902 9.81983
48.3858 9.64962
48.5815 9.48957
48.7774 9.39232
48.9734 9.22267
49.1696 9.10058
49.3661 8.91955
49.5626 8.80009
49.7592 8.69321
49.956 8.55225
50.153 8.40815
50.3501 8.26438
50.5474 8.18071
50.7448 8.03494
50.9424 7.91823
51.1402 7.77137
51.3381 7.64271
51.5362 7.53299
51.7344 7.40265
51.9328 7.27408
52.1316 7.14152
52.3304 7.09198
52.5293 6.91743
52.7284 6.83657
52.9276 6.66144
53.1271 6.60671
53.3267 6.4945
53.5265 6.37914
53.7264 6.27966
53.9266 6.17684
54.1269 6.0743
54.3274 5.92888
54.528 5.75642
54.7289 5.59012
54.9301 5.45575
55.1314 5.32952
55.3328 5.14814
55.5344 4.94025
55.7361 4.81544