File: XRD/Ni3Fe_FD0312.xy
TT I
1.27165 7.48314
1.45013 6.14352
1.62863 5.4297
1.80712 5.25283
1.98562 4.93348
2.16411 4.61362
2.34263 5.22609
2.52115 5.50336
2.69965 7.17111
2.87818 8.30668
3.05672 11.0581
3.23527 15.4443
3.4138 19.3091
3.59237 25.3384
3.77094 26.6936
3.9495 30.7633
4.12809 35.4404
4.30669 295.567
4.4853 74.6049
4.6639 56.3962
4.84253 68.5184
5.02118 90.5922
5.19981 479.231
5.37848 239.664
5.55716 106.001
5.73586 94.9107
5.91455 99.6937
6.09328 3789.89
6.27201 88.5719
6.45075 69.7547
6.62952 65.4424
6.8083 60.8606
6.98711 57.8557
7.16591 58.0622
7.34475 111.438
7.5236 56.6509
7.70247 57.8738
7.88135 59.2948
8.06026 64.1686
8.23919 71.4438
8.41812 89.1075
8.59709 1015.35
8.77609 105.941
8.9551 96.9868
9.13412 83.9079
9.31318 85.3239
9.49226 86.6113
9.67134 105.376
9.85047 103.018
10.0296 366.361
10.2088 534.247
10.388 109.387
10.5672 466.022
10.7465 89.9437
10.9257 81.1837
11.105 74.0127
11.2844 73.5664
11.4637 66.739
11.6431 65.5427
11.8225 64.5828
12.002 65.7699
12.1814 139.651
12.3609 76.112
12.5405 66.5898
12.72 73.8296
12.8996 73.0094
13.0792 81.2069
13.2589 215.017
13.4386 140.874
13.6183 217.733
13.7981 106.727
13.9779 78.124
14.1577 75.0258
14.3376 74.7099
14.5175 70.7174
14.6974 72.7891
14.8774 108.69
15.0574 168.599
15.2374 74.4415
15.4175 68.4947
15.5976 67.8192
15.7778 94.4101
15.958 177.661
16.1382 65.824
16.3185 61.0173
16.4988 57.2816
16.6792 56.3228
16.8596 57.2698
17.04 57.6875
17.2205 66.7989
17.401 76.3023
17.5815 61.0894
17.7622 63.1015
17.9428 76.1887
18.1237 140.802
18.3044 89.0118
18.4852 83.9484
18.666 62.5713
18.8469 59.7744
19.0278 58.8611
19.2088 61.5135
19.3898 78.7242
19.5709 56.1619
19.752 55.0088
19.9332 57.9528
20.1144 71.8194
20.2957 63.9669
20.477 56.2511
20.6586 51.3768
20.84 50.4789
21.0215 50.2743
21.203 52.167
21.3846 50.9168
21.5662 50.3556
21.7479 53.8414
21.9297 66.5951
22.1115 57.4333
22.2933 51.8095
22.4753 50.6894
22.6572 50.4814
22.8393 52.9247
23.0214 60.0799
23.2037 50.4028
23.3859 51.4089
23.5682 57.7087
23.7505 50.4324
23.9329 46.7548
24.1154 45.6072
24.2979 44.9768
24.4805 44.322
24.6631 44.2281
24.8458 43.4252
25.0286 44.0315
25.2114 46.0502
25.3943 46.29
25.5773 42.2915
25.7605 41.7822
25.9436 42.0614
26.1268 43.1224
26.31 41.5099
26.4933 41.9952
26.6767 43.5331
26.8601 41.9708
27.0437 40.2202
27.2272 39.7965
27.4109 39.6222
27.5946 39.6276
27.7784 39.1017
27.9623 39.4236
28.1462 40.1487
28.3304 38.4949
28.5145 37.069
28.6987 36.7522
28.8829 36.5938
29.0673 35.7537
29.2517 35.3943
29.4361 35.3149
29.6207 34.2019
29.8053 33.94
29.99 33.65
30.1748 33.4607
30.3597 33.3992
30.5447 33.1197
30.7297 33.3236
30.915 32.6549
31.1002 32.098
31.2855 31.8032
31.4708 31.8871
31.6563 31.3984
31.8418 31.1198
32.0275 30.8568
32.2132 30.4286
32.399 29.912
32.5848 29.4542
32.7708 29.0827
32.9569 28.8998
33.143 28.75
33.3293 28.3381
33.5158 27.9976
33.7022 27.4803
33.8887 27.2584
34.0753 26.8178
34.262 26.5642
34.4488 26.1675
34.6357 25.7505
34.8227 25.5406
35.0098 25.2799
35.1969 25.0012
35.3842 24.8383
35.5716 24.6042
35.759 24.2004
35.9468 23.8823
36.1345 23.6663
36.3222 23.4194
36.5101 23.2558
36.6981 22.8372
36.8861 22.5745
37.0743 22.1823
37.2626 21.9848
37.451 21.7475
37.6395 21.6004
37.8281 21.1752
38.0168 20.8941
38.2056 20.6544
38.3945 20.3645
38.5837 20.1255
38.7728 19.8536
38.9621 19.5852
39.1514 19.3174
39.3409 19.1011
39.5304 18.8728
39.7201 18.716
39.9099 18.4119
40.0999 18.2114
40.2899 17.9953
40.48 17.7339
40.6703 17.4742
40.8607 17.3796
41.0512 17.0166
41.242 16.8164
41.4327 16.6139
41.6236 16.4036
41.8146 16.1662
42.0057 15.9566
42.1969 15.7073
42.3882 15.5509
42.5797 15.3164
42.7713 15.0937
42.963 14.9341
43.1549 14.7035
43.3468 14.5095
43.5389 14.2844
43.7312 14.0454
43.9237 13.8817
44.1162 13.7546
44.3088 13.566
44.5016 13.3301
44.6945 13.177
44.8875 12.9127
45.0806 12.791
45.2739 12.6221
45.4673 12.4228
45.6609 12.2837
45.8546 12.0883
46.0484 11.9488
46.2424 11.7254
46.4365 11.5987
46.631 11.3941
46.8254 11.215
47.0199 11.0375
47.2146 10.9082
47.4095 10.7046
47.6044 10.556
47.7996 10.4116
47.9948 10.2665
48.1902 10.1404
48.3858 9.9998
48.5815 9.82415
48.7774 9.70391
48.9734 9.56862
49.1696 9.39299
49.3661 9.23966
49.5626 9.09228
49.7592 8.98367
49.956 8.8487
50.153 8.69293
50.3501 8.55535
50.5474 8.43584
50.7448 8.35625
50.9424 8.15571
51.1402 8.0847
51.3381 7.93885
51.5362 7.80342
51.7344 7.71901
51.9328 7.53945
52.1316 7.40293
52.3304 7.30294
52.5293 7.12823
52.7284 7.07961
52.9276 6.91862
53.1271 6.82831
53.3267 6.72935
53.5265 6.5976
53.7264 6.45015
53.9266 6.35986
54.1269 6.18437
54.3274 6.10756
54.528 5.99727
54.7289 5.89227
54.9301 5.64819
55.1314 5.51099
55.3328 5.3311
55.5344 5.13377
55.7361 5.00941