File: XRD/Ni3Fe_FD0790.xy
TT I
1.27165 7.37732
1.45013 6.13261
1.62863 5.34413
1.80712 4.71501
1.98562 5.23439
2.16411 5.08136
2.34263 5.53607
2.52115 7.6299
2.69965 8.60525
2.87818 8.96527
3.05672 11.0323
3.23527 15.1587
3.4138 18.2989
3.59237 23.829
3.77094 25.5211
3.9495 29.7899
4.12809 34.5103
4.30669 151.598
4.4853 58.7005
4.6639 55.108
4.84253 67.4073
5.02118 86.4298
5.19981 361.152
5.37848 178.29
5.55716 101.026
5.73586 91.9123
5.91455 93.8964
6.09328 4558.07
6.27201 80.1208
6.45075 67.0653
6.62952 61.9431
6.8083 58.0196
6.98711 54.9402
7.16591 54.4755
7.34475 77.0803
7.5236 53.9785
7.70247 56.0163
7.88135 57.1114
8.06026 61.9845
8.23919 69.1355
8.41812 83.9387
8.59709 1204.11
8.77609 97.1612
8.9551 88.813
9.13412 81.1955
9.31318 82.3513
9.49226 83.8599
9.67134 94.8473
9.85047 99.2476
10.0296 345.046
10.2088 344.657
10.388 103.377
10.5672 538.517
10.7465 85.0484
10.9257 77.1904
11.105 71.1365
11.2844 68.8737
11.4637 64.0471
11.6431 62.984
11.8225 61.8905
12.002 63.3847
12.1814 157.402
12.3609 67.7553
12.5405 63.9527
12.72 68.3388
12.8996 70.5272
13.0792 79.004
13.2589 246.369
13.4386 117.274
13.6183 257.751
13.7981 92.1464
13.9779 74.9169
14.1577 71.3499
14.3376 70.2703
14.5175 68.3795
14.6974 69.8806
14.8774 111.391
15.0574 139.843
15.2374 69.5227
15.4175 65.7237
15.5976 65.2855
15.7778 94.6238
15.958 146.691
16.1382 61.2492
16.3185 57.7409
16.4988 54.7199
16.6792 53.9371
16.8596 54.5138
17.04 55.2397
17.2205 66.9049
17.401 68.6721
17.5815 58.4201
17.7622 60.8857
17.9428 72.9978
18.1237 141.141
18.3044 91.0582
18.4852 74.3333
18.666 59.6355
18.8469 57.5356
19.0278 56.2482
19.2088 58.846
19.3898 75.9984
19.5709 53.5817
19.752 52.8357
19.9332 55.9201
20.1144 69.4208
20.2957 63.7562
20.477 52.6045
20.6586 49.1193
20.84 48.417
21.0215 48.1693
21.203 50.5479
21.3846 48.4403
21.5662 48.4533
21.7479 52.3112
21.9297 64.3476
22.1115 55.7795
22.2933 49.0974
22.4753 48.3371
22.6572 48.4161
22.8393 51.5388
23.0214 56.4411
23.2037 48.327
23.3859 49.4781
23.5682 56.8803
23.7505 47.4791
23.9329 44.778
24.1154 43.5924
24.2979 42.8595
24.4805 42.6044
24.6631 42.3651
24.8458 41.7754
25.0286 42.5575
25.2114 44.0922
25.3943 44.0465
25.5773 40.5089
25.7605 40.1533
25.9436 40.5673
26.1268 41.2868
26.31 39.5471
26.4933 40.3791
26.6767 41.8504
26.8601 39.9664
27.0437 38.62
27.2272 38.2009
27.4109 38.1294
27.5946 38.0667
27.7784 37.674
27.9623 38.1557
28.1462 38.4222
28.3304 36.6565
28.5145 35.5078
28.6987 35.3315
28.8829 35.2243
29.0673 34.2843
29.2517 34.0367
29.4361 33.7456
29.6207 32.8591
29.8053 32.5405
29.99 32.2677
30.1748 32.1575
30.3597 31.9022
30.5447 31.9386
30.7297 31.9996
30.915 31.2505
31.1002 30.8017
31.2855 30.5935
31.4708 30.5025
31.6563 30.06
31.8418 29.8909
32.0275 29.5406
32.2132 29.1137
32.399 28.5251
32.5848 28.1754
32.7708 27.7865
32.9569 27.7333
33.143 27.5157
33.3293 27.0755
33.5158 26.7462
33.7022 26.3469
33.8887 26.0275
34.0753 25.7275
34.262 25.3614
34.4488 25.0248
34.6357 24.709
34.8227 24.447
35.0098 24.1888
35.1969 23.9822
35.3842 23.7584
35.5716 23.5638
35.759 23.1993
35.9468 22.8381
36.1345 22.6671
36.3222 22.4835
36.5101 22.1887
36.6981 21.8776
36.8861 21.6294
37.0743 21.2518
37.2626 21.0418
37.451 20.7738
37.6395 20.604
37.8281 20.3003
38.0168 19.9791
38.2056 19.7533
38.3945 19.4521
38.5837 19.251
38.7728 18.9492
38.9621 18.6419
39.1514 18.5411
39.3409 18.2806
39.5304 18.084
39.7201 17.9021
39.9099 17.6602
40.0999 17.362
40.2899 17.2006
40.48 16.9236
40.6703 16.7821
40.8607 16.5954
41.0512 16.3723
41.242 16.0565
41.4327 15.9061
41.6236 15.6682
41.8146 15.5224
42.0057 15.2974
42.1969 15.1299
42.3882 14.8558
42.5797 14.6875
42.7713 14.4329
42.963 14.2873
43.1549 14.0488
43.3468 13.9053
43.5389 13.7016
43.7312 13.5027
43.9237 13.3452
44.1162 13.1059
44.3088 12.9192
44.5016 12.7795
44.6945 12.6406
44.8875 12.4331
45.0806 12.1976
45.2739 12.0488
45.4673 11.9081
45.6609 11.7034
45.8546 11.5835
46.0484 11.4176
46.2424 11.2296
46.4365 11.1226
46.631 10.8886
46.8254 10.7356
47.0199 10.5946
47.2146 10.4348
47.4095 10.2812
47.6044 10.1138
47.7996 9.9763
47.9948 9.80979
48.1902 9.73089
48.3858 9.58741
48.5815 9.44017
48.7774 9.26511
48.9734 9.15544
49.1696 9.01218
49.3661 8.8962
49.5626 8.69248
49.7592 8.58964
49.956 8.47794
50.153 8.35488
50.3501 8.23598
50.5474 8.0968
50.7448 7.96158
50.9424 7.86173
51.1402 7.70977
51.3381 7.58733
51.5362 7.47777
51.7344 7.36867
51.9328 7.24244
52.1316 7.13203
52.3304 7.00113
52.5293 6.86321
52.7284 6.76606
52.9276 6.60208
53.1271 6.57565
53.3267 6.44772
53.5265 6.31456
53.7264 6.23322
53.9266 6.12487
54.1269 5.99573
54.3274 5.8801
54.528 5.76719
54.7289 5.6237
54.9301 5.41632
55.1314 5.33391
55.3328 5.04526
55.5344 4.92384
55.7361 4.79256