File: XRD/Ni3Fe_FD0139.xy
TT I
1.27165 8.02093
1.45013 6.45159
1.62863 5.96575
1.80712 5.594
1.98562 5.05038
2.16411 4.70602
2.34263 5.09928
2.52115 4.51798
2.69965 5.74195
2.87818 7.71861
3.05672 10.9736
3.23527 14.7582
3.4138 18.6173
3.59237 21.7788
3.77094 24.8785
3.9495 28.6919
4.12809 32.5966
4.30669 37.4953
4.4853 44.3926
4.6639 53.5221
4.84253 65.8888
5.02118 90.3604
5.19981 557.373
5.37848 475.863
5.55716 107.924
5.73586 95.1538
5.91455 105.696
6.09328 2648.49
6.27201 89.7021
6.45075 66.4178
6.62952 59.4443
6.8083 55.1441
6.98711 53.2393
7.16591 51.9829
7.34475 51.738
7.5236 55.7435
7.70247 53.6029
7.88135 55.7418
8.06026 60.3793
8.23919 67.6323
8.41812 83.4462
8.59709 864.298
8.77609 118.099
8.9551 84.4422
9.13412 80.9472
9.31318 86.7302
9.49226 82.8464
9.67134 88.1711
9.85047 98.191
10.0296 547.959
10.2088 1014.13
10.388 104.329
10.5672 320.12
10.7465 90.4173
10.9257 75.397
11.105 69.8311
11.2844 65.587
11.4637 62.8467
11.6431 61.6564
11.8225 61.0163
12.002 65.2597
12.1814 115.526
12.3609 75.089
12.5405 62.8271
12.72 64.8847
12.8996 69.3903
13.0792 78.8957
13.2589 201.64
13.4386 218.917
13.6183 188.467
13.7981 157.76
13.9779 75.4063
14.1577 74.0587
14.3376 68.5326
14.5175 67.9122
14.6974 69.3817
14.8774 120.871
15.0574 204.825
15.2374 68.5506
15.4175 65.8864
15.5976 65.1031
15.7778 107.565
15.958 183.477
16.1382 61.4694
16.3185 56.9772
16.4988 54.8158
16.6792 53.8426
16.8596 53.8709
17.04 54.9886
17.2205 64.6911
17.401 80.9029
17.5815 58.6472
17.7622 61.0619
17.9428 83.5045
18.1237 112.237
18.3044 87.9379
18.4852 95.8303
18.666 60.4965
18.8469 57.9117
19.0278 56.5995
19.2088 61.5212
19.3898 68.3715
19.5709 56.3694
19.752 52.724
19.9332 58.0591
20.1144 66.4795
20.2957 60.7536
20.477 59.2111
20.6586 49.7134
20.84 48.9148
21.0215 48.7536
21.203 49.3577
21.3846 50.3629
21.5662 48.8938
21.7479 53.8838
21.9297 61.4614
22.1115 56.2004
22.2933 52.509
22.4753 48.5008
22.6572 48.8527
22.8393 51.8917
23.0214 56.6957
23.2037 49.8996
23.3859 51.6164
23.5682 53.2052
23.7505 53.5869
23.9329 45.4231
24.1154 44.1673
24.2979 43.5131
24.4805 42.6379
24.6631 42.9566
24.8458 42.3287
25.0286 42.7825
25.2114 44.3521
25.3943 44.5684
25.5773 41.7659
25.7605 40.5015
25.9436 40.7688
26.1268 41.4975
26.31 40.9134
26.4933 40.8733
26.6767 41.7822
26.8601 41.1352
27.0437 39.3724
27.2272 38.7535
27.4109 38.4802
27.5946 38.4988
27.7784 38.3029
27.9623 38.3496
28.1462 39.2665
28.3304 37.8787
28.5145 36.2522
28.6987 35.8293
28.8829 35.3525
29.0673 35.05
29.2517 34.37
29.4361 34.056
29.6207 33.5294
29.8053 32.9493
29.99 32.7272
30.1748 32.4527
30.3597 32.5339
30.5447 32.1882
30.7297 32.2201
30.915 31.9348
31.1002 31.3571
31.2855 31.1066
31.4708 30.8205
31.6563 30.7784
31.8418 30.3456
32.0275 30.0627
32.2132 29.6028
32.399 29.0735
32.5848 28.6549
32.7708 28.1826
32.9569 28.1921
33.143 27.7837
33.3293 27.5985
33.5158 27.2679
33.7022 26.7177
33.8887 26.383
34.0753 26.1772
34.262 25.7512
34.4488 25.4171
34.6357 25.0542
34.8227 24.747
35.0098 24.548
35.1969 24.2962
35.3842 24.0316
35.5716 23.942
35.759 23.6096
35.9468 23.2432
36.1345 23.076
36.3222 22.6691
36.5101 22.528
36.6981 22.2307
36.8861 21.9646
37.0743 21.6744
37.2626 21.3335
37.451 21.0856
37.6395 20.9122
37.8281 20.5993
38.0168 20.3075
38.2056 19.987
38.3945 19.7379
38.5837 19.47
38.7728 19.2949
38.9621 19.0404
39.1514 18.777
39.3409 18.6143
39.5304 18.314
39.7201 18.081
39.9099 17.8845
40.0999 17.6532
40.2899 17.3978
40.48 17.2003
40.6703 16.9659
40.8607 16.8287
41.0512 16.5692
41.242 16.3113
41.4327 16.0347
41.6236 15.8267
41.8146 15.7122
42.0057 15.4549
42.1969 15.2311
42.3882 15.0573
42.5797 14.8922
42.7713 14.6893
42.963 14.4785
43.1549 14.288
43.3468 14.0412
43.5389 13.8588
43.7312 13.6567
43.9237 13.501
44.1162 13.3255
44.3088 13.0784
44.5016 12.9282
44.6945 12.7475
44.8875 12.5796
45.0806 12.4029
45.2739 12.2353
45.4673 12.046
45.6609 11.8886
45.8546 11.7246
46.0484 11.5521
46.2424 11.3321
46.4365 11.2773
46.631 11.0693
46.8254 10.8831
47.0199 10.7327
47.2146 10.564
47.4095 10.4047
47.6044 10.2672
47.7996 10.0984
47.9948 9.97521
48.1902 9.81188
48.3858 9.6749
48.5815 9.53644
48.7774 9.39474
48.9734 9.28164
49.1696 9.12333
49.3661 8.9813
49.5626 8.84335
49.7592 8.696
49.956 8.60807
50.153 8.48648
50.3501 8.33999
50.5474 8.21114
50.7448 8.05963
50.9424 7.98392
51.1402 7.8561
51.3381 7.66707
51.5362 7.61171
51.7344 7.43907
51.9328 7.32297
52.1316 7.18158
52.3304 7.11864
52.5293 6.97313
52.7284 6.86096
52.9276 6.71258
53.1271 6.6333
53.3267 6.54216
53.5265 6.40119
53.7264 6.29263
53.9266 6.20387
54.1269 6.07689
54.3274 5.92527
54.528 5.77929
54.7289 5.6112
54.9301 5.47136
55.1314 5.28118
55.3328 5.07066
55.5344 4.8543
55.7361 4.74766