File: XRD/Ni3Fe_FD0137.xy
TT I
1.27165 8.0849
1.45013 6.49532
1.62863 6.32508
1.80712 5.40736
1.98562 5.05855
2.16411 4.55989
2.34263 4.64564
2.52115 4.54994
2.69965 5.85986
2.87818 8.23441
3.05672 11.1906
3.23527 14.8592
3.4138 18.983
3.59237 21.7763
3.77094 24.5865
3.9495 28.6729
4.12809 32.7716
4.30669 37.4783
4.4853 44.8074
4.6639 53.7338
4.84253 65.695
5.02118 90.9491
5.19981 569.165
5.37848 474.908
5.55716 107.955
5.73586 95.459
5.91455 105.683
6.09328 2640.05
6.27201 89.3309
6.45075 66.2544
6.62952 59.5215
6.8083 55.3488
6.98711 53.1731
7.16591 52.1913
7.34475 52.0313
7.5236 56.258
7.70247 53.8635
7.88135 55.888
8.06026 60.4149
8.23919 67.5198
8.41812 83.5366
8.59709 865.492
8.77609 117.337
8.9551 84.72
9.13412 81.1508
9.31318 87.4388
9.49226 82.8122
9.67134 88.4892
9.85047 98.3116
10.0296 551.046
10.2088 1002.23
10.388 104.166
10.5672 319.718
10.7465 90.7902
10.9257 75.3552
11.105 69.8042
11.2844 65.9913
11.4637 62.8181
11.6431 61.7751
11.8225 60.8114
12.002 65.4378
12.1814 114.759
12.3609 75.8192
12.5405 62.6603
12.72 65.1483
12.8996 69.3957
13.0792 78.727
13.2589 201.269
13.4386 218.032
13.6183 187.735
13.7981 159.414
13.9779 75.7974
14.1577 74.2574
14.3376 68.4502
14.5175 68.0219
14.6974 69.2256
14.8774 120.447
15.0574 203.961
15.2374 68.5948
15.4175 65.8766
15.5976 65.2157
15.7778 106.918
15.958 182.875
16.1382 61.5818
16.3185 57.2293
16.4988 54.6732
16.6792 53.5556
16.8596 53.9869
17.04 55.1029
17.2205 64.684
17.401 81.265
17.5815 58.6734
17.7622 60.9874
17.9428 83.6125
18.1237 112.329
18.3044 87.6672
18.4852 95.1806
18.666 60.644
18.8469 57.9119
19.0278 56.237
19.2088 61.6459
19.3898 68.0465
19.5709 56.3269
19.752 53.0082
19.9332 57.8206
20.1144 66.0774
20.2957 60.701
20.477 59.2444
20.6586 49.4817
20.84 48.789
21.0215 48.834
21.203 49.4424
21.3846 50.3274
21.5662 48.7756
21.7479 53.9152
21.9297 61.2242
22.1115 56.0736
22.2933 52.2673
22.4753 48.6718
22.6572 48.8647
22.8393 51.7396
23.0214 56.6323
23.2037 49.7378
23.3859 51.5993
23.5682 53.1303
23.7505 53.3006
23.9329 45.4868
24.1154 44.1894
24.2979 43.4055
24.4805 42.692
24.6631 43.0028
24.8458 42.3274
25.0286 42.9057
25.2114 44.4224
25.3943 44.6452
25.5773 41.6095
25.7605 40.6708
25.9436 40.8609
26.1268 41.4403
26.31 40.785
26.4933 40.7575
26.6767 41.7809
26.8601 41.095
27.0437 39.3317
27.2272 38.7169
27.4109 38.4514
27.5946 38.6075
27.7784 38.2187
27.9623 38.2324
28.1462 39.0819
28.3304 37.8057
28.5145 36.2358
28.6987 35.7525
28.8829 35.3512
29.0673 35.0508
29.2517 34.36
29.4361 34.0365
29.6207 33.4206
29.8053 32.9351
29.99 32.6241
30.1748 32.3377
30.3597 32.4349
30.5447 32.182
30.7297 32.1331
30.915 31.9323
31.1002 31.3005
31.2855 30.9212
31.4708 30.6901
31.6563 30.6269
31.8418 30.1516
32.0275 30.099
32.2132 29.6488
32.399 28.9505
32.5848 28.5534
32.7708 28.1969
32.9569 28.124
33.143 27.8446
33.3293 27.4962
33.5158 27.2756
33.7022 26.7313
33.8887 26.3563
34.0753 26.1804
34.262 25.6875
34.4488 25.4192
34.6357 25.074
34.8227 24.6623
35.0098 24.5538
35.1969 24.2293
35.3842 24.0535
35.5716 23.8065
35.759 23.5727
35.9468 23.1757
36.1345 22.9193
36.3222 22.6627
36.5101 22.4079
36.6981 22.2409
36.8861 21.8123
37.0743 21.5679
37.2626 21.3365
37.451 21.0323
37.6395 20.8641
37.8281 20.5547
38.0168 20.2292
38.2056 19.9449
38.3945 19.7035
38.5837 19.4803
38.7728 19.174
38.9621 19.0363
39.1514 18.7853
39.3409 18.5189
39.5304 18.2422
39.7201 18.0825
39.9099 17.885
40.0999 17.6376
40.2899 17.3728
40.48 17.1718
40.6703 16.9986
40.8607 16.7583
41.0512 16.5685
41.242 16.3433
41.4327 16.0775
41.6236 15.8402
41.8146 15.6848
42.0057 15.4567
42.1969 15.2117
42.3882 15.0997
42.5797 14.8536
42.7713 14.6735
42.963 14.4623
43.1549 14.2479
43.3468 14.0342
43.5389 13.8229
43.7312 13.6601
43.9237 13.4895
44.1162 13.287
44.3088 13.1024
44.5016 12.9266
44.6945 12.7606
44.8875 12.5631
45.0806 12.3846
45.2739 12.189
45.4673 12.068
45.6609 11.8249
45.8546 11.7223
46.0484 11.5771
46.2424 11.4065
46.4365 11.2321
46.631 11.0309
46.8254 10.871
47.0199 10.6969
47.2146 10.5485
47.4095 10.409
47.6044 10.2733
47.7996 10.0936
47.9948 9.93995
48.1902 9.81582
48.3858 9.65064
48.5815 9.55278
48.7774 9.40911
48.9734 9.2519
49.1696 9.09661
49.3661 8.98106
49.5626 8.82727
49.7592 8.69698
49.956 8.60022
50.153 8.44183
50.3501 8.31355
50.5474 8.19105
50.7448 8.05897
50.9424 7.95149
51.1402 7.82766
51.3381 7.65598
51.5362 7.58159
51.7344 7.42604
51.9328 7.29658
52.1316 7.20431
52.3304 7.12515
52.5293 6.98361
52.7284 6.86278
52.9276 6.71907
53.1271 6.66323
53.3267 6.51894
53.5265 6.3926
53.7264 6.28717
53.9266 6.19046
54.1269 6.04986
54.3274 5.92487
54.528 5.75846
54.7289 5.57965
54.9301 5.41031
55.1314 5.30089
55.3328 5.06785
55.5344 4.9131
55.7361 4.70977