File: XRD/Ni3Fe_FD0538.xy
TT I
1.27165 7.47434
1.45013 6.00356
1.62863 5.16687
1.80712 4.92725
1.98562 4.92802
2.16411 5.40555
2.34263 5.3636
2.52115 6.81524
2.69965 8.11716
2.87818 8.24445
3.05672 11.3893
3.23527 15.0925
3.4138 19.2757
3.59237 24.9606
3.77094 26.8866
3.9495 30.4214
4.12809 35.7144
4.30669 289.813
4.4853 73.9607
4.6639 55.8702
4.84253 67.4363
5.02118 87.0156
5.19981 371.76
5.37848 208.15
5.55716 103.231
5.73586 92.524
5.91455 94.9446
6.09328 4057.16
6.27201 86.0157
6.45075 68.3043
6.62952 64.3515
6.8083 59.9236
6.98711 56.835
7.16591 56.5064
7.34475 106.636
7.5236 55.954
7.70247 57.0929
7.88135 58.6286
8.06026 63.3027
8.23919 70.3021
8.41812 86.7731
8.59709 1089.37
8.77609 102.552
8.9551 95.0954
9.13412 82.7629
9.31318 82.8847
9.49226 85.065
9.67134 103.142
9.85047 100.978
10.0296 331.443
10.2088 468.262
10.388 106.944
10.5672 497.104
10.7465 87.617
10.9257 79.997
11.105 72.8343
11.2844 72.4801
11.4637 65.6771
11.6431 64.6923
11.8225 63.2988
12.002 64.234
12.1814 147.011
12.3609 73.9597
12.5405 65.4447
12.72 72.0926
12.8996 71.6893
13.0792 79.3557
13.2589 224.172
13.4386 132.496
13.6183 231.4
13.7981 103.685
13.9779 76.5829
14.1577 73.6157
14.3376 73.3284
14.5175 69.4148
14.6974 71.3531
14.8774 107.98
15.0574 161.827
15.2374 73.1757
15.4175 67.1613
15.5976 66.6333
15.7778 93.5284
15.958 166.054
16.1382 64.5394
16.3185 59.8122
16.4988 56.2704
16.6792 55.2723
16.8596 56.0174
17.04 56.6131
17.2205 66.1431
17.401 73.9079
17.5815 59.9606
17.7622 61.8567
17.9428 73.6961
18.1237 137.951
18.3044 89.5693
18.4852 81.4004
18.666 61.2039
18.8469 58.6655
19.0278 57.6466
19.2088 60.1586
19.3898 77.053
19.5709 54.9614
19.752 53.9305
19.9332 56.8017
20.1144 70.3199
20.2957 63.6483
20.477 55.0245
20.6586 50.289
20.84 49.5281
21.0215 49.1832
21.203 51.1545
21.3846 49.7739
21.5662 49.3771
21.7479 52.7803
21.9297 64.9556
22.1115 56.2845
22.2933 50.4943
22.4753 49.6929
22.6572 49.3309
22.8393 52.1079
23.0214 58.5253
23.2037 49.5378
23.3859 50.138
23.5682 56.8657
23.7505 49.1996
23.9329 45.8531
24.1154 44.6754
24.2979 43.9494
24.4805 43.4727
24.6631 43.4337
24.8458 42.738
25.0286 43.2567
25.2114 45.0712
25.3943 45.3106
25.5773 41.4678
25.7605 41.0988
25.9436 41.2515
26.1268 42.2039
26.31 40.6357
26.4933 41.233
26.6767 42.5904
26.8601 40.9337
27.0437 39.2905
27.2272 39.0244
27.4109 38.8986
27.5946 38.8213
27.7784 38.2356
27.9623 38.6653
28.1462 39.3274
28.3304 37.8086
28.5145 36.3857
28.6987 36.1385
28.8829 35.7934
29.0673 35.075
29.2517 34.7552
29.4361 34.5825
29.6207 33.5227
29.8053 33.3008
29.99 32.8998
30.1748 32.8528
30.3597 32.7019
30.5447 32.5074
30.7297 32.6374
30.915 32.0272
31.1002 31.4235
31.2855 31.253
31.4708 31.2202
31.6563 30.7946
31.8418 30.4458
32.0275 30.2548
32.2132 29.7763
32.399 29.2441
32.5848 28.9541
32.7708 28.508
32.9569 28.3393
33.143 28.1467
33.3293 27.7166
33.5158 27.4693
33.7022 26.8286
33.8887 26.6359
34.0753 26.3681
34.262 26.0106
34.4488 25.6374
34.6357 25.3118
34.8227 24.9644
35.0098 24.809
35.1969 24.4651
35.3842 24.3318
35.5716 24.1074
35.759 23.7926
35.9468 23.3913
36.1345 23.2087
36.3222 22.9491
36.5101 22.6558
36.6981 22.398
36.8861 22.0713
37.0743 21.701
37.2626 21.5166
37.451 21.221
37.6395 21.0752
37.8281 20.7364
38.0168 20.4544
38.2056 20.2693
38.3945 20.0188
38.5837 19.7024
38.7728 19.4264
38.9621 19.1626
39.1514 18.97
39.3409 18.7394
39.5304 18.5573
39.7201 18.2822
39.9099 18.0405
40.0999 17.7962
40.2899 17.6163
40.48 17.3282
40.6703 17.2186
40.8607 16.9256
41.0512 16.7321
41.242 16.4855
41.4327 16.3257
41.6236 16.0826
41.8146 15.8471
42.0057 15.6355
42.1969 15.3904
42.3882 15.2629
42.5797 14.9979
42.7713 14.81
42.963 14.6095
43.1549 14.4208
43.3468 14.1697
43.5389 14.0045
43.7312 13.8228
43.9237 13.6505
44.1162 13.4304
44.3088 13.2649
44.5016 13.0873
44.6945 12.883
44.8875 12.6816
45.0806 12.5409
45.2739 12.3486
45.4673 12.1848
45.6609 12.03
45.8546 11.8098
46.0484 11.6966
46.2424 11.5033
46.4365 11.3626
46.631 11.1583
46.8254 10.9906
47.0199 10.8282
47.2146 10.6967
47.4095 10.4971
47.6044 10.3656
47.7996 10.2365
47.9948 10.074
48.1902 9.94648
48.3858 9.8164
48.5815 9.66573
48.7774 9.50847
48.9734 9.35794
49.1696 9.21962
49.3661 9.07934
49.5626 8.91569
49.7592 8.83218
49.956 8.70229
50.153 8.54154
50.3501 8.45369
50.5474 8.28732
50.7448 8.15908
50.9424 8.02746
51.1402 7.94822
51.3381 7.76575
51.5362 7.67374
51.7344 7.50721
51.9328 7.39852
52.1316 7.29775
52.3304 7.16983
52.5293 7.04545
52.7284 6.95637
52.9276 6.80786
53.1271 6.71083
53.3267 6.59221
53.5265 6.47402
53.7264 6.34441
53.9266 6.21634
54.1269 6.19699
54.3274 6.02782
54.528 5.89726
54.7289 5.72079
54.9301 5.54915
55.1314 5.46726
55.3328 5.21586
55.5344 4.99966
55.7361 4.8614