File: XRD/Ni3Fe_FD0478.xy
TT I
1.27165 7.7898
1.45013 5.72349
1.62863 5.44351
1.80712 4.89515
1.98562 4.67581
2.16411 4.67212
2.34263 4.88436
2.52115 6.2177
2.69965 7.55174
2.87818 8.232
3.05672 10.872
3.23527 14.6336
3.4138 18.9733
3.59237 23.2519
3.77094 25.7832
3.9495 30.0817
4.12809 35.0189
4.30669 112.604
4.4853 55.4281
4.6639 56.2682
4.84253 69.2466
5.02118 90.2488
5.19981 537.554
5.37848 207.269
5.55716 104.668
5.73586 95.2849
5.91455 98.6712
6.09328 4239.06
6.27201 83.3558
6.45075 69.5206
6.62952 63.1562
6.8083 59.658
6.98711 56.2936
7.16591 55.9593
7.34475 70.2028
7.5236 54.9731
7.70247 57.19
7.88135 58.5749
8.06026 63.7058
8.23919 70.5736
8.41812 86.3426
8.59709 1243.2
8.77609 101.067
8.9551 90.4173
9.13412 83.5985
9.31318 85.5344
9.49226 86.2069
9.67134 96.138
9.85047 102.939
10.0296 412.856
10.2088 401.283
10.388 108.903
10.5672 500.276
10.7465 88.1228
10.9257 78.6811
11.105 72.383
11.2844 69.8772
11.4637 65.6767
11.6431 64.2182
11.8225 63.3627
12.002 65.7306
12.1814 155.915
12.3609 68.8201
12.5405 65.5408
12.72 69.1875
12.8996 72.5336
13.0792 82.373
13.2589 252.553
13.4386 125.202
13.6183 255.612
13.7981 97.6031
13.9779 76.7786
14.1577 73.1285
14.3376 71.4625
14.5175 69.8472
14.6974 71.9695
14.8774 118.66
15.0574 148.612
15.2374 70.7861
15.4175 67.4747
15.5976 67.1492
15.7778 101.588
15.958 154.638
16.1382 62.5297
16.3185 58.927
16.4988 56.1718
16.6792 55.2592
16.8596 55.8859
17.04 57.2296
17.2205 68.7816
17.401 71.7489
17.5815 60.3105
17.7622 62.6556
17.9428 77.2682
18.1237 140.244
18.3044 92.2982
18.4852 78.1837
18.666 61.2622
18.8469 58.9077
19.0278 57.8201
19.2088 60.7233
19.3898 76.6433
19.5709 55.0449
19.752 54.1485
19.9332 57.7436
20.1144 70.6129
20.2957 64.494
20.477 53.984
20.6586 50.3676
20.84 49.6436
21.0215 49.4053
21.203 51.6117
21.3846 49.773
21.5662 50.0472
21.7479 54.0616
21.9297 65.4824
22.1115 56.4911
22.2933 50.582
22.4753 49.4506
22.6572 49.975
22.8393 53.1443
23.0214 58.0939
23.2037 49.6435
23.3859 50.9118
23.5682 57.3522
23.7505 48.9054
23.9329 45.8318
24.1154 44.7544
24.2979 44.0853
24.4805 43.6787
24.6631 43.5219
24.8458 42.8834
25.0286 43.6389
25.2114 45.4842
25.3943 45.2524
25.5773 41.5602
25.7605 41.1317
25.9436 41.5189
26.1268 42.3394
26.31 40.708
26.4933 41.5367
26.6767 42.7133
26.8601 41.0493
27.0437 39.5183
27.2272 39.1946
27.4109 38.9696
27.5946 39.0246
27.7784 38.5556
27.9623 39.0246
28.1462 39.4384
28.3304 37.6078
28.5145 36.4307
28.6987 36.0901
28.8829 35.9788
29.0673 35.1784
29.2517 34.9044
29.4361 34.6133
29.6207 33.6492
29.8053 33.2213
29.99 33.0615
30.1748 32.949
30.3597 32.7826
30.5447 32.628
30.7297 32.671
30.915 32.0175
31.1002 31.6212
31.2855 31.3237
31.4708 31.2436
31.6563 30.8564
31.8418 30.6447
32.0275 30.3564
32.2132 29.7987
32.399 29.293
32.5848 28.7888
32.7708 28.5968
32.9569 28.4485
33.143 28.2236
33.3293 27.8511
33.5158 27.4781
33.7022 26.9656
33.8887 26.7651
34.0753 26.3784
34.262 26.0387
34.4488 25.6593
34.6357 25.3161
34.8227 25.0492
35.0098 24.8564
35.1969 24.5811
35.3842 24.3618
35.5716 24.1078
35.759 23.9192
35.9468 23.3858
36.1345 23.2172
36.3222 23.0092
36.5101 22.7768
36.6981 22.4142
36.8861 22.1313
37.0743 21.7572
37.2626 21.5614
37.451 21.286
37.6395 21.1255
37.8281 20.7659
38.0168 20.4281
38.2056 20.2084
38.3945 19.9716
38.5837 19.7749
38.7728 19.4974
38.9621 19.2071
39.1514 19.0147
39.3409 18.6814
39.5304 18.498
39.7201 18.4099
39.9099 18.0717
40.0999 17.8376
40.2899 17.5571
40.48 17.3942
40.6703 17.1441
40.8607 16.9502
41.0512 16.783
41.242 16.4998
41.4327 16.2979
41.6236 16.081
41.8146 15.8551
42.0057 15.5918
42.1969 15.4625
42.3882 15.2099
42.5797 15.0279
42.7713 14.8305
42.963 14.6102
43.1549 14.4557
43.3468 14.1613
43.5389 14.0336
43.7312 13.8341
43.9237 13.6509
44.1162 13.5049
44.3088 13.2677
44.5016 13.0635
44.6945 12.888
44.8875 12.7023
45.0806 12.5273
45.2739 12.3351
45.4673 12.1853
45.6609 12.0218
45.8546 11.8416
46.0484 11.7188
46.2424 11.5336
46.4365 11.344
46.631 11.1986
46.8254 11.0101
47.0199 10.8402
47.2146 10.7031
47.4095 10.5298
47.6044 10.325
47.7996 10.2703
47.9948 10.0665
48.1902 9.94392
48.3858 9.79585
48.5815 9.65433
48.7774 9.54596
48.9734 9.3478
49.1696 9.2456
49.3661 9.09113
49.5626 8.93281
49.7592 8.79822
49.956 8.70204
50.153 8.52694
50.3501 8.4027
50.5474 8.28606
50.7448 8.17617
50.9424 8.05078
51.1402 7.90508
51.3381 7.77647
51.5362 7.64155
51.7344 7.51304
51.9328 7.4349
52.1316 7.25985
52.3304 7.21048
52.5293 7.03303
52.7284 6.96933
52.9276 6.79421
53.1271 6.67808
53.3267 6.60091
53.5265 6.45486
53.7264 6.36545
53.9266 6.23052
54.1269 6.10725
54.3274 6.01943
54.528 5.8623
54.7289 5.69776
54.9301 5.57197
55.1314 5.41985
55.3328 5.22411
55.5344 5.02491
55.7361 4.8752