File: XRD/Ni3Fe_FD0488.xy
TT I
1.27165 7.46357
1.45013 6.31231
1.62863 5.27275
1.80712 4.90487
1.98562 4.42879
2.16411 4.6227
2.34263 4.83834
2.52115 6.69743
2.69965 7.74409
2.87818 8.18315
3.05672 11.0175
3.23527 14.7515
3.4138 19.2106
3.59237 23.645
3.77094 26.6249
3.9495 30.2538
4.12809 34.9242
4.30669 150.544
4.4853 59.3465
4.6639 56.2785
4.84253 68.8149
5.02118 89.4788
5.19981 456.37
5.37848 207.635
5.55716 104.777
5.73586 94.6558
5.91455 98.0515
6.09328 4205.18
6.27201 84.5835
6.45075 68.6944
6.62952 63.5334
6.8083 59.163
6.98711 56.0587
7.16591 55.9918
7.34475 78.4403
7.5236 55.4208
7.70247 57.1121
7.88135 58.3545
8.06026 63.2558
8.23919 70.3433
8.41812 86.4179
8.59709 1217.22
8.77609 102.427
8.9551 91.3652
9.13412 83.4295
9.31318 84.3494
9.49226 86.0557
9.67134 97.0768
9.85047 102.071
10.0296 391.247
10.2088 458.25
10.388 107.005
10.5672 490.23
10.7465 88.4066
10.9257 79.0834
11.105 73.2097
11.2844 70.3994
11.4637 65.7317
11.6431 64.5218
11.8225 63.3807
12.002 64.9423
12.1814 154.295
12.3609 70.4204
12.5405 65.5354
12.72 69.9138
12.8996 72.1631
13.0792 81.0219
13.2589 248.085
13.4386 132.415
13.6183 250.725
13.7981 103.164
13.9779 76.8146
14.1577 73.2887
14.3376 71.9065
14.5175 69.968
14.6974 71.6888
14.8774 116.714
15.0574 157.053
15.2374 71.2112
15.4175 67.5117
15.5976 66.8432
15.7778 99.8644
15.958 158.282
16.1382 62.9774
16.3185 59.0664
16.4988 56.2376
16.6792 55.2488
16.8596 55.9506
17.04 56.846
17.2205 68.2194
17.401 72.7879
17.5815 60.0347
17.7622 62.1715
17.9428 76.1334
18.1237 136.119
18.3044 92.27
18.4852 80.4804
18.666 61.3788
18.8469 58.9269
19.0278 57.7745
19.2088 60.6783
19.3898 75.6472
19.5709 55.0548
19.752 54.2607
19.9332 57.5106
20.1144 70.0215
20.2957 63.9626
20.477 54.6202
20.6586 50.3459
20.84 49.7054
21.0215 49.429
21.203 51.5555
21.3846 49.8764
21.5662 49.6126
21.7479 53.8694
21.9297 64.826
22.1115 56.2981
22.2933 50.7646
22.4753 49.643
22.6572 49.7861
22.8393 52.7184
23.0214 57.9069
23.2037 49.6335
23.3859 50.7247
23.5682 56.8278
23.7505 49.4899
23.9329 45.9049
24.1154 44.7606
24.2979 44.0318
24.4805 43.6229
24.6631 43.4763
24.8458 42.8489
25.0286 43.6376
25.2114 45.4637
25.3943 45.0132
25.5773 41.4651
25.7605 41.0842
25.9436 41.5652
26.1268 42.2099
26.31 40.8017
26.4933 41.5292
26.6767 42.6684
26.8601 41.1932
27.0437 39.5252
27.2272 39.1961
27.4109 39.0357
27.5946 38.9092
27.7784 38.5466
27.9623 38.8871
28.1462 39.4342
28.3304 37.8423
28.5145 36.4807
28.6987 36.2173
28.8829 35.823
29.0673 35.2561
29.2517 34.8293
29.4361 34.6251
29.6207 33.7042
29.8053 33.3809
29.99 33.0805
30.1748 32.9881
30.3597 32.7534
30.5447 32.6407
30.7297 32.6355
30.915 32.0194
31.1002 31.6092
31.2855 31.409
31.4708 31.2419
31.6563 30.7723
31.8418 30.6419
32.0275 30.3203
32.2132 29.8684
32.399 29.3835
32.5848 28.9374
32.7708 28.5602
32.9569 28.3839
33.143 28.25
33.3293 27.8055
33.5158 27.4775
33.7022 26.993
33.8887 26.7466
34.0753 26.357
34.262 26.0141
34.4488 25.6718
34.6357 25.3181
34.8227 25.0331
35.0098 24.8508
35.1969 24.535
35.3842 24.3758
35.5716 24.1458
35.759 23.7388
35.9468 23.4632
36.1345 23.2858
36.3222 23.0328
36.5101 22.7873
36.6981 22.4613
36.8861 22.0969
37.0743 21.8419
37.2626 21.5954
37.451 21.3817
37.6395 21.1247
37.8281 20.8029
38.0168 20.5772
38.2056 20.2379
38.3945 20.0049
38.5837 19.7026
38.7728 19.5629
38.9621 19.2602
39.1514 18.9381
39.3409 18.7503
39.5304 18.5449
39.7201 18.3302
39.9099 18.1048
40.0999 17.8322
40.2899 17.6824
40.48 17.366
40.6703 17.1255
40.8607 16.982
41.0512 16.7469
41.242 16.4965
41.4327 16.2511
41.6236 16.0573
41.8146 15.8602
42.0057 15.6737
42.1969 15.4426
42.3882 15.2643
42.5797 15.0087
42.7713 14.8234
42.963 14.6114
43.1549 14.4331
43.3468 14.2319
43.5389 14.0363
43.7312 13.7971
43.9237 13.6456
44.1162 13.4178
44.3088 13.2335
44.5016 13.0777
44.6945 12.9179
44.8875 12.7426
45.0806 12.5616
45.2739 12.4022
45.4673 12.1995
45.6609 12.0227
45.8546 11.8565
46.0484 11.71
46.2424 11.5225
46.4365 11.3867
46.631 11.1581
46.8254 11.0055
47.0199 10.8661
47.2146 10.7185
47.4095 10.5576
47.6044 10.3983
47.7996 10.2133
47.9948 10.0633
48.1902 9.93907
48.3858 9.77225
48.5815 9.62715
48.7774 9.53617
48.9734 9.33815
49.1696 9.21491
49.3661 9.12427
49.5626 8.9188
49.7592 8.82489
49.956 8.69608
50.153 8.56648
50.3501 8.43925
50.5474 8.29888
50.7448 8.16553
50.9424 8.04764
51.1402 7.9427
51.3381 7.78983
51.5362 7.65656
51.7344 7.53731
51.9328 7.40626
52.1316 7.27659
52.3304 7.16929
52.5293 7.05399
52.7284 6.96605
52.9276 6.80133
53.1271 6.74059
53.3267 6.61747
53.5265 6.46398
53.7264 6.41125
53.9266 6.27881
54.1269 6.14136
54.3274 6.0129
54.528 5.91336
54.7289 5.72577
54.9301 5.56181
55.1314 5.44849
55.3328 5.22969
55.5344 5.02936
55.7361 4.86938