File: XRD/Ni3Fe_FD0009.xy
TT I
1.27165 36.9727
1.45013 33.1579
1.62863 28.8931
1.80712 26.6922
1.98562 26.1413
2.16411 25.6499
2.34263 25.9877
2.52115 26.5428
2.69965 30.4725
2.87818 40.3825
3.05672 66.2356
3.23527 80.6962
3.4138 45.7293
3.59237 40.2889
3.77094 42.2246
3.9495 43.9737
4.12809 54.5639
4.30669 77.7833
4.4853 69.1117
4.6639 55.6599
4.84253 60.7183
5.02118 91.7041
5.19981 252.672
5.37848 4094.1
5.55716 164.174
5.73586 99.8951
5.91455 107.233
6.09328 403.126
6.27201 370.279
6.45075 74.1042
6.62952 54.9609
6.8083 52.3284
6.98711 48.2178
7.16591 51.5512
7.34475 69.86
7.5236 64.5042
7.70247 52.8827
7.88135 39.8202
8.06026 40.1788
8.23919 44.151
8.41812 54.9191
8.59709 140.928
8.77609 764.236
8.9551 81.6252
9.13412 58.8964
9.31318 238.225
9.49226 51.7294
9.67134 49.5728
9.85047 55.624
10.0296 86.9433
10.2088 370.93
10.388 157.562
10.5672 88.3466
10.7465 300.935
10.9257 49.1302
11.105 41.6703
11.2844 40.1612
11.4637 38.6302
11.6431 37.6113
11.8225 36.9987
12.002 63.6562
12.1814 45.931
12.3609 85.4999
12.5405 46.3994
12.72 39.3173
12.8996 39.1785
13.0792 41.0485
13.2589 61.8822
13.4386 118.058
13.6183 104.41
13.7981 126.52
13.9779 71.9644
14.1577 44.7183
14.3376 54.1842
14.5175 36.3438
14.6974 35.8224
14.8774 40.447
15.0574 54.602
15.2374 117.002
15.4175 41.1684
15.5976 37.1355
15.7778 38.9492
15.958 50.0507
16.1382 135.987
16.3185 41.4472
16.4988 32.6713
16.6792 31.0281
16.8596 30.6766
17.04 38.1308
17.2205 32.2762
17.401 34.3307
17.5815 52.2255
17.7622 34.0519
17.9428 41.4215
18.1237 41.8801
18.3044 76.6782
18.4852 61.4738
18.666 76.7237
18.8469 36.1752
19.0278 32.3377
19.2088 32.108
19.3898 36.9238
19.5709 45.4934
19.752 38.6036
19.9332 30.9518
20.1144 31.4864
20.2957 39.1015
20.477 40.8745
20.6586 43.942
20.84 30.8328
21.0215 30.0696
21.203 27.691
21.3846 27.8585
21.5662 32.7502
21.7479 28.7144
21.9297 30.2268
22.1115 37.7145
22.2933 48.1955
22.4753 38.4988
22.6572 29.625
22.8393 29.3371
23.0214 31.2151
23.2037 35.9795
23.3859 37.2487
23.5682 34.531
23.7505 32.9367
23.9329 47.4648
24.1154 29.6793
24.2979 27.0674
24.4805 25.6522
24.6631 25.5679
24.8458 27.6344
25.0286 25.6367
25.2114 25.4705
25.3943 27.8317
25.5773 30.6971
25.7605 31.7084
25.9436 26.4193
26.1268 25.2428
26.31 25.7031
26.4933 29.0781
26.6767 25.6128
26.8601 26.6032
27.0437 32.4402
27.2272 28.4643
27.4109 24.3618
27.5946 23.9994
27.7784 24.4088
27.9623 25.6194
28.1462 25.2908
28.3304 26.5394
28.5145 29.1974
28.6987 26.3841
28.8829 22.9279
29.0673 22.121
29.2517 23.0185
29.4361 22.1137
29.6207 21.6021
29.8053 23.0212
29.99 21.2417
30.1748 21.0267
30.3597 21.0132
30.5447 21.0778
30.7297 21.2553
30.915 20.9451
31.1002 23.2145
31.2855 22.8321
31.4708 20.5338
31.6563 20.4278
31.8418 21.4019
32.0275 21.2222
32.2132 20.5137
32.399 21.4803
32.5848 20.2004
32.7708 18.9344
32.9569 18.6142
33.143 18.8851
33.3293 18.3674
33.5158 18.696
33.7022 19.4343
33.8887 18.3402
34.0753 17.8053
34.262 17.5301
34.4488 17.4373
34.6357 16.9592
34.8227 17.1302
35.0098 16.6035
35.1969 16.2018
35.3842 16.24
35.5716 16.2255
35.759 16.527
35.9468 17.1833
36.1345 16.4793
36.3222 15.7693
36.5101 15.7154
36.6981 15.7431
36.8861 15.1948
37.0743 15.5
37.2626 15.006
37.451 14.5999
37.6395 14.4263
37.8281 14.2405
38.0168 14.0564
38.2056 14.1196
38.3945 13.6912
38.5837 13.5133
38.7728 13.5341
38.9621 13.3343
39.1514 13.3124
39.3409 13.013
39.5304 12.7121
39.7201 12.6171
39.9099 12.5025
40.0999 12.3256
40.2899 12.392
40.48 12.2185
40.6703 12.0466
40.8607 11.9134
41.0512 11.7294
41.242 11.7766
41.4327 11.5677
41.6236 11.3038
41.8146 11.1692
42.0057 11.0094
42.1969 11.0007
42.3882 10.9238
42.5797 10.6203
42.7713 10.43
42.963 10.3004
43.1549 10.125
43.3468 9.99941
43.5389 9.85092
43.7312 9.72009
43.9237 9.62775
44.1162 9.53368
44.3088 9.45567
44.5016 9.26165
44.6945 9.16913
44.8875 9.08929
45.0806 8.94979
45.2739 8.82849
45.4673 8.70075
45.6609 8.56937
45.8546 8.47093
46.0484 8.4093
46.2424 8.26042
46.4365 8.15065
46.631 8.02047
46.8254 7.90384
47.0199 7.79916
47.2146 7.69893
47.4095 7.55935
47.6044 7.44199
47.7996 7.32299
47.9948 7.25175
48.1902 7.13434
48.3858 7.04722
48.5815 6.93343
48.7774 6.80952
48.9734 6.74758
49.1696 6.63286
49.3661 6.54063
49.5626 6.42483
49.7592 6.3967
49.956 6.30489
50.153 6.21017
50.3501 6.10459
50.5474 6.02135
50.7448 5.94288
50.9424 5.84654
51.1402 5.78416
51.3381 5.64496
51.5362 5.55749
51.7344 5.51242
51.9328 5.42578
52.1316 5.31358
52.3304 5.22026
52.5293 5.15419
52.7284 5.06818
52.9276 5.02604
53.1271 4.94163
53.3267 4.83621
53.5265 4.70606
53.7264 4.68291
53.9266 4.58724
54.1269 4.49602
54.3274 4.37937
54.528 4.25602
54.7289 4.14704
54.9301 4.02396
55.1314 3.92165
55.3328 3.73658
55.5344 3.59819
55.7361 3.55322