File: XRD/Ni3Fe_FD0692.xy
TT I
1.27165 7.44926
1.45013 6.11374
1.62863 5.38988
1.80712 4.33608
1.98562 5.22623
2.16411 4.63745
2.34263 5.53746
2.52115 6.71857
2.69965 8.11402
2.87818 8.86196
3.05672 11.0096
3.23527 14.8146
3.4138 19.1137
3.59237 23.3285
3.77094 25.7194
3.9495 29.8542
4.12809 33.9103
4.30669 122.629
4.4853 55.9505
4.6639 55.8058
4.84253 67.8979
5.02118 87.3163
5.19981 425.072
5.37848 192.842
5.55716 102.16
5.73586 92.6789
5.91455 95.7186
6.09328 4576.16
6.27201 80.886
6.45075 68.2738
6.62952 62.5789
6.8083 58.5629
6.98711 55.5247
7.16591 55.335
7.34475 71.6938
7.5236 54.2596
7.70247 56.478
7.88135 57.7763
8.06026 62.3507
8.23919 69.6595
8.41812 84.396
8.59709 1237.1
8.77609 98.5954
8.9551 89.5335
9.13412 82.619
9.31318 83.7274
9.49226 84.5971
9.67134 95.4295
9.85047 100.946
10.0296 365.274
10.2088 360.639
10.388 105.41
10.5672 514.741
10.7465 85.9899
10.9257 77.4694
11.105 71.4812
11.2844 68.8103
11.4637 64.5163
11.6431 63.0351
11.8225 62.7348
12.002 64.2231
12.1814 155.47
12.3609 67.3196
12.5405 64.7433
12.72 68.3008
12.8996 71.2469
13.0792 80.0485
13.2589 247.705
13.4386 120.024
13.6183 257.145
13.7981 93.7841
13.9779 75.8125
14.1577 71.7702
14.3376 70.4859
14.5175 68.8456
14.6974 70.6005
14.8774 113.69
15.0574 140.306
15.2374 69.5708
15.4175 66.356
15.5976 65.9867
15.7778 96.9487
15.958 150.134
16.1382 61.4005
16.3185 57.9665
16.4988 55.2951
16.6792 54.3743
16.8596 54.8688
17.04 56.1834
17.2205 67.475
17.401 70.0763
17.5815 59.1441
17.7622 61.3101
17.9428 74.3613
18.1237 142.154
18.3044 91.1474
18.4852 75.4432
18.666 60.1876
18.8469 58.0768
19.0278 56.7582
19.2088 59.3114
19.3898 76.1756
19.5709 53.9607
19.752 53.0999
19.9332 56.2985
20.1144 69.7086
20.2957 63.9763
20.477 52.9302
20.6586 49.3798
20.84 48.6384
21.0215 48.6477
21.203 50.8873
21.3846 48.8094
21.5662 48.8776
21.7479 52.8375
21.9297 64.6933
22.1115 55.842
22.2933 49.527
22.4753 48.7373
22.6572 49.0336
22.8393 52.1842
23.0214 57.1739
23.2037 48.6986
23.3859 49.9026
23.5682 57.3732
23.7505 47.8269
23.9329 45.1473
24.1154 43.9343
24.2979 43.3449
24.4805 42.8404
24.6631 42.6094
24.8458 42.2269
25.0286 42.9896
25.2114 44.7221
25.3943 44.4744
25.5773 40.7804
25.7605 40.2559
25.9436 40.6983
26.1268 41.6104
26.31 40.0282
26.4933 40.8595
26.6767 42.1861
26.8601 40.2935
27.0437 38.6859
27.2272 38.5742
27.4109 38.3778
27.5946 38.4296
27.7784 37.7764
27.9623 38.4152
28.1462 38.7571
28.3304 37.0084
28.5145 35.7406
28.6987 35.615
28.8829 35.3288
29.0673 34.613
29.2517 34.2766
29.4361 34.1176
29.6207 32.9961
29.8053 32.7226
29.99 32.5152
30.1748 32.5011
30.3597 32.2199
30.5447 32.115
30.7297 32.1339
30.915 31.508
31.1002 31.1012
31.2855 30.8604
31.4708 30.7655
31.6563 30.1774
31.8418 30.0263
32.0275 29.9731
32.2132 29.2729
32.399 28.8305
32.5848 28.3457
32.7708 28.1305
32.9569 27.8807
33.143 27.7378
33.3293 27.3583
33.5158 26.9317
33.7022 26.4849
33.8887 26.1975
34.0753 25.9097
34.262 25.6787
34.4488 25.2154
34.6357 24.8924
34.8227 24.6553
35.0098 24.5509
35.1969 24.1512
35.3842 23.9111
35.5716 23.7017
35.759 23.456
35.9468 23.0931
36.1345 22.8821
36.3222 22.6558
36.5101 22.4323
36.6981 22.0935
36.8861 21.8261
37.0743 21.5052
37.2626 21.2513
37.451 20.9943
37.6395 20.806
37.8281 20.4031
38.0168 20.1852
38.2056 19.9534
38.3945 19.6153
38.5837 19.393
38.7728 19.1199
38.9621 18.9274
39.1514 18.667
39.3409 18.4344
39.5304 18.1992
39.7201 17.9963
39.9099 17.8203
40.0999 17.529
40.2899 17.2929
40.48 17.0349
40.6703 16.9216
40.8607 16.673
41.0512 16.4935
41.242 16.2427
41.4327 16.0297
41.6236 15.7748
41.8146 15.62
42.0057 15.4058
42.1969 15.1275
42.3882 14.9728
42.5797 14.7413
42.7713 14.6712
42.963 14.371
43.1549 14.1584
43.3468 14.0375
43.5389 13.7951
43.7312 13.5972
43.9237 13.4492
44.1162 13.2235
44.3088 13.0425
44.5016 12.8778
44.6945 12.6896
44.8875 12.4999
45.0806 12.3249
45.2739 12.1671
45.4673 11.9836
45.6609 11.7974
45.8546 11.6766
46.0484 11.5239
46.2424 11.3435
46.4365 11.1762
46.631 10.9807
46.8254 10.8343
47.0199 10.6858
47.2146 10.5356
47.4095 10.3694
47.6044 10.216
47.7996 10.0951
47.9948 9.93135
48.1902 9.76769
48.3858 9.65242
48.5815 9.52106
48.7774 9.41164
48.9734 9.22647
49.1696 9.07333
49.3661 8.93883
49.5626 8.77185
49.7592 8.64494
49.956 8.56586
50.153 8.41211
50.3501 8.295
50.5474 8.17226
50.7448 8.05739
50.9424 7.91649
51.1402 7.78694
51.3381 7.65448
51.5362 7.53377
51.7344 7.42523
51.9328 7.28172
52.1316 7.18336
52.3304 7.06246
52.5293 6.93394
52.7284 6.83857
52.9276 6.70427
53.1271 6.62545
53.3267 6.49976
53.5265 6.343
53.7264 6.28279
53.9266 6.16604
54.1269 6.06348
54.3274 5.95339
54.528 5.78033
54.7289 5.62495
54.9301 5.46749
55.1314 5.34897
55.3328 5.12017
55.5344 4.93449
55.7361 4.8014