File: XRD/Ni3Fe_FD0325.xy
TT I
1.27165 7.66518
1.45013 6.6175
1.62863 5.19573
1.80712 4.48932
1.98562 4.12251
2.16411 4.82442
2.34263 5.19786
2.52115 6.25384
2.69965 6.55749
2.87818 8.75639
3.05672 11.141
3.23527 14.9658
3.4138 19.2414
3.59237 24.1188
3.77094 26.0734
3.9495 30.2159
4.12809 35.6597
4.30669 192.508
4.4853 64.0719
4.6639 56.4408
4.84253 69.7505
5.02118 91.7687
5.19981 538.086
5.37848 231.609
5.55716 106.515
5.73586 96.4493
5.91455 101.28
6.09328 3980.42
6.27201 86.9158
6.45075 69.6576
6.62952 64.3195
6.8083 59.8899
6.98711 57.1331
7.16591 56.6235
7.34475 88.0525
7.5236 56.0274
7.70247 57.7769
7.88135 59.7271
8.06026 63.9744
8.23919 71.3555
8.41812 88.7354
8.59709 1141.75
8.77609 104.81
8.9551 93.5507
9.13412 84.4657
9.31318 85.6408
9.49226 87.0231
9.67134 100.27
9.85047 103.501
10.0296 412.091
10.2088 495.0
10.388 109.015
10.5672 477.662
10.7465 89.6637
10.9257 80.3774
11.105 73.6932
11.2844 71.8477
11.4637 66.667
11.6431 65.5679
11.8225 64.3262
12.002 65.9037
12.1814 149.195
12.3609 72.5748
12.5405 66.1781
12.72 71.5929
12.8996 73.3149
13.0792 82.1461
13.2589 238.733
13.4386 134.391
13.6183 237.089
13.7981 103.578
13.9779 77.9135
14.1577 74.3517
14.3376 73.3224
14.5175 71.0676
14.6974 72.6253
14.8774 116.262
15.0574 158.24
15.2374 72.8047
15.4175 68.3478
15.5976 68.2124
15.7778 100.65
15.958 167.284
16.1382 64.3953
16.3185 60.2394
16.4988 57.2116
16.6792 56.2297
16.8596 56.7912
17.04 57.6852
17.2205 68.9339
17.401 74.7116
17.5815 60.9325
17.7622 63.4251
17.9428 78.0094
18.1237 139.616
18.3044 91.0986
18.4852 81.345
18.666 62.3838
18.8469 59.9313
19.0278 58.5929
19.2088 62.0197
19.3898 77.4147
19.5709 55.9481
19.752 54.8643
19.9332 58.5053
20.1144 71.3578
20.2957 64.6142
20.477 55.7307
20.6586 51.1895
20.84 50.3708
21.0215 50.1485
21.203 52.1214
21.3846 50.6344
21.5662 50.5089
21.7479 54.5139
21.9297 66.4844
22.1115 57.1482
22.2933 51.5072
22.4753 50.2943
22.6572 50.6231
22.8393 53.5959
23.0214 59.148
23.2037 50.2373
23.3859 51.6838
23.5682 57.5978
23.7505 50.02
23.9329 46.557
24.1154 45.3537
24.2979 44.7803
24.4805 44.3082
24.6631 44.113
24.8458 43.6437
25.0286 44.3228
25.2114 45.9411
25.3943 46.0014
25.5773 42.25
25.7605 41.7758
25.9436 42.1732
26.1268 43.0637
26.31 41.4159
26.4933 42.0304
26.6767 43.3919
26.8601 41.7062
27.0437 40.0266
27.2272 39.6819
27.4109 39.5686
27.5946 39.6028
27.7784 39.1283
27.9623 39.377
28.1462 39.9861
28.3304 38.4851
28.5145 37.0027
28.6987 36.6831
28.8829 36.5034
29.0673 35.9289
29.2517 35.3207
29.4361 35.0563
29.6207 34.1689
29.8053 33.9357
29.99 33.5893
30.1748 33.3733
30.3597 33.2334
30.5447 33.1794
30.7297 33.152
30.915 32.5265
31.1002 32.0864
31.2855 31.8052
31.4708 31.75
31.6563 31.2848
31.8418 31.0293
32.0275 30.7522
32.2132 30.3177
32.399 29.8527
32.5848 29.3482
32.7708 29.0136
32.9569 28.8733
33.143 28.6351
33.3293 28.2556
33.5158 27.8543
33.7022 27.39
33.8887 27.1713
34.0753 26.8224
34.262 26.4282
34.4488 26.0764
34.6357 25.715
34.8227 25.4463
35.0098 25.2337
35.1969 25.0071
35.3842 24.6627
35.5716 24.459
35.759 24.1156
35.9468 23.8436
36.1345 23.5806
36.3222 23.3596
36.5101 23.1135
36.6981 22.817
36.8861 22.4837
37.0743 22.1158
37.2626 21.9358
37.451 21.6394
37.6395 21.4565
37.8281 21.1635
38.0168 20.8096
38.2056 20.566
38.3945 20.354
38.5837 20.0038
38.7728 19.8148
38.9621 19.5363
39.1514 19.2929
39.3409 19.0425
39.5304 18.8044
39.7201 18.5498
39.9099 18.3464
40.0999 18.1083
40.2899 17.8602
40.48 17.6795
40.6703 17.4087
40.8607 17.2492
41.0512 16.995
41.242 16.7541
41.4327 16.5141
41.6236 16.2951
41.8146 16.1027
42.0057 15.845
42.1969 15.6365
42.3882 15.4686
42.5797 15.2439
42.7713 15.0625
42.963 14.8116
43.1549 14.6988
43.3468 14.4394
43.5389 14.2575
43.7312 14.0798
43.9237 13.8337
44.1162 13.6252
44.3088 13.5204
44.5016 13.2737
44.6945 13.1002
44.8875 12.8736
45.0806 12.7061
45.2739 12.5527
45.4673 12.4132
45.6609 12.1996
45.8546 12.051
46.0484 11.854
46.2424 11.6978
46.4365 11.5439
46.631 11.357
46.8254 11.1807
47.0199 11.0211
47.2146 10.8984
47.4095 10.6871
47.6044 10.5323
47.7996 10.386
47.9948 10.2368
48.1902 10.0935
48.3858 9.934
48.5815 9.83158
48.7774 9.6893
48.9734 9.51748
49.1696 9.37509
49.3661 9.25553
49.5626 9.08884
49.7592 8.95351
49.956 8.83012
50.153 8.70643
50.3501 8.55147
50.5474 8.44865
50.7448 8.27824
50.9424 8.16242
51.1402 8.03971
51.3381 7.89603
51.5362 7.77789
51.7344 7.67504
51.9328 7.48905
52.1316 7.39854
52.3304 7.29144
52.5293 7.15466
52.7284 7.0241
52.9276 6.88716
53.1271 6.79134
53.3267 6.70128
53.5265 6.54192
53.7264 6.43855
53.9266 6.36654
54.1269 6.24902
54.3274 6.0799
54.528 5.96929
54.7289 5.84261
54.9301 5.62311
55.1314 5.51245
55.3328 5.29377
55.5344 5.13686
55.7361 4.99179