File: XRD/Ni3Fe_FD0596.xy
TT I
1.27165 7.90849
1.45013 6.1853
1.62863 5.63711
1.80712 4.69384
1.98562 4.32938
2.16411 4.44773
2.34263 5.48031
2.52115 6.47744
2.69965 7.26267
2.87818 8.72299
3.05672 11.0828
3.23527 14.9706
3.4138 18.5829
3.59237 23.2588
3.77094 25.8924
3.9495 29.5976
4.12809 34.0125
4.30669 105.463
4.4853 55.4614
4.6639 55.6259
4.84253 68.4246
5.02118 88.5641
5.19981 479.11
5.37848 203.392
5.55716 103.85
5.73586 94.2087
5.91455 97.2566
6.09328 4407.47
6.27201 81.6882
6.45075 69.4859
6.62952 62.9141
6.8083 59.446
6.98711 55.7935
7.16591 56.0113
7.34475 68.5966
7.5236 54.5538
7.70247 56.7004
7.88135 58.0031
8.06026 63.1033
8.23919 70.122
8.41812 85.0576
8.59709 1255.04
8.77609 99.9899
8.9551 89.9964
9.13412 83.3415
9.31318 85.3621
9.49226 85.4589
9.67134 95.6351
9.85047 101.918
10.0296 381.989
10.2088 363.749
10.388 107.173
10.5672 516.788
10.7465 87.1905
10.9257 78.2902
11.105 71.8144
11.2844 69.1342
11.4637 64.8693
11.6431 64.0325
11.8225 62.9627
12.002 65.0135
12.1814 157.448
12.3609 67.3738
12.5405 65.1647
12.72 68.5072
12.8996 71.948
13.0792 81.4656
13.2589 253.748
13.4386 122.077
13.6183 255.572
13.7981 96.5959
13.9779 76.3596
14.1577 72.5305
14.3376 70.7634
14.5175 69.4303
14.6974 71.253
14.8774 116.494
15.0574 143.084
15.2374 69.9345
15.4175 67.1509
15.5976 66.3944
15.7778 99.272
15.958 149.712
16.1382 61.8382
16.3185 58.326
16.4988 55.7144
16.6792 55.0761
16.8596 55.1654
17.04 56.671
17.2205 68.1768
17.401 71.0798
17.5815 59.7271
17.7622 61.96
17.9428 75.7459
18.1237 141.359
18.3044 92.0772
18.4852 76.7704
18.666 60.6077
18.8469 58.5343
19.0278 57.2363
19.2088 60.0727
19.3898 75.9008
19.5709 54.4863
19.752 53.6576
19.9332 57.0596
20.1144 70.2743
20.2957 64.2176
20.477 53.3345
20.6586 49.8359
20.84 49.1257
21.0215 48.8127
21.203 51.1951
21.3846 49.1495
21.5662 49.5774
21.7479 53.4694
21.9297 64.8924
22.1115 56.3288
22.2933 49.9975
22.4753 49.0667
22.6572 49.4495
22.8393 52.6577
23.0214 57.5231
23.2037 49.2108
23.3859 50.2481
23.5682 57.3521
23.7505 48.2509
23.9329 45.4063
24.1154 44.3109
24.2979 43.787
24.4805 43.1421
24.6631 42.9681
24.8458 42.5764
25.0286 43.3131
25.2114 44.9269
25.3943 44.773
25.5773 41.2049
25.7605 40.6906
25.9436 41.158
26.1268 41.8794
26.31 40.354
26.4933 41.0661
26.6767 42.4882
26.8601 40.7208
27.0437 39.1484
27.2272 38.7791
27.4109 38.5996
27.5946 38.6544
27.7784 38.1404
27.9623 38.8302
28.1462 39.0738
28.3304 37.3627
28.5145 36.1985
28.6987 35.8075
28.8829 35.535
29.0673 34.8169
29.2517 34.5092
29.4361 34.2953
29.6207 33.2402
29.8053 33.0683
29.99 32.8064
30.1748 32.6945
30.3597 32.5284
30.5447 32.4062
30.7297 32.3866
30.915 31.7839
31.1002 31.3304
31.2855 31.1425
31.4708 31.028
31.6563 30.5653
31.8418 30.3556
32.0275 30.0479
32.2132 29.5255
32.399 29.0187
32.5848 28.6767
32.7708 28.3069
32.9569 28.2551
33.143 27.9932
33.3293 27.525
33.5158 27.1766
33.7022 26.7641
33.8887 26.4866
34.0753 26.098
34.262 25.7638
34.4488 25.5415
34.6357 25.0766
34.8227 24.8006
35.0098 24.6578
35.1969 24.3177
35.3842 24.0732
35.5716 23.8059
35.759 23.5737
35.9468 23.2734
36.1345 22.995
36.3222 22.7908
36.5101 22.5315
36.6981 22.2209
36.8861 21.9587
37.0743 21.618
37.2626 21.4367
37.451 21.058
37.6395 20.9211
37.8281 20.6019
38.0168 20.3588
38.2056 20.1242
38.3945 19.8018
38.5837 19.5802
38.7728 19.2825
38.9621 19.0808
39.1514 18.8485
39.3409 18.5466
39.5304 18.354
39.7201 18.1614
39.9099 17.9234
40.0999 17.7222
40.2899 17.4101
40.48 17.2295
40.6703 17.0468
40.8607 16.7854
41.0512 16.5417
41.242 16.3506
41.4327 16.1282
41.6236 15.9568
41.8146 15.702
42.0057 15.567
42.1969 15.254
42.3882 15.0917
42.5797 14.8701
42.7713 14.6487
42.963 14.4812
43.1549 14.3243
43.3468 14.0861
43.5389 13.9328
43.7312 13.6618
43.9237 13.5375
44.1162 13.3117
44.3088 13.1253
44.5016 12.9385
44.6945 12.7581
44.8875 12.5808
45.0806 12.427
45.2739 12.2181
45.4673 12.1089
45.6609 11.9004
45.8546 11.7888
46.0484 11.6556
46.2424 11.4171
46.4365 11.2796
46.631 11.0866
46.8254 10.8874
47.0199 10.7908
47.2146 10.6118
47.4095 10.4439
47.6044 10.265
47.7996 10.0986
47.9948 9.97285
48.1902 9.86558
48.3858 9.73573
48.5815 9.57349
48.7774 9.42096
48.9734 9.31517
49.1696 9.15163
49.3661 8.98873
49.5626 8.82761
49.7592 8.73962
49.956 8.61229
50.153 8.46394
50.3501 8.34389
50.5474 8.22429
50.7448 8.10185
50.9424 7.9739
51.1402 7.8807
51.3381 7.7121
51.5362 7.56145
51.7344 7.47449
51.9328 7.33929
52.1316 7.21127
52.3304 7.11379
52.5293 6.98929
52.7284 6.89025
52.9276 6.76454
53.1271 6.65165
53.3267 6.55476
53.5265 6.44728
53.7264 6.29197
53.9266 6.18749
54.1269 6.1363
54.3274 5.9755
54.528 5.84572
54.7289 5.64514
54.9301 5.51359
55.1314 5.36433
55.3328 5.18
55.5344 4.97202
55.7361 4.78594