File: XRD/Ni3Fe_FD0071.xy
TT I
1.27165 24.7053
1.45013 19.6052
1.62863 16.3777
1.80712 14.9652
1.98562 14.5549
2.16411 13.97
2.34263 14.3017
2.52115 14.6557
2.69965 17.9053
2.87818 23.6085
3.05672 40.5477
3.23527 39.2535
3.4138 24.9739
3.59237 22.6562
3.77094 23.4038
3.9495 25.2011
4.12809 28.0904
4.30669 34.5273
4.4853 37.7241
4.6639 45.2899
4.84253 58.3973
5.02118 101.809
5.19981 454.058
5.37848 2186.87
5.55716 136.619
5.73586 100.957
5.91455 124.159
6.09328 777.886
6.27201 164.817
6.45075 61.8727
6.62952 48.4229
6.8083 43.1811
6.98711 41.8937
7.16591 41.9002
7.34475 40.3153
7.5236 71.6516
7.70247 43.2328
7.88135 41.1132
8.06026 43.9712
8.23919 50.0248
8.41812 65.7576
8.59709 257.45
8.77609 229.263
8.9551 72.4846
9.13412 67.2274
9.31318 208.723
9.49226 62.5305
9.67134 63.0601
9.85047 71.8649
10.0296 209.484
10.2088 804.394
10.388 90.9236
10.5672 112.259
10.7465 132.651
10.9257 54.471
11.105 48.611
11.2844 45.9593
11.4637 43.3692
11.6431 43.0061
11.8225 43.2883
12.002 100.146
12.1814 55.5002
12.3609 74.5928
12.5405 44.1797
12.72 43.6335
12.8996 45.7087
13.0792 55.5253
13.2589 80.6113
13.4386 199.163
13.6183 82.2881
13.7981 167.501
13.9779 54.4821
14.1577 77.5685
14.3376 47.8059
14.5175 45.6016
14.6974 45.8306
14.8774 59.0132
15.0574 100.138
15.2374 52.2289
15.4175 44.5076
15.5976 44.0231
15.7778 54.4219
15.958 79.951
16.1382 58.6895
16.3185 39.4442
16.4988 37.1026
16.6792 36.0909
16.8596 36.408
17.04 39.2187
17.2205 38.5878
17.401 46.7585
17.5815 39.552
17.7622 41.8435
17.9428 46.7412
18.1237 50.5248
18.3044 65.7421
18.4852 61.7045
18.666 43.5127
18.8469 38.7611
19.0278 37.7162
19.2088 38.6493
19.3898 46.4616
19.5709 41.8385
19.752 35.4383
19.9332 36.0556
20.1144 36.9167
20.2957 40.2793
20.477 40.8015
20.6586 33.6055
20.84 35.074
21.0215 32.0319
21.203 31.7621
21.3846 33.2375
21.5662 32.2422
21.7479 33.0855
21.9297 34.3183
22.1115 39.1505
22.2933 36.0914
22.4753 32.1847
22.6572 31.7944
22.8393 33.0162
23.0214 33.263
23.2037 34.8062
23.3859 33.0318
23.5682 32.4864
23.7505 36.5804
23.9329 30.8327
24.1154 29.8988
24.2979 28.9937
24.4805 28.2772
24.6631 28.8079
24.8458 28.1478
25.0286 27.749
25.2114 28.0178
25.3943 28.5057
25.5773 28.6119
25.7605 26.815
25.9436 26.8399
26.1268 26.5791
26.31 27.1771
26.4933 26.4806
26.6767 26.4627
26.8601 27.4187
27.0437 26.6602
27.2272 25.6418
27.4109 25.3285
27.5946 25.2914
27.7784 25.3363
27.9623 24.7876
28.1462 25.2496
28.3304 25.1072
28.5145 24.3665
28.6987 23.6715
28.8829 23.3506
29.0673 23.1963
29.2517 22.7093
29.4361 22.4038
29.6207 22.278
29.8053 21.8485
29.99 21.6904
30.1748 21.5343
30.3597 21.4516
30.5447 21.2478
30.7297 21.0987
30.915 21.179
31.1002 21.0105
31.2855 20.5102
31.4708 20.3839
31.6563 20.3466
31.8418 20.0923
32.0275 19.9091
32.2132 19.7857
32.399 19.4591
32.5848 19.0323
32.7708 18.8327
32.9569 18.8303
33.143 18.5181
33.3293 18.2646
33.5158 18.2002
33.7022 17.8412
33.8887 17.6675
34.0753 17.463
34.262 17.2229
34.4488 17.0109
34.6357 16.7822
34.8227 16.652
35.0098 16.4797
35.1969 16.2555
35.3842 15.9899
35.5716 15.9142
35.759 15.8453
35.9468 15.5797
36.1345 15.3495
36.3222 15.2874
36.5101 15.0763
36.6981 14.9249
36.8861 14.6619
37.0743 14.5348
37.2626 14.3508
37.451 14.1277
37.6395 14.1053
37.8281 13.8431
38.0168 13.6449
38.2056 13.4555
38.3945 13.2871
38.5837 13.1555
38.7728 13.0297
38.9621 12.8373
39.1514 12.6769
39.3409 12.5301
39.5304 12.3353
39.7201 12.2059
39.9099 12.0859
40.0999 11.9224
40.2899 11.7693
40.48 11.5736
40.6703 11.5118
40.8607 11.3862
41.0512 11.2023
41.242 11.0568
41.4327 10.8728
41.6236 10.7832
41.8146 10.6957
42.0057 10.4874
42.1969 10.343
42.3882 10.2055
42.5797 10.1119
42.7713 9.97171
42.963 9.88376
43.1549 9.73884
43.3468 9.54437
43.5389 9.45735
43.7312 9.28423
43.9237 9.18203
44.1162 9.01366
44.3088 8.90885
44.5016 8.80053
44.6945 8.68457
44.8875 8.60459
45.0806 8.45889
45.2739 8.33217
45.4673 8.2172
45.6609 8.15259
45.8546 8.00014
46.0484 7.94729
46.2424 7.74644
46.4365 7.70109
46.631 7.52567
46.8254 7.42821
47.0199 7.32453
47.2146 7.23618
47.4095 7.11341
47.6044 7.03393
47.7996 6.90989
47.9948 6.81011
48.1902 6.72407
48.3858 6.61821
48.5815 6.555
48.7774 6.43396
48.9734 6.36709
49.1696 6.25458
49.3661 6.14328
49.5626 6.07331
49.7592 6.00619
49.956 5.937
50.153 5.80667
50.3501 5.72381
50.5474 5.6831
50.7448 5.56964
50.9424 5.49092
51.1402 5.43073
51.3381 5.31888
51.5362 5.24147
51.7344 5.16741
51.9328 5.0875
52.1316 4.96887
52.3304 4.92925
52.5293 4.85226
52.7284 4.77556
52.9276 4.68495
53.1271 4.6253
53.3267 4.5373
53.5265 4.45854
53.7264 4.36421
53.9266 4.32073
54.1269 4.18684
54.3274 4.14569
54.528 3.97421
54.7289 3.88303
54.9301 3.71719
55.1314 3.61753
55.3328 3.39627
55.5344 3.25592
55.7361 3.16904