File: XRD/Ni3Fe_FD1049.xy
TT I
1.27165 7.24601
1.45013 5.7903
1.62863 4.68928
1.80712 4.35476
1.98562 4.41007
2.16411 4.20858
2.34263 5.4821
2.52115 7.53553
2.69965 8.8946
2.87818 9.31921
3.05672 10.8099
3.23527 14.4162
3.4138 18.3485
3.59237 21.4318
3.77094 24.4324
3.9495 28.5209
4.12809 32.6208
4.30669 56.8884
4.4853 46.4997
4.6639 52.6656
4.84253 63.9032
5.02118 83.396
5.19981 234.167
5.37848 212.262
5.55716 97.4031
5.73586 87.7331
5.91455 89.2308
6.09328 4543.72
6.27201 76.1426
6.45075 63.4179
6.62952 58.2854
6.8083 54.4016
6.98711 52.3723
7.16591 51.569
7.34475 55.6874
7.5236 59.4575
7.70247 53.2302
7.88135 54.7963
8.06026 58.8635
8.23919 66.1308
8.41812 77.9685
8.59709 1090.25
8.77609 95.0273
8.9551 82.5898
9.13412 78.8962
9.31318 89.7922
9.49226 80.8047
9.67134 86.5552
9.85047 94.1353
10.0296 350.312
10.2088 436.388
10.388 97.898
10.5672 506.541
10.7465 86.4286
10.9257 73.4076
11.105 68.0555
11.2844 64.7849
11.4637 62.2045
11.6431 60.565
11.8225 59.946
12.002 66.6298
12.1814 146.049
12.3609 64.4957
12.5405 61.4524
12.72 64.1397
12.8996 68.0414
13.0792 76.5369
13.2589 228.969
13.4386 126.855
13.6183 237.059
13.7981 100.445
13.9779 73.3616
14.1577 75.6212
14.3376 67.2714
14.5175 66.656
14.6974 67.5088
14.8774 109.872
15.0574 159.869
15.2374 66.5412
15.4175 64.2578
15.5976 63.4978
15.7778 94.433
15.958 167.689
16.1382 60.1158
16.3185 55.7264
16.4988 53.6739
16.6792 52.6079
16.8596 53.0531
17.04 53.8617
17.2205 64.8714
17.401 71.8827
17.5815 57.451
17.7622 60.0405
17.9428 73.2621
18.1237 141.686
18.3044 89.0056
18.4852 79.2
18.666 58.9736
18.8469 56.3827
19.0278 55.0502
19.2088 58.0081
19.3898 76.1744
19.5709 53.1019
19.752 51.8982
19.9332 55.1178
20.1144 70.362
20.2957 63.3723
20.477 52.9178
20.6586 48.4331
20.84 47.7234
21.0215 47.3233
21.203 49.5545
21.3846 47.8884
21.5662 47.5666
21.7479 51.7069
21.9297 65.2439
22.1115 55.8422
22.2933 49.1193
22.4753 47.3942
22.6572 47.7029
22.8393 51.1505
23.0214 57.5121
23.2037 47.661
23.3859 49.274
23.5682 57.3456
23.7505 48.1691
23.9329 44.3128
24.1154 43.1768
24.2979 42.377
24.4805 41.9664
24.6631 41.8988
24.8458 41.2217
25.0286 42.0389
25.2114 44.1769
25.3943 44.4046
25.5773 40.0059
25.7605 39.6348
25.9436 40.1009
26.1268 41.278
26.31 39.4157
26.4933 40.0078
26.6767 41.9135
26.8601 40.0763
27.0437 38.2428
27.2272 37.8715
27.4109 37.722
27.5946 37.768
27.7784 37.2308
27.9623 37.8964
28.1462 38.5875
28.3304 36.9026
28.5145 35.3833
28.6987 35.0082
28.8829 34.8813
29.0673 34.1289
29.2517 33.7586
29.4361 33.6174
29.6207 32.5911
29.8053 32.2776
29.99 31.9245
30.1748 31.8566
30.3597 31.6901
30.5447 31.7162
30.7297 31.8917
30.915 31.2523
31.1002 30.6943
31.2855 30.3603
31.4708 30.4494
31.6563 29.9611
31.8418 29.7752
32.0275 29.5936
32.2132 28.9442
32.399 28.5089
32.5848 27.9905
32.7708 27.7231
32.9569 27.5539
33.143 27.3349
33.3293 27.0195
33.5158 26.6694
33.7022 26.2093
33.8887 25.9901
34.0753 25.6198
34.262 25.2518
34.4488 24.8516
34.6357 24.5852
34.8227 24.3065
35.0098 24.0081
35.1969 23.8169
35.3842 23.703
35.5716 23.3918
35.759 23.0912
35.9468 22.7569
36.1345 22.6233
36.3222 22.3481
36.5101 22.137
36.6981 21.8072
36.8861 21.5105
37.0743 21.1782
37.2626 20.9444
37.451 20.6558
37.6395 20.561
37.8281 20.1251
38.0168 19.9065
38.2056 19.6877
38.3945 19.402
38.5837 19.1223
38.7728 18.9253
38.9621 18.6839
39.1514 18.3822
39.3409 18.1768
39.5304 17.981
39.7201 17.7516
39.9099 17.5022
40.0999 17.3036
40.2899 17.087
40.48 16.8703
40.6703 16.684
40.8607 16.5117
41.0512 16.261
41.242 16.0086
41.4327 15.7909
41.6236 15.5849
41.8146 15.425
42.0057 15.1791
42.1969 14.9861
42.3882 14.783
42.5797 14.5685
42.7713 14.4243
42.963 14.1594
43.1549 14.0173
43.3468 13.791
43.5389 13.5894
43.7312 13.4247
43.9237 13.2688
44.1162 13.0791
44.3088 12.8693
44.5016 12.7103
44.6945 12.5379
44.8875 12.347
45.0806 12.181
45.2739 11.9917
45.4673 11.8254
45.6609 11.671
45.8546 11.5355
46.0484 11.3372
46.2424 11.1974
46.4365 11.0667
46.631 10.9025
46.8254 10.6219
47.0199 10.5037
47.2146 10.3764
47.4095 10.2235
47.6044 10.0461
47.7996 9.93713
47.9948 9.78773
48.1902 9.6356
48.3858 9.51499
48.5815 9.39814
48.7774 9.27201
48.9734 9.11702
49.1696 8.94859
49.3661 8.80707
49.5626 8.66974
49.7592 8.57274
49.956 8.44152
50.153 8.26023
50.3501 8.12214
50.5474 8.03093
50.7448 7.9336
50.9424 7.78285
51.1402 7.68735
51.3381 7.58512
51.5362 7.43333
51.7344 7.32558
51.9328 7.19524
52.1316 7.05811
52.3304 6.98132
52.5293 6.83615
52.7284 6.73701
52.9276 6.60459
53.1271 6.53972
53.3267 6.41114
53.5265 6.27974
53.7264 6.14468
53.9266 6.05783
54.1269 5.9574
54.3274 5.83174
54.528 5.68067
54.7289 5.51775
54.9301 5.40936
55.1314 5.23432
55.3328 5.07681
55.5344 4.87519
55.7361 4.7192