File: XRD/Ni3Fe_FD0166.xy
TT I
1.27165 7.7942
1.45013 6.62385
1.62863 5.47115
1.80712 5.68139
1.98562 4.39413
2.16411 4.62992
2.34263 4.51071
2.52115 4.53204
2.69965 5.91305
2.87818 8.29972
3.05672 11.2487
3.23527 15.0319
3.4138 18.6289
3.59237 21.9826
3.77094 24.8145
3.9495 28.9976
4.12809 32.6916
4.30669 38.0635
4.4853 45.4121
4.6639 53.9142
4.84253 66.8475
5.02118 90.953
5.19981 536.502
5.37848 420.245
5.55716 107.749
5.73586 96.0964
5.91455 105.236
6.09328 2825.05
6.27201 88.8355
6.45075 66.6535
6.62952 60.0605
6.8083 55.7566
6.98711 53.7907
7.16591 52.8803
7.34475 52.4556
7.5236 56.082
7.70247 54.2735
7.88135 56.4718
8.06026 60.7321
8.23919 68.4006
8.41812 84.1624
8.59709 907.648
8.77609 115.561
8.9551 85.5767
9.13412 81.9626
9.31318 86.2723
9.49226 84.0489
9.67134 89.1747
9.85047 98.9145
10.0296 541.439
10.2088 958.715
10.388 105.176
10.5672 342.147
10.7465 90.4297
10.9257 76.1086
11.105 70.3676
11.2844 66.7171
11.4637 63.9025
11.6431 62.5257
11.8225 61.6333
12.002 65.4377
12.1814 120.319
12.3609 74.7012
12.5405 63.4443
12.72 65.5211
12.8996 70.3785
13.0792 79.2423
13.2589 208.351
13.4386 205.501
13.6183 196.707
13.7981 155.195
13.9779 76.455
14.1577 74.0859
14.3376 69.2527
14.5175 68.6217
14.6974 70.1979
14.8774 121.42
15.0574 205.446
15.2374 68.9995
15.4175 66.6285
15.5976 65.8876
15.7778 107.441
15.958 186.093
16.1382 61.7536
16.3185 57.7359
16.4988 55.4086
16.6792 54.3243
16.8596 54.5611
17.04 55.5251
17.2205 65.6158
17.401 81.0053
17.5815 59.4495
17.7622 61.5068
17.9428 83.702
18.1237 116.821
18.3044 88.7482
18.4852 94.8444
18.666 61.2126
18.8469 58.4593
19.0278 57.0221
19.2088 61.9429
19.3898 69.9481
19.5709 56.4066
19.752 53.6316
19.9332 58.4296
20.1144 67.6953
20.2957 61.5375
20.477 59.0735
20.6586 49.9198
20.84 49.1458
21.0215 49.2181
21.203 50.0316
21.3846 50.7542
21.5662 49.2032
21.7479 54.3348
21.9297 62.7653
22.1115 56.4683
22.2933 52.6127
22.4753 49.0757
22.6572 49.2249
22.8393 52.4299
23.0214 57.6292
23.2037 50.0433
23.3859 52.1869
23.5682 54.0459
23.7505 53.307
23.9329 45.8751
24.1154 44.4894
24.2979 43.8329
24.4805 43.2793
24.6631 43.3662
24.8458 42.7229
25.0286 43.2229
25.2114 44.8836
25.3943 45.1622
25.5773 41.8933
25.7605 41.0478
25.9436 41.1788
26.1268 41.8646
26.31 41.1546
26.4933 41.1897
26.6767 42.3171
26.8601 41.5013
27.0437 39.6629
27.2272 39.1714
27.4109 38.9326
27.5946 38.9618
27.7784 38.6289
27.9623 38.8412
28.1462 39.5768
28.3304 38.0707
28.5145 36.5303
28.6987 36.1082
28.8829 35.6918
29.0673 35.2312
29.2517 34.7321
29.4361 34.4625
29.6207 33.812
29.8053 33.282
29.99 32.9922
30.1748 32.7751
30.3597 32.759
30.5447 32.5631
30.7297 32.5635
30.915 32.2657
31.1002 31.712
31.2855 31.2928
31.4708 31.0974
31.6563 31.1264
31.8418 30.5313
32.0275 30.4
32.2132 29.8718
32.399 29.2839
32.5848 28.8988
32.7708 28.513
32.9569 28.4199
33.143 28.0746
33.3293 27.7556
33.5158 27.4427
33.7022 26.895
33.8887 26.6559
34.0753 26.3672
34.262 26.0159
34.4488 25.6128
34.6357 25.2566
34.8227 24.9884
35.0098 24.7729
35.1969 24.5437
35.3842 24.2186
35.5716 24.0635
35.759 23.8147
35.9468 23.3876
36.1345 23.1936
36.3222 22.981
36.5101 22.7313
36.6981 22.4209
36.8861 22.0447
37.0743 21.7703
37.2626 21.5316
37.451 21.2981
37.6395 21.0514
37.8281 20.7983
38.0168 20.505
38.2056 20.2381
38.3945 19.9835
38.5837 19.7073
38.7728 19.4352
38.9621 19.227
39.1514 18.9407
39.3409 18.6811
39.5304 18.4371
39.7201 18.287
39.9099 18.0359
40.0999 17.7963
40.2899 17.5951
40.48 17.3303
40.6703 17.1601
40.8607 16.9186
41.0512 16.6958
41.242 16.4452
41.4327 16.2615
41.6236 16.0685
41.8146 15.8661
42.0057 15.6279
42.1969 15.419
42.3882 15.2385
42.5797 14.9859
42.7713 14.8014
42.963 14.5377
43.1549 14.3891
43.3468 14.2178
43.5389 14.0021
43.7312 13.8378
43.9237 13.6143
44.1162 13.4162
44.3088 13.2022
44.5016 13.0387
44.6945 12.8687
44.8875 12.7153
45.0806 12.5476
45.2739 12.3476
45.4673 12.1677
45.6609 12.0085
45.8546 11.8291
46.0484 11.6882
46.2424 11.5295
46.4365 11.3476
46.631 11.1352
46.8254 10.9697
47.0199 10.8258
47.2146 10.6826
47.4095 10.5133
47.6044 10.3458
47.7996 10.2029
47.9948 10.0372
48.1902 9.91226
48.3858 9.81797
48.5815 9.69029
48.7774 9.48782
48.9734 9.38256
49.1696 9.24727
49.3661 9.07207
49.5626 8.94637
49.7592 8.83958
49.956 8.68203
50.153 8.5459
50.3501 8.40629
50.5474 8.25298
50.7448 8.16825
50.9424 8.01844
51.1402 7.93732
51.3381 7.78217
51.5362 7.6706
51.7344 7.51389
51.9328 7.39798
52.1316 7.29987
52.3304 7.12882
52.5293 7.05823
52.7284 6.93922
52.9276 6.81891
53.1271 6.68359
53.3267 6.58863
53.5265 6.4888
53.7264 6.37081
53.9266 6.23599
54.1269 6.13818
54.3274 6.00563
54.528 5.86057
54.7289 5.68724
54.9301 5.50536
55.1314 5.34272
55.3328 5.15495
55.5344 4.92096
55.7361 4.81695