File: XRD/Ni3Fe_FD0148.xy
TT I
1.27165 7.36749
1.45013 6.49995
1.62863 5.35121
1.80712 5.81437
1.98562 5.78735
2.16411 5.02121
2.34263 4.13981
2.52115 4.08348
2.69965 5.86179
2.87818 7.57487
3.05672 11.1987
3.23527 14.819
3.4138 18.9114
3.59237 21.4597
3.77094 24.9692
3.9495 28.7607
4.12809 32.9695
4.30669 38.0438
4.4853 44.5833
4.6639 53.4621
4.84253 66.3433
5.02118 90.5151
5.19981 555.297
5.37848 452.471
5.55716 107.864
5.73586 95.4817
5.91455 105.074
6.09328 2698.29
6.27201 89.4239
6.45075 66.2625
6.62952 59.6692
6.8083 55.2677
6.98711 53.7152
7.16591 52.1641
7.34475 52.1249
7.5236 56.0751
7.70247 53.7409
7.88135 56.08
8.06026 60.3958
8.23919 67.5652
8.41812 83.3399
8.59709 882.48
8.77609 116.192
8.9551 85.3799
9.13412 81.2851
9.31318 86.5195
9.49226 83.2463
9.67134 88.6286
9.85047 98.6987
10.0296 546.86
10.2088 986.13
10.388 104.267
10.5672 327.789
10.7465 90.8255
10.9257 75.5748
11.105 69.9492
11.2844 65.8411
11.4637 63.2878
11.6431 61.9667
11.8225 60.6491
12.002 65.2155
12.1814 117.165
12.3609 74.6308
12.5405 63.0207
12.72 64.9326
12.8996 69.4785
13.0792 79.0175
13.2589 203.208
13.4386 210.504
13.6183 191.15
13.7981 153.362
13.9779 75.7589
14.1577 74.1031
14.3376 68.7048
14.5175 67.9884
14.6974 69.397
14.8774 120.909
15.0574 203.893
15.2374 68.9981
15.4175 66.2065
15.5976 65.4837
15.7778 107.089
15.958 183.483
16.1382 61.4509
16.3185 57.067
16.4988 55.0336
16.6792 53.8644
16.8596 54.0942
17.04 55.4267
17.2205 64.9104
17.401 80.5736
17.5815 58.9261
17.7622 61.3045
17.9428 83.5408
18.1237 114.046
18.3044 87.8678
18.4852 94.9062
18.666 60.6463
18.8469 58.0566
19.0278 56.6966
19.2088 61.6619
19.3898 68.6737
19.5709 56.4099
19.752 53.2813
19.9332 57.9678
20.1144 66.7535
20.2957 60.8427
20.477 58.8025
20.6586 49.6806
20.84 48.989
21.0215 48.7704
21.203 49.5649
21.3846 50.4668
21.5662 48.9436
21.7479 53.9999
21.9297 61.8952
22.1115 56.1394
22.2933 52.3534
22.4753 48.7564
22.6572 48.9713
22.8393 51.9945
23.0214 56.9898
23.2037 49.8108
23.3859 51.6638
23.5682 53.3602
23.7505 53.3468
23.9329 45.5483
24.1154 44.2733
24.2979 43.6015
24.4805 42.7344
24.6631 42.9455
24.8458 42.3846
25.0286 43.0351
25.2114 44.5772
25.3943 44.6751
25.5773 41.7164
25.7605 40.6081
25.9436 40.9806
26.1268 41.5609
26.31 40.7258
26.4933 40.8702
26.6767 41.9257
26.8601 41.164
27.0437 39.4627
27.2272 38.9218
27.4109 38.4751
27.5946 38.6129
27.7784 38.3892
27.9623 38.5162
28.1462 39.3247
28.3304 37.8755
28.5145 36.2053
28.6987 35.885
28.8829 35.426
29.0673 35.1672
29.2517 34.4408
29.4361 34.2182
29.6207 33.5354
29.8053 32.9727
29.99 32.7924
30.1748 32.533
30.3597 32.5663
30.5447 32.2595
30.7297 32.3328
30.915 32.0139
31.1002 31.4278
31.2855 31.0574
31.4708 30.922
31.6563 30.7979
31.8418 30.2614
32.0275 30.0753
32.2132 29.6389
32.399 29.1047
32.5848 28.7109
32.7708 28.2886
32.9569 28.0863
33.143 27.9041
33.3293 27.5843
33.5158 27.3012
33.7022 26.7188
33.8887 26.4201
34.0753 26.1656
34.262 25.7861
34.4488 25.4651
34.6357 25.1077
34.8227 24.8645
35.0098 24.5665
35.1969 24.2709
35.3842 24.03
35.5716 23.8658
35.759 23.5947
35.9468 23.2148
36.1345 23.04
36.3222 22.8069
36.5101 22.5192
36.6981 22.3054
36.8861 21.964
37.0743 21.6229
37.2626 21.3837
37.451 21.1139
37.6395 20.9449
37.8281 20.6329
38.0168 20.287
38.2056 20.0674
38.3945 19.8678
38.5837 19.5347
38.7728 19.2912
38.9621 19.0986
39.1514 18.7147
39.3409 18.5291
39.5304 18.3679
39.7201 18.1464
39.9099 17.985
40.0999 17.6939
40.2899 17.4911
40.48 17.26
40.6703 16.9697
40.8607 16.8377
41.0512 16.6217
41.242 16.3561
41.4327 16.1329
41.6236 15.9707
41.8146 15.7678
42.0057 15.4716
42.1969 15.3077
42.3882 15.1053
42.5797 14.9344
42.7713 14.6845
42.963 14.4407
43.1549 14.3035
43.3468 14.0943
43.5389 13.9119
43.7312 13.6919
43.9237 13.4968
44.1162 13.3294
44.3088 13.1687
44.5016 12.9626
44.6945 12.7689
44.8875 12.6286
45.0806 12.43
45.2739 12.2862
45.4673 12.0363
45.6609 11.9459
45.8546 11.7976
46.0484 11.5849
46.2424 11.4057
46.4365 11.2757
46.631 11.0744
46.8254 10.9118
47.0199 10.7575
47.2146 10.6152
47.4095 10.409
47.6044 10.2539
47.7996 10.1162
47.9948 9.98876
48.1902 9.86362
48.3858 9.68648
48.5815 9.58334
48.7774 9.41023
48.9734 9.34195
49.1696 9.13603
49.3661 8.99256
49.5626 8.85631
49.7592 8.7601
49.956 8.61376
50.153 8.50912
50.3501 8.34419
50.5474 8.24955
50.7448 8.08671
50.9424 7.97448
51.1402 7.8518
51.3381 7.70914
51.5362 7.60243
51.7344 7.46263
51.9328 7.34723
52.1316 7.23364
52.3304 7.11607
52.5293 7.00021
52.7284 6.87678
52.9276 6.76176
53.1271 6.70168
53.3267 6.5317
53.5265 6.38902
53.7264 6.35851
53.9266 6.17736
54.1269 6.08571
54.3274 5.93901
54.528 5.79052
54.7289 5.63309
54.9301 5.43588
55.1314 5.29311
55.3328 5.07923
55.5344 4.87916
55.7361 4.75377