File: XRD/Ni3Fe_FD0630.xy
TT I
1.27165 7.59184
1.45013 6.14929
1.62863 5.49549
1.80712 4.58767
1.98562 4.71536
2.16411 4.96579
2.34263 5.42162
2.52115 6.77173
2.69965 8.51579
2.87818 8.90599
3.05672 11.2129
3.23527 15.0261
3.4138 18.834
3.59237 24.6967
3.77094 26.4087
3.9495 30.1048
4.12809 35.237
4.30669 237.686
4.4853 67.6113
4.6639 55.3398
4.84253 67.4098
5.02118 86.7355
5.19981 343.912
5.37848 194.68
5.55716 102.603
5.73586 92.5038
5.91455 94.1725
6.09328 4392.83
6.27201 84.3719
6.45075 67.4789
6.62952 63.3665
6.8083 59.1416
6.98711 56.2921
7.16591 55.8012
7.34475 97.1174
7.5236 55.2579
7.70247 56.1846
7.88135 57.9449
8.06026 62.6132
8.23919 69.9546
8.41812 85.1625
8.59709 1141.13
8.77609 100.348
8.9551 92.3949
9.13412 82.1522
9.31318 82.5259
9.49226 84.5586
9.67134 99.9429
9.85047 99.8324
10.0296 329.973
10.2088 430.619
10.388 104.444
10.5672 505.678
10.7465 86.973
10.9257 79.0493
11.105 72.0004
11.2844 71.0452
11.4637 64.9568
11.6431 63.9123
11.8225 62.7401
12.002 63.803
12.1814 149.543
12.3609 71.9705
12.5405 64.7556
12.72 70.6591
12.8996 71.0202
13.0792 78.7721
13.2589 232.944
13.4386 128.293
13.6183 242.531
13.7981 100.671
13.9779 76.1469
14.1577 72.8923
14.3376 72.2072
14.5175 69.024
14.6974 70.7071
14.8774 108.898
15.0574 151.628
15.2374 71.7245
15.4175 66.5677
15.5976 65.996
15.7778 93.9919
15.958 158.771
16.1382 63.3589
16.3185 59.0224
16.4988 55.7826
16.6792 54.7817
16.8596 55.5612
17.04 55.9597
17.2205 66.4658
17.401 72.4322
17.5815 59.3428
17.7622 61.4093
17.9428 73.4133
18.1237 138.936
18.3044 90.2629
18.4852 79.2398
18.666 60.8019
18.8469 58.1798
19.0278 57.2219
19.2088 59.5852
19.3898 76.8308
19.5709 54.6057
19.752 53.4695
19.9332 56.2103
20.1144 69.6654
20.2957 63.8668
20.477 54.0449
20.6586 49.8912
20.84 49.0655
21.0215 48.6447
21.203 51.067
21.3846 49.2099
21.5662 48.7712
21.7479 52.732
21.9297 64.6406
22.1115 56.2914
22.2933 50.1034
22.4753 49.0982
22.6572 48.9536
22.8393 52.0729
23.0214 57.6551
23.2037 48.9613
23.3859 49.7699
23.5682 57.0151
23.7505 48.6763
23.9329 45.5089
24.1154 44.4055
24.2979 43.6134
24.4805 43.1007
24.6631 43.0531
24.8458 42.4377
25.0286 42.9298
25.2114 44.6468
25.3943 44.7371
25.5773 41.0426
25.7605 40.6249
25.9436 41.0418
26.1268 41.7131
26.31 40.2345
26.4933 40.9406
26.6767 42.2894
26.8601 40.6204
27.0437 39.0508
27.2272 38.6905
27.4109 38.619
27.5946 38.5335
27.7784 38.096
27.9623 38.5162
28.1462 39.0503
28.3304 37.3846
28.5145 36.0912
28.6987 35.7772
28.8829 35.6935
29.0673 34.8328
29.2517 34.4286
29.4361 34.2548
29.6207 33.4215
29.8053 33.0106
29.99 32.7772
30.1748 32.5713
30.3597 32.3502
30.5447 32.306
30.7297 32.1928
30.915 31.7364
31.1002 31.306
31.2855 30.975
31.4708 30.9942
31.6563 30.3906
31.8418 30.2709
32.0275 29.9957
32.2132 29.5479
32.399 29.0704
32.5848 28.718
32.7708 28.3261
32.9569 28.09
33.143 27.9661
33.3293 27.592
33.5158 27.1799
33.7022 26.7366
33.8887 26.4989
34.0753 26.0718
34.262 25.7271
34.4488 25.4019
34.6357 25.117
34.8227 24.7894
35.0098 24.5898
35.1969 24.2606
35.3842 24.1454
35.5716 23.8805
35.759 23.5594
35.9468 23.2222
36.1345 22.9993
36.3222 22.7495
36.5101 22.4614
36.6981 22.2027
36.8861 21.8806
37.0743 21.6372
37.2626 21.363
37.451 21.1234
37.6395 20.9646
37.8281 20.5774
38.0168 20.2818
38.2056 20.0339
38.3945 19.7624
38.5837 19.5599
38.7728 19.3408
38.9621 19.068
39.1514 18.7822
39.3409 18.5643
39.5304 18.2962
39.7201 18.1319
39.9099 18.021
40.0999 17.6593
40.2899 17.44
40.48 17.2209
40.6703 17.0464
40.8607 16.8627
41.0512 16.6149
41.242 16.3804
41.4327 16.1075
41.6236 15.9404
41.8146 15.7773
42.0057 15.5627
42.1969 15.2821
42.3882 15.0978
42.5797 14.8725
42.7713 14.7355
42.963 14.5042
43.1549 14.2728
43.3468 14.0896
43.5389 13.888
43.7312 13.6894
43.9237 13.5552
44.1162 13.3523
44.3088 13.2025
44.5016 12.9869
44.6945 12.8169
44.8875 12.6322
45.0806 12.4425
45.2739 12.234
45.4673 12.1199
45.6609 11.9425
45.8546 11.7428
46.0484 11.5705
46.2424 11.4391
46.4365 11.2523
46.631 11.0908
46.8254 10.8826
47.0199 10.7451
47.2146 10.6213
47.4095 10.4585
47.6044 10.3019
47.7996 10.1126
47.9948 9.99944
48.1902 9.86225
48.3858 9.68181
48.5815 9.58744
48.7774 9.43686
48.9734 9.28365
49.1696 9.16129
49.3661 8.99438
49.5626 8.85897
49.7592 8.75213
49.956 8.61718
50.153 8.48628
50.3501 8.32367
50.5474 8.22062
50.7448 8.10538
50.9424 7.99128
51.1402 7.86979
51.3381 7.73422
51.5362 7.58651
51.7344 7.47839
51.9328 7.37464
52.1316 7.17476
52.3304 7.13374
52.5293 6.97449
52.7284 6.89224
52.9276 6.73301
53.1271 6.62503
53.3267 6.52468
53.5265 6.43274
53.7264 6.31384
53.9266 6.1798
54.1269 6.11164
54.3274 6.00517
54.528 5.831
54.7289 5.70038
54.9301 5.53008
55.1314 5.39605
55.3328 5.20762
55.5344 5.00185
55.7361 4.79591