File: XRD/Ni3Fe_FD0220.xy
TT I
1.27165 7.94134
1.45013 6.19815
1.62863 5.44595
1.80712 5.0524
1.98562 5.73394
2.16411 4.47166
2.34263 4.54587
2.52115 4.51966
2.69965 5.66453
2.87818 7.5904
3.05672 10.5115
3.23527 15.506
3.4138 18.9499
3.59237 22.5466
3.77094 25.9651
3.9495 30.0221
4.12809 35.3227
4.30669 40.7695
4.4853 48.395
4.6639 57.9518
4.84253 71.9566
5.02118 96.4129
5.19981 892.921
5.37848 275.45
5.55716 112.485
5.73586 101.605
5.91455 110.845
6.09328 3592.52
6.27201 89.8811
6.45075 71.1288
6.62952 64.3831
6.8083 60.2055
6.98711 57.6428
7.16591 56.2375
7.34475 55.8016
7.5236 56.1342
7.70247 58.2142
7.88135 60.4902
8.06026 65.684
8.23919 72.9297
8.41812 90.7126
8.59709 1056.95
8.77609 111.397
8.9551 90.7281
9.13412 87.2882
9.31318 88.3963
9.49226 89.8153
9.67134 95.5282
9.85047 107.253
10.0296 522.232
10.2088 568.368
10.388 115.264
10.5672 435.704
10.7465 92.7454
10.9257 81.207
11.105 75.3803
11.2844 70.9406
11.4637 67.9367
11.6431 66.6069
11.8225 65.6865
12.002 68.8321
12.1814 140.01
12.3609 70.4213
12.5405 67.4901
12.72 69.7084
12.8996 75.014
13.0792 86.6828
13.2589 227.653
13.4386 149.967
13.6183 224.569
13.7981 112.51
13.9779 79.8482
14.1577 75.5706
14.3376 73.2971
14.5175 72.7791
14.6974 74.7765
14.8774 119.398
15.0574 173.024
15.2374 72.7024
15.4175 69.9586
15.5976 70.0116
15.7778 103.423
15.958 178.013
16.1382 64.0533
16.3185 60.478
16.4988 57.9922
16.6792 57.106
16.8596 57.6425
17.04 59.2953
17.2205 68.8985
17.401 77.6143
17.5815 62.2425
17.7622 64.7876
17.9428 82.8072
18.1237 139.287
18.3044 90.3046
18.4852 84.1918
18.666 63.4752
18.8469 60.9868
19.0278 59.7655
19.2088 62.9443
19.3898 76.3746
19.5709 57.125
19.752 56.1975
19.9332 59.6183
20.1144 72.5083
20.2957 64.5345
20.477 57.1034
20.6586 52.1592
20.84 51.422
21.0215 51.1119
21.203 52.7404
21.3846 51.7821
21.5662 51.8351
21.7479 55.5209
21.9297 66.7011
22.1115 57.8384
22.2933 52.6472
22.4753 51.0394
22.6572 52.0281
22.8393 54.2906
23.0214 60.1154
23.2037 51.3395
23.3859 52.7791
23.5682 57.6549
23.7505 51.4456
23.9329 47.519
24.1154 46.0762
24.2979 45.6403
24.4805 45.0541
24.6631 45.0868
24.8458 44.4482
25.0286 45.0929
25.2114 46.5881
25.3943 46.7449
25.5773 42.8518
25.7605 42.4712
25.9436 42.5953
26.1268 43.6735
26.31 42.281
26.4933 42.6357
26.6767 43.8838
26.8601 42.3048
27.0437 40.8344
27.2272 40.4448
27.4109 40.3094
27.5946 40.2606
27.7784 39.9181
27.9623 39.994
28.1462 40.6626
28.3304 39.0782
28.5145 37.732
28.6987 37.2093
28.8829 37.0099
29.0673 36.3958
29.2517 35.8647
29.4361 35.8173
29.6207 34.7907
29.8053 34.3873
29.99 34.0557
30.1748 33.9647
30.3597 33.7494
30.5447 33.6875
30.7297 33.7276
30.915 33.183
31.1002 32.7436
31.2855 32.2915
31.4708 32.2191
31.6563 31.8658
31.8418 31.5419
32.0275 31.3271
32.2132 30.8006
32.399 30.2873
32.5848 29.866
32.7708 29.5911
32.9569 29.3124
33.143 29.1529
33.3293 28.7145
33.5158 28.2992
33.7022 27.7922
33.8887 27.5218
34.0753 27.2662
34.262 26.8893
34.4488 26.5439
34.6357 26.1598
34.8227 25.9252
35.0098 25.6859
35.1969 25.3652
35.3842 25.1082
35.5716 24.922
35.759 24.4897
35.9468 24.1666
36.1345 24.0561
36.3222 23.8072
36.5101 23.4435
36.6981 23.1082
36.8861 22.8548
37.0743 22.5111
37.2626 22.1991
37.451 21.9546
37.6395 21.8129
37.8281 21.4697
38.0168 21.2233
38.2056 20.938
38.3945 20.5971
38.5837 20.3434
38.7728 20.0973
38.9621 19.863
39.1514 19.5856
39.3409 19.281
39.5304 19.0976
39.7201 18.8721
39.9099 18.6628
40.0999 18.4236
40.2899 18.1663
40.48 17.9075
40.6703 17.7246
40.8607 17.5029
41.0512 17.2841
41.242 16.9799
41.4327 16.7912
41.6236 16.5854
41.8146 16.379
42.0057 16.1467
42.1969 15.9104
42.3882 15.7667
42.5797 15.4882
42.7713 15.3297
42.963 15.095
43.1549 14.876
43.3468 14.6375
43.5389 14.4556
43.7312 14.2631
43.9237 14.0819
44.1162 13.9185
44.3088 13.6893
44.5016 13.4763
44.6945 13.2689
44.8875 13.0935
45.0806 12.8972
45.2739 12.7889
45.4673 12.5771
45.6609 12.3922
45.8546 12.2203
46.0484 12.0793
46.2424 11.8485
46.4365 11.7179
46.631 11.4784
46.8254 11.2966
47.0199 11.1859
47.2146 11.0462
47.4095 10.8673
47.6044 10.6967
47.7996 10.5296
47.9948 10.3929
48.1902 10.2236
48.3858 10.0932
48.5815 9.97757
48.7774 9.8049
48.9734 9.66703
49.1696 9.53026
49.3661 9.31543
49.5626 9.19499
49.7592 9.09622
49.956 8.91724
50.153 8.7963
50.3501 8.69645
50.5474 8.57522
50.7448 8.45299
50.9424 8.29293
51.1402 8.18837
51.3381 8.02627
51.5362 7.87182
51.7344 7.77663
51.9328 7.63605
52.1316 7.47198
52.3304 7.39848
52.5293 7.24181
52.7284 7.13506
52.9276 7.00375
53.1271 6.91288
53.3267 6.80206
53.5265 6.68424
53.7264 6.5563
53.9266 6.42275
54.1269 6.26641
54.3274 6.17212
54.528 6.05884
54.7289 5.85797
54.9301 5.70458
55.1314 5.52836
55.3328 5.3268
55.5344 5.12835
55.7361 5.0108