File: XRD/Ni3Fe_FD0308.xy
TT I
1.27165 7.93021
1.45013 6.27542
1.62863 5.90018
1.80712 4.86061
1.98562 4.88283
2.16411 5.09967
2.34263 5.08881
2.52115 5.75306
2.69965 7.00942
2.87818 8.21395
3.05672 11.0919
3.23527 15.4191
3.4138 19.4363
3.59237 25.4186
3.77094 27.1302
3.9495 30.5261
4.12809 36.0533
4.30669 330.175
4.4853 78.757
4.6639 56.9267
4.84253 68.4343
5.02118 90.4149
5.19981 479.747
5.37848 254.609
5.55716 106.334
5.73586 95.508
5.91455 99.1078
6.09328 3606.04
6.27201 89.9326
6.45075 70.1134
6.62952 65.7223
6.8083 61.6402
6.98711 57.8539
7.16591 57.85
7.34475 118.554
7.5236 56.9145
7.70247 58.0238
7.88135 60.0716
8.06026 64.1862
8.23919 71.7905
8.41812 89.3215
8.59709 953.481
8.77609 107.701
8.9551 98.4892
9.13412 84.375
9.31318 85.3466
9.49226 86.7058
9.67134 106.959
9.85047 103.211
10.0296 365.545
10.2088 593.117
10.388 110.417
10.5672 442.695
10.7465 90.4734
10.9257 82.0935
11.105 74.5485
11.2844 74.535
11.4637 67.3874
11.6431 65.7267
11.8225 64.7364
12.002 65.7629
12.1814 134.728
12.3609 78.2729
12.5405 67.0247
12.72 74.7067
12.8996 73.0421
13.0792 81.2574
13.2589 207.369
13.4386 150.297
13.6183 209.254
13.7981 111.721
13.9779 78.3625
14.1577 75.3903
14.3376 75.2812
14.5175 71.1258
14.6974 72.9597
14.8774 107.428
15.0574 176.382
15.2374 74.7969
15.4175 68.4311
15.5976 67.9979
15.7778 93.8798
15.958 182.623
16.1382 66.6462
16.3185 61.3741
16.4988 57.4756
16.6792 56.5155
16.8596 57.3638
17.04 57.7082
17.2205 66.8201
17.401 77.4199
17.5815 61.1775
17.7622 63.169
17.9428 76.167
18.1237 137.23
18.3044 88.1906
18.4852 86.0398
18.666 62.6844
18.8469 60.0752
19.0278 58.9361
19.2088 61.6415
19.3898 78.2975
19.5709 56.4325
19.752 55.1317
19.9332 57.9764
20.1144 71.1594
20.2957 63.8373
20.477 57.0864
20.6586 51.5159
20.84 50.6857
21.0215 50.3632
21.203 52.156
21.3846 51.1055
21.5662 50.465
21.7479 53.9061
21.9297 66.3447
22.1115 57.3226
22.2933 52.1501
22.4753 50.7448
22.6572 50.6881
22.8393 52.9064
23.0214 60.1118
23.2037 50.6144
23.3859 51.3434
23.5682 57.0082
23.7505 51.1178
23.9329 46.7799
24.1154 45.7185
24.2979 45.0402
24.4805 44.5085
24.6631 44.4888
24.8458 43.7954
25.0286 44.143
25.2114 46.02
25.3943 46.4657
25.5773 42.4036
25.7605 41.9547
25.9436 42.0963
26.1268 43.0913
26.31 41.6091
26.4933 42.0416
26.6767 43.5066
26.8601 41.8901
27.0437 40.4157
27.2272 39.9051
27.4109 39.5817
27.5946 39.7738
27.7784 39.1961
27.9623 39.407
28.1462 40.2433
28.3304 38.799
28.5145 37.2083
28.6987 36.7969
28.8829 36.625
29.0673 35.8642
29.2517 35.502
29.4361 35.3341
29.6207 34.3467
29.8053 34.0262
29.99 33.7342
30.1748 33.5121
30.3597 33.4932
30.5447 33.2463
30.7297 33.3472
30.915 32.7882
31.1002 32.2838
31.2855 32.011
31.4708 31.7754
31.6563 31.5014
31.8418 31.206
32.0275 30.8724
32.2132 30.4737
32.399 29.9246
32.5848 29.5158
32.7708 29.2419
32.9569 29.0342
33.143 28.7296
33.3293 28.319
33.5158 27.997
33.7022 27.6168
33.8887 27.2366
34.0753 26.8986
34.262 26.5695
34.4488 26.2615
34.6357 25.8351
34.8227 25.5557
35.0098 25.2668
35.1969 25.0135
35.3842 24.8211
35.5716 24.6012
35.759 24.2806
35.9468 23.88
36.1345 23.7706
36.3222 23.5034
36.5101 23.2505
36.6981 22.9203
36.8861 22.5762
37.0743 22.2746
37.2626 21.968
37.451 21.7351
37.6395 21.6019
37.8281 21.3025
38.0168 20.9487
38.2056 20.6564
38.3945 20.435
38.5837 20.1408
38.7728 19.928
38.9621 19.656
39.1514 19.3745
39.3409 19.0706
39.5304 18.9339
39.7201 18.7007
39.9099 18.4025
40.0999 18.2399
40.2899 18.0229
40.48 17.7033
40.6703 17.5666
40.8607 17.3717
41.0512 17.1438
41.242 16.8796
41.4327 16.6852
41.6236 16.4363
41.8146 16.2303
42.0057 16.0003
42.1969 15.7884
42.3882 15.575
42.5797 15.331
42.7713 15.131
42.963 14.8924
43.1549 14.7113
43.3468 14.4844
43.5389 14.2989
43.7312 14.1235
43.9237 13.8926
44.1162 13.7608
44.3088 13.4973
44.5016 13.3625
44.6945 13.1922
44.8875 13.0402
45.0806 12.7618
45.2739 12.585
45.4673 12.4807
45.6609 12.2693
45.8546 12.116
46.0484 11.9528
46.2424 11.7804
46.4365 11.6024
46.631 11.4387
46.8254 11.2998
47.0199 11.0544
47.2146 10.9587
47.4095 10.7655
47.6044 10.6121
47.7996 10.4618
47.9948 10.2839
48.1902 10.1688
48.3858 10.0194
48.5815 9.86743
48.7774 9.72147
48.9734 9.56618
49.1696 9.41628
49.3661 9.30308
49.5626 9.15584
49.7592 9.01965
49.956 8.88067
50.153 8.71921
50.3501 8.59375
50.5474 8.47967
50.7448 8.37667
50.9424 8.22421
51.1402 8.04779
51.3381 7.94
51.5362 7.8006
51.7344 7.69734
51.9328 7.58041
52.1316 7.42255
52.3304 7.31756
52.5293 7.18517
52.7284 7.07591
52.9276 6.97335
53.1271 6.86064
53.3267 6.74344
53.5265 6.63469
53.7264 6.49148
53.9266 6.40284
54.1269 6.25896
54.3274 6.17618
54.528 6.02834
54.7289 5.83377
54.9301 5.64084
55.1314 5.57877
55.3328 5.31279
55.5344 5.12353
55.7361 4.97124