File: XRD/Ni3Fe_FD0571.xy
TT I
1.27165 7.19992
1.45013 6.41044
1.62863 5.66728
1.80712 4.64788
1.98562 4.48153
2.16411 4.34962
2.34263 5.39397
2.52115 6.60378
2.69965 8.22682
2.87818 8.35932
3.05672 11.1176
3.23527 15.019
3.4138 19.1022
3.59237 23.16
3.77094 26.123
3.9495 29.8161
4.12809 34.6619
4.30669 134.805
4.4853 57.5771
4.6639 55.9915
4.84253 68.8542
5.02118 88.7885
5.19981 458.826
5.37848 196.563
5.55716 103.791
5.73586 93.5464
5.91455 97.0227
6.09328 4472.31
6.27201 82.62
6.45075 67.9794
6.62952 63.0042
6.8083 59.1881
6.98711 55.9311
7.16591 55.8778
7.34475 75.0957
7.5236 54.9147
7.70247 56.6593
7.88135 58.0611
8.06026 62.8795
8.23919 70.0521
8.41812 85.7992
8.59709 1235.26
8.77609 100.018
8.9551 90.0848
9.13412 83.0395
9.31318 83.9826
9.49226 85.9358
9.67134 96.8456
9.85047 101.343
10.0296 382.751
10.2088 367.346
10.388 106.409
10.5672 524.287
10.7465 87.1252
10.9257 78.5592
11.105 71.9035
11.2844 69.7937
11.4637 65.1546
11.6431 64.0418
11.8225 62.963
12.002 64.749
12.1814 156.532
12.3609 68.5301
12.5405 65.2925
12.72 68.9955
12.8996 71.9332
13.0792 80.8584
13.2589 252.217
13.4386 121.311
13.6183 258.337
13.7981 96.586
13.9779 76.4124
14.1577 72.8044
14.3376 71.5401
14.5175 69.5765
14.6974 71.2861
14.8774 116.173
15.0574 144.498
15.2374 70.5988
15.4175 67.0304
15.5976 66.8602
15.7778 99.3059
15.958 150.19
16.1382 62.3025
16.3185 58.5271
16.4988 56.0337
16.6792 54.8896
16.8596 55.4782
17.04 56.4605
17.2205 68.4406
17.401 70.8372
17.5815 59.5674
17.7622 61.9011
17.9428 75.6528
18.1237 141.298
18.3044 92.1292
18.4852 76.4041
18.666 60.8549
18.8469 58.5257
19.0278 57.3519
19.2088 60.2336
19.3898 76.1753
19.5709 54.4485
19.752 53.7649
19.9332 57.083
20.1144 70.2155
20.2957 64.2639
20.477 53.4586
20.6586 50.1697
20.84 49.3297
21.0215 48.9838
21.203 51.4091
21.3846 49.2171
21.5662 49.4287
21.7479 53.5728
21.9297 64.877
22.1115 56.2062
22.2933 50.1082
22.4753 49.2608
22.6572 49.3945
22.8393 52.5113
23.0214 57.554
23.2037 49.0264
23.3859 50.2288
23.5682 57.3255
23.7505 48.3789
23.9329 45.595
24.1154 44.3615
24.2979 43.8499
24.4805 43.2777
24.6631 43.0906
24.8458 42.4706
25.0286 43.3154
25.2114 45.0131
25.3943 44.8475
25.5773 41.239
25.7605 40.7472
25.9436 41.2665
26.1268 42.0627
26.31 40.3697
26.4933 40.9829
26.6767 42.3614
26.8601 40.8111
27.0437 39.1485
27.2272 38.8297
27.4109 38.7403
27.5946 38.5702
27.7784 38.1687
27.9623 38.6375
28.1462 39.0234
28.3304 37.399
28.5145 36.136
28.6987 35.8423
28.8829 35.6439
29.0673 34.8127
29.2517 34.5876
29.4361 34.4409
29.6207 33.4146
29.8053 33.0233
29.99 32.8817
30.1748 32.615
30.3597 32.4681
30.5447 32.4696
30.7297 32.4251
30.915 31.8774
31.1002 31.4132
31.2855 31.1094
31.4708 30.9805
31.6563 30.5747
31.8418 30.3251
32.0275 30.1324
32.2132 29.6415
32.399 29.1773
32.5848 28.6607
32.7708 28.2944
32.9569 28.1811
33.143 27.9923
33.3293 27.5502
33.5158 27.2514
33.7022 26.7162
33.8887 26.4627
34.0753 26.1727
34.262 25.8333
34.4488 25.416
34.6357 25.1565
34.8227 24.8547
35.0098 24.6722
35.1969 24.3541
35.3842 24.1126
35.5716 23.9305
35.759 23.508
35.9468 23.243
36.1345 23.1124
36.3222 22.7539
36.5101 22.52
36.6981 22.2435
36.8861 21.9999
37.0743 21.6547
37.2626 21.3794
37.451 21.1303
37.6395 21.0205
37.8281 20.622
38.0168 20.352
38.2056 20.1032
38.3945 19.7
38.5837 19.6079
38.7728 19.3237
38.9621 19.0937
39.1514 18.8005
39.3409 18.552
39.5304 18.333
39.7201 18.2421
39.9099 17.9414
40.0999 17.6761
40.2899 17.5032
40.48 17.2075
40.6703 17.0241
40.8607 16.7966
41.0512 16.6102
41.242 16.3738
41.4327 16.1488
41.6236 15.9194
41.8146 15.7493
42.0057 15.5466
42.1969 15.3397
42.3882 15.1437
42.5797 14.9077
42.7713 14.7438
42.963 14.5191
43.1549 14.3037
43.3468 14.0943
43.5389 13.921
43.7312 13.7472
43.9237 13.5492
44.1162 13.3297
44.3088 13.1279
44.5016 12.948
44.6945 12.8535
44.8875 12.6133
45.0806 12.4655
45.2739 12.2902
45.4673 12.1256
45.6609 11.8986
45.8546 11.7717
46.0484 11.5504
46.2424 11.4463
46.4365 11.3097
46.631 11.1216
46.8254 10.9707
47.0199 10.7972
47.2146 10.6493
47.4095 10.4627
47.6044 10.3397
47.7996 10.1699
47.9948 9.9889
48.1902 9.86179
48.3858 9.71968
48.5815 9.59478
48.7774 9.44957
48.9734 9.30712
49.1696 9.1709
49.3661 9.02377
49.5626 8.85565
49.7592 8.73981
49.956 8.62336
50.153 8.51629
50.3501 8.37178
50.5474 8.20461
50.7448 8.1117
50.9424 7.94686
51.1402 7.83854
51.3381 7.74705
51.5362 7.61132
51.7344 7.4766
51.9328 7.35284
52.1316 7.22994
52.3304 7.09602
52.5293 6.95916
52.7284 6.88695
52.9276 6.73939
53.1271 6.67364
53.3267 6.56014
53.5265 6.39564
53.7264 6.29982
53.9266 6.1948
54.1269 6.08249
54.3274 5.97154
54.528 5.81407
54.7289 5.63797
54.9301 5.5242
55.1314 5.37559
55.3328 5.17714
55.5344 4.99371
55.7361 4.86289