File: XRD/Ni3Fe_FD0736.xy
TT I
1.27165 7.09752
1.45013 5.65841
1.62863 5.66749
1.80712 4.60169
1.98562 4.76885
2.16411 5.35759
2.34263 5.18971
2.52115 6.69212
2.69965 7.85696
2.87818 8.68459
3.05672 10.8012
3.23527 15.0219
3.4138 18.8431
3.59237 23.5701
3.77094 26.0444
3.9495 29.6182
4.12809 34.7709
4.30669 210.33
4.4853 64.3436
4.6639 55.215
4.84253 66.3807
5.02118 86.1862
5.19981 321.567
5.37848 184.491
5.55716 101.969
5.73586 91.6092
5.91455 93.0522
6.09328 4625.65
6.27201 82.3558
6.45075 67.0686
6.62952 62.8122
6.8083 58.7642
6.98711 55.725
7.16591 55.0628
7.34475 89.1614
7.5236 54.738
7.70247 56.1854
7.88135 57.8402
8.06026 62.3889
8.23919 69.2241
8.41812 84.5202
8.59709 1158.79
8.77609 98.8312
8.9551 91.1369
9.13412 81.9264
9.31318 82.5428
9.49226 84.2063
9.67134 97.8615
9.85047 99.3694
10.0296 325.426
10.2088 410.497
10.388 103.834
10.5672 515.093
10.7465 86.0578
10.9257 78.1686
11.105 71.6138
11.2844 70.2125
11.4637 64.6679
11.6431 63.6171
11.8225 62.239
12.002 63.4183
12.1814 153.162
12.3609 70.2149
12.5405 64.213
12.72 69.645
12.8996 70.5155
13.0792 78.4138
13.2589 237.436
13.4386 126.755
13.6183 248.568
13.7981 97.5025
13.9779 75.623
14.1577 72.1648
14.3376 71.1963
14.5175 68.726
14.6974 69.8544
14.8774 109.277
15.0574 149.383
15.2374 70.8941
15.4175 66.0745
15.5976 65.3209
15.7778 93.5099
15.958 155.806
16.1382 62.4838
16.3185 58.69
16.4988 55.4408
16.6792 54.0958
16.8596 55.1916
17.04 55.4483
17.2205 66.685
17.401 70.5224
17.5815 58.8184
17.7622 61.0204
17.9428 72.7285
18.1237 138.238
18.3044 90.5618
18.4852 77.1729
18.666 60.0934
18.8469 57.6255
19.0278 56.5504
19.2088 59.1638
19.3898 75.8003
19.5709 53.9261
19.752 53.0586
19.9332 55.817
20.1144 69.3354
20.2957 63.7307
20.477 53.6032
20.6586 49.5649
20.84 48.5397
21.0215 48.4963
21.203 50.7502
21.3846 48.6026
21.5662 48.5659
21.7479 52.2801
21.9297 64.2262
22.1115 55.8338
22.2933 49.7143
22.4753 48.6198
22.6572 48.6118
22.8393 51.7339
23.0214 56.8608
23.2037 48.6163
23.3859 49.4024
23.5682 56.8421
23.7505 48.2454
23.9329 45.1146
24.1154 43.932
24.2979 43.2313
24.4805 42.7601
24.6631 42.8603
24.8458 41.9397
25.0286 42.6787
25.2114 44.2968
25.3943 44.3165
25.5773 40.8077
25.7605 40.2824
25.9436 40.6849
26.1268 41.402
26.31 39.9298
26.4933 40.5613
26.6767 41.9499
26.8601 40.2193
27.0437 38.6924
27.2272 38.3702
27.4109 38.1681
27.5946 38.1502
27.7784 37.6338
27.9623 38.2896
28.1462 38.6422
28.3304 37.0981
28.5145 35.7083
28.6987 35.4668
28.8829 35.307
29.0673 34.5243
29.2517 34.1902
29.4361 34.05
29.6207 33.0871
29.8053 32.7848
29.99 32.5427
30.1748 32.3451
30.3597 32.0503
30.5447 32.0429
30.7297 32.0521
30.915 31.4845
31.1002 30.9977
31.2855 30.7853
31.4708 30.7146
31.6563 30.2157
31.8418 30.1197
32.0275 29.7959
32.2132 29.2205
32.399 28.8189
32.5848 28.4215
32.7708 28.1325
32.9569 27.9506
33.143 27.6064
33.3293 27.3637
33.5158 26.9485
33.7022 26.418
33.8887 26.225
34.0753 25.798
34.262 25.6061
34.4488 25.213
34.6357 24.859
34.8227 24.5344
35.0098 24.4606
35.1969 24.116
35.3842 23.9266
35.5716 23.624
35.759 23.4005
35.9468 22.931
36.1345 22.8188
36.3222 22.5532
36.5101 22.3595
36.6981 22.0991
36.8861 21.7526
37.0743 21.3875
37.2626 21.1954
37.451 20.9438
37.6395 20.7416
37.8281 20.3563
38.0168 20.12
38.2056 19.9164
38.3945 19.6435
38.5837 19.343
38.7728 19.1687
38.9621 18.8839
39.1514 18.6061
39.3409 18.4056
39.5304 18.1794
39.7201 17.9682
39.9099 17.761
40.0999 17.5382
40.2899 17.3095
40.48 17.0796
40.6703 16.8027
40.8607 16.6815
41.0512 16.4554
41.242 16.2108
41.4327 16.0314
41.6236 15.7767
41.8146 15.6181
42.0057 15.3675
42.1969 15.1832
42.3882 14.9707
42.5797 14.7621
42.7713 14.557
42.963 14.3699
43.1549 14.1746
43.3468 13.9321
43.5389 13.7885
43.7312 13.6088
43.9237 13.3966
44.1162 13.2545
44.3088 13.0552
44.5016 12.8439
44.6945 12.6615
44.8875 12.5085
45.0806 12.3243
45.2739 12.1255
45.4673 11.9663
45.6609 11.7904
45.8546 11.6454
46.0484 11.4738
46.2424 11.3045
46.4365 11.1814
46.631 10.9913
46.8254 10.8295
47.0199 10.7071
47.2146 10.5223
47.4095 10.4106
47.6044 10.1864
47.7996 10.0811
47.9948 9.88056
48.1902 9.75441
48.3858 9.62188
48.5815 9.52467
48.7774 9.33563
48.9734 9.20189
49.1696 9.06469
49.3661 8.96655
49.5626 8.80751
49.7592 8.65314
49.956 8.5545
50.153 8.40383
50.3501 8.28615
50.5474 8.13291
50.7448 8.03632
50.9424 7.93616
51.1402 7.78597
51.3381 7.67393
51.5362 7.56695
51.7344 7.42026
51.9328 7.25046
52.1316 7.13868
52.3304 7.04723
52.5293 6.91276
52.7284 6.81516
52.9276 6.68457
53.1271 6.61893
53.3267 6.46737
53.5265 6.35756
53.7264 6.2666
53.9266 6.14863
54.1269 6.06136
54.3274 5.9522
54.528 5.76921
54.7289 5.61168
54.9301 5.45644
55.1314 5.34088
55.3328 5.10468
55.5344 4.96624
55.7361 4.82868