File: XRD/Ni3Fe_FD0906.xy
TT I
1.27165 7.31666
1.45013 6.27692
1.62863 5.01585
1.80712 4.6371
1.98562 4.87133
2.16411 5.067
2.34263 6.28335
2.52115 7.47631
2.69965 8.63628
2.87818 8.82921
3.05672 11.5246
3.23527 15.1261
3.4138 18.4939
3.59237 23.7876
3.77094 25.6548
3.9495 29.3849
4.12809 34.0577
4.30669 145.543
4.4853 57.6437
4.6639 54.9511
4.84253 66.9926
5.02118 86.0556
5.19981 338.995
5.37848 174.839
5.55716 100.787
5.73586 90.9393
5.91455 92.9879
6.09328 4587.75
6.27201 79.66
6.45075 66.835
6.62952 61.8501
6.8083 58.2548
6.98711 54.8227
7.16591 54.5961
7.34475 75.7527
7.5236 53.8483
7.70247 55.7152
7.88135 56.6506
8.06026 61.726
8.23919 68.4759
8.41812 82.8603
8.59709 1199.05
8.77609 95.7705
8.9551 88.6492
9.13412 81.1851
9.31318 82.3027
9.49226 83.496
9.67134 94.1447
9.85047 98.7432
10.0296 325.544
10.2088 334.818
10.388 102.691
10.5672 543.502
10.7465 84.653
10.9257 76.8244
11.105 70.1939
11.2844 67.7309
11.4637 63.742
11.6431 62.2253
11.8225 61.2156
12.002 62.8284
12.1814 158.018
12.3609 66.7105
12.5405 63.6335
12.72 67.5666
12.8996 69.8441
13.0792 78.1257
13.2589 241.656
13.4386 114.021
13.6183 258.399
13.7981 91.5423
13.9779 74.5872
14.1577 70.8169
14.3376 69.649
14.5175 67.6716
14.6974 69.3819
14.8774 109.146
15.0574 138.117
15.2374 68.736
15.4175 65.2316
15.5976 64.6314
15.7778 93.0254
15.958 147.299
16.1382 60.8314
16.3185 57.1893
16.4988 54.2393
16.6792 53.5851
16.8596 53.9424
17.04 54.9673
17.2205 65.6929
17.401 67.5955
17.5815 58.1881
17.7622 60.2118
17.9428 72.0544
18.1237 140.09
18.3044 90.5349
18.4852 73.1234
18.666 59.2153
18.8469 57.1543
19.0278 55.737
19.2088 58.439
19.3898 75.447
19.5709 53.1104
19.752 52.2793
19.9332 55.2519
20.1144 69.4769
20.2957 63.8761
20.477 51.7958
20.6586 48.7012
20.84 48.0826
21.0215 47.7152
21.203 50.0949
21.3846 47.9121
21.5662 48.1118
21.7479 51.8166
21.9297 64.2193
22.1115 55.6842
22.2933 48.6111
22.4753 47.8579
22.6572 47.9715
22.8393 51.1872
23.0214 56.1652
23.2037 47.8536
23.3859 48.9167
23.5682 57.0311
23.7505 47.0952
23.9329 44.4258
24.1154 43.3874
24.2979 42.6904
24.4805 42.2763
24.6631 41.9838
24.8458 41.5021
25.0286 42.1625
25.2114 44.0534
25.3943 43.8489
25.5773 40.2029
25.7605 39.7569
25.9436 40.1687
26.1268 41.0215
26.31 39.4168
26.4933 40.1396
26.6767 41.4937
26.8601 39.637
27.0437 38.3185
27.2272 37.7673
27.4109 37.714
27.5946 37.6986
27.7784 37.3511
27.9623 37.9076
28.1462 38.2679
28.3304 36.509
28.5145 35.4065
28.6987 34.9723
28.8829 34.7931
29.0673 34.1221
29.2517 33.8297
29.4361 33.5136
29.6207 32.5692
29.8053 32.3437
29.99 31.9818
30.1748 31.8524
30.3597 31.6461
30.5447 31.5745
30.7297 31.7751
30.915 31.0949
31.1002 30.5848
31.2855 30.3504
31.4708 30.3495
31.6563 29.8839
31.8418 29.6065
32.0275 29.4136
32.2132 28.935
32.399 28.4268
32.5848 27.9974
32.7708 27.6659
32.9569 27.5548
33.143 27.2802
33.3293 26.9151
33.5158 26.5287
33.7022 26.2002
33.8887 25.8871
34.0753 25.5106
34.262 25.2171
34.4488 24.8603
34.6357 24.5718
34.8227 24.3117
35.0098 24.0328
35.1969 23.8327
35.3842 23.6279
35.5716 23.3685
35.759 23.0185
35.9468 22.6974
36.1345 22.5366
36.3222 22.2485
36.5101 22.0688
36.6981 21.7588
36.8861 21.4759
37.0743 21.1481
37.2626 20.9359
37.451 20.5975
37.6395 20.542
37.8281 20.1042
38.0168 19.819
38.2056 19.6448
38.3945 19.3773
38.5837 19.1298
38.7728 18.8701
38.9621 18.6715
39.1514 18.4014
39.3409 18.1289
39.5304 17.9247
39.7201 17.8216
39.9099 17.5542
40.0999 17.2853
40.2899 17.0482
40.48 16.823
40.6703 16.6708
40.8607 16.4571
41.0512 16.2302
41.242 15.9441
41.4327 15.7547
41.6236 15.5982
41.8146 15.4005
42.0057 15.1967
42.1969 15.0105
42.3882 14.7968
42.5797 14.5881
42.7713 14.4092
42.963 14.1607
43.1549 13.9548
43.3468 13.7817
43.5389 13.6166
43.7312 13.3966
43.9237 13.2539
44.1162 13.0907
44.3088 12.8542
44.5016 12.7218
44.6945 12.4777
44.8875 12.3289
45.0806 12.1393
45.2739 12.0108
45.4673 11.8562
45.6609 11.6361
45.8546 11.5124
46.0484 11.3215
46.2424 11.1684
46.4365 11.054
46.631 10.8713
46.8254 10.6922
47.0199 10.5331
47.2146 10.3997
47.4095 10.1918
47.6044 10.075
47.7996 9.93114
47.9948 9.74743
48.1902 9.60988
48.3858 9.50525
48.5815 9.38628
48.7774 9.19869
48.9734 9.09174
49.1696 8.9131
49.3661 8.83305
49.5626 8.66641
49.7592 8.54569
49.956 8.4392
50.153 8.28462
50.3501 8.17088
50.5474 8.04156
50.7448 7.9304
50.9424 7.83729
51.1402 7.67701
51.3381 7.53616
51.5362 7.43206
51.7344 7.29337
51.9328 7.16143
52.1316 7.06638
52.3304 6.9527
52.5293 6.83352
52.7284 6.74337
52.9276 6.64107
53.1271 6.51451
53.3267 6.37414
53.5265 6.27942
53.7264 6.19592
53.9266 6.06661
54.1269 5.93542
54.3274 5.79824
54.528 5.65331
54.7289 5.56881
54.9301 5.37741
55.1314 5.30836
55.3328 5.08773
55.5344 4.88265
55.7361 4.72791