File: XRD/Ni3Fe_FD0963.xy
TT I
1.27165 7.60876
1.45013 6.16789
1.62863 4.70958
1.80712 5.08968
1.98562 4.73799
2.16411 5.07759
2.34263 5.20048
2.52115 7.79522
2.69965 9.00302
2.87818 8.61073
3.05672 11.361
3.23527 15.2707
3.4138 18.6103
3.59237 23.9868
3.77094 25.8307
3.9495 29.6633
4.12809 34.6212
4.30669 187.288
4.4853 62.1555
4.6639 54.8523
4.84253 66.3896
5.02118 85.0053
5.19981 286.06
5.37848 173.036
5.55716 99.9622
5.73586 90.7806
5.91455 91.2167
6.09328 4628.51
6.27201 80.6591
6.45075 66.3224
6.62952 61.9971
6.8083 57.7089
6.98711 54.9074
7.16591 54.6128
7.34475 84.3341
7.5236 53.7991
7.70247 55.413
7.88135 56.7669
8.06026 61.1689
8.23919 68.3282
8.41812 83.4267
8.59709 1166.18
8.77609 96.5965
8.9551 89.5531
9.13412 80.7731
9.31318 81.2802
9.49226 82.5714
9.67134 96.3188
9.85047 97.9845
10.0296 306.918
10.2088 355.101
10.388 101.721
10.5672 527.837
10.7465 84.7365
10.9257 77.1182
11.105 70.6081
11.2844 68.9327
11.4637 63.8462
11.6431 62.4741
11.8225 61.6254
12.002 62.2392
12.1814 156.568
12.3609 68.5079
12.5405 63.3952
12.72 68.2805
12.8996 69.5887
13.0792 77.4743
13.2589 238.032
13.4386 118.342
13.6183 249.932
13.7981 94.2586
13.9779 74.3984
14.1577 71.3137
14.3376 70.1669
14.5175 67.8076
14.6974 68.9348
14.8774 106.95
15.0574 144.274
15.2374 69.1338
15.4175 65.1919
15.5976 64.5635
15.7778 91.7311
15.958 147.533
16.1382 61.2886
16.3185 57.4134
16.4988 54.3948
16.6792 53.6022
16.8596 54.22
17.04 54.5966
17.2205 65.5287
17.401 69.1322
17.5815 58.116
17.7622 60.065
17.9428 71.0687
18.1237 137.092
18.3044 90.0036
18.4852 74.7428
18.666 59.265
18.8469 57.0174
19.0278 55.8975
19.2088 58.1287
19.3898 74.593
19.5709 53.0937
19.752 52.2191
19.9332 55.042
20.1144 68.7078
20.2957 63.639
20.477 52.5608
20.6586 48.8015
20.84 47.9865
21.0215 47.5297
21.203 50.1003
21.3846 48.181
21.5662 47.8165
21.7479 51.5112
21.9297 63.3642
22.1115 55.1521
22.2933 48.9014
22.4753 47.897
22.6572 47.7779
22.8393 50.9414
23.0214 56.1987
23.2037 47.8505
23.3859 48.8461
23.5682 56.5142
23.7505 47.2472
23.9329 44.5993
24.1154 43.3499
24.2979 42.7522
24.4805 42.2639
24.6631 41.9728
24.8458 41.3994
25.0286 42.0465
25.2114 43.785
25.3943 43.7077
25.5773 40.1233
25.7605 39.646
25.9436 40.0836
26.1268 41.0905
26.31 39.3899
26.4933 40.1243
26.6767 41.4236
26.8601 39.7083
27.0437 38.166
27.2272 37.9172
27.4109 37.6976
27.5946 37.7352
27.7784 37.261
27.9623 37.7763
28.1462 38.1804
28.3304 36.5051
28.5145 35.213
28.6987 34.9
28.8829 34.8013
29.0673 34.0509
29.2517 33.732
29.4361 33.5366
29.6207 32.5778
29.8053 32.3644
29.99 32.0177
30.1748 31.8955
30.3597 31.7145
30.5447 31.6376
30.7297 31.6843
30.915 31.0621
31.1002 30.5221
31.2855 30.3698
31.4708 30.3184
31.6563 29.8278
31.8418 29.5782
32.0275 29.4066
32.2132 28.9134
32.399 28.5347
32.5848 28.0091
32.7708 27.6945
32.9569 27.5823
33.143 27.3307
33.3293 26.9815
33.5158 26.5575
33.7022 26.1686
33.8887 25.7884
34.0753 25.5168
34.262 25.1934
34.4488 24.8086
34.6357 24.5375
34.8227 24.2278
35.0098 24.0994
35.1969 23.7131
35.3842 23.6067
35.5716 23.407
35.759 23.049
35.9468 22.7584
36.1345 22.4796
36.3222 22.3346
36.5101 22.0092
36.6981 21.7109
36.8861 21.4285
37.0743 21.0535
37.2626 20.9128
37.451 20.6005
37.6395 20.4931
37.8281 20.1783
38.0168 19.7364
38.2056 19.6368
38.3945 19.2954
38.5837 19.1312
38.7728 18.9087
38.9621 18.632
39.1514 18.3661
39.3409 18.1122
39.5304 17.9063
39.7201 17.7383
39.9099 17.5271
40.0999 17.2818
40.2899 17.0776
40.48 16.8347
40.6703 16.6045
40.8607 16.4797
41.0512 16.1922
41.242 15.9236
41.4327 15.8075
41.6236 15.5472
41.8146 15.3842
42.0057 15.2082
42.1969 14.9806
42.3882 14.749
42.5797 14.5552
42.7713 14.3765
42.963 14.141
43.1549 14.0134
43.3468 13.7815
43.5389 13.5967
43.7312 13.4087
43.9237 13.2381
44.1162 13.0329
44.3088 12.8527
44.5016 12.7338
44.6945 12.5111
44.8875 12.321
45.0806 12.1684
45.2739 11.9981
45.4673 11.8416
45.6609 11.6567
45.8546 11.4739
46.0484 11.3023
46.2424 11.1347
46.4365 11.0168
46.631 10.81
46.8254 10.674
47.0199 10.5547
47.2146 10.3724
47.4095 10.2208
47.6044 10.0451
47.7996 9.92379
47.9948 9.788
48.1902 9.6347
48.3858 9.4721
48.5815 9.36631
48.7774 9.21992
48.9734 9.09358
49.1696 8.93955
49.3661 8.81743
49.5626 8.64821
49.7592 8.54422
49.956 8.40227
50.153 8.2817
50.3501 8.18199
50.5474 8.02793
50.7448 7.90031
50.9424 7.79553
51.1402 7.68938
51.3381 7.55566
51.5362 7.41227
51.7344 7.33144
51.9328 7.18764
52.1316 7.049
52.3304 6.9766
52.5293 6.83349
52.7284 6.71808
52.9276 6.59074
53.1271 6.57436
53.3267 6.39466
53.5265 6.23922
53.7264 6.15449
53.9266 6.0548
54.1269 6.00043
54.3274 5.88642
54.528 5.72607
54.7289 5.57155
54.9301 5.3679
55.1314 5.2615
55.3328 5.0588
55.5344 4.8963
55.7361 4.73887