File: XRD/Ni3Fe_FD0172.xy
TT I
1.27165 8.16037
1.45013 6.46711
1.62863 5.90165
1.80712 5.082
1.98562 5.10902
2.16411 4.89696
2.34263 4.08986
2.52115 3.69965
2.69965 6.31944
2.87818 7.9602
3.05672 11.2955
3.23527 14.6627
3.4138 18.7973
3.59237 21.8019
3.77094 25.1711
3.9495 28.8467
4.12809 32.6903
4.30669 38.2141
4.4853 45.1471
4.6639 54.2966
4.84253 66.603
5.02118 90.8812
5.19981 527.813
5.37848 416.111
5.55716 107.545
5.73586 95.5908
5.91455 104.789
6.09328 2867.62
6.27201 88.7798
6.45075 66.6675
6.62952 59.9812
6.8083 55.6472
6.98711 53.8655
7.16591 52.3583
7.34475 52.7225
7.5236 55.8011
7.70247 54.363
7.88135 56.4109
8.06026 60.9676
8.23919 68.3734
8.41812 84.0125
8.59709 910.729
8.77609 115.482
8.9551 85.3476
9.13412 81.6875
9.31318 86.4514
9.49226 84.0779
9.67134 89.0917
9.85047 99.4008
10.0296 537.279
10.2088 942.923
10.388 104.481
10.5672 343.308
10.7465 90.5356
10.9257 76.1533
11.105 70.3927
11.2844 66.5195
11.4637 63.6848
11.6431 62.4605
11.8225 61.4629
12.002 65.4458
12.1814 120.593
12.3609 75.0867
12.5405 63.6426
12.72 65.7533
12.8996 70.1266
13.0792 79.7066
13.2589 209.4
13.4386 203.061
13.6183 198.465
13.7981 149.167
13.9779 76.3347
14.1577 74.4398
14.3376 69.6883
14.5175 68.7769
14.6974 70.2567
14.8774 121.427
15.0574 204.483
15.2374 69.2649
15.4175 66.3676
15.5976 66.0121
15.7778 107.483
15.958 186.65
16.1382 62.0848
16.3185 57.6169
16.4988 55.4203
16.6792 54.4439
16.8596 54.6388
17.04 55.5893
17.2205 65.7772
17.401 81.3681
17.5815 59.3464
17.7622 61.7413
17.9428 83.5949
18.1237 117.848
18.3044 88.8408
18.4852 95.0192
18.666 61.2215
18.8469 58.5765
19.0278 57.013
19.2088 61.8771
19.3898 70.0271
19.5709 56.3096
19.752 53.778
19.9332 58.3193
20.1144 67.6836
20.2957 61.7647
20.477 59.0592
20.6586 50.0549
20.84 49.3778
21.0215 49.2883
21.203 50.0543
21.3846 50.7252
21.5662 49.2772
21.7479 54.3981
21.9297 62.8456
22.1115 56.5886
22.2933 52.534
22.4753 49.1324
22.6572 49.4441
22.8393 52.455
23.0214 57.8264
23.2037 50.1372
23.3859 52.1129
23.5682 54.3609
23.7505 53.3613
23.9329 45.8201
24.1154 44.8466
24.2979 43.8653
24.4805 43.2977
24.6631 43.4985
24.8458 42.8453
25.0286 43.3805
25.2114 44.998
25.3943 45.0755
25.5773 41.8919
25.7605 41.1338
25.9436 41.2527
26.1268 41.9155
26.31 41.2841
26.4933 41.4238
26.6767 42.5577
26.8601 41.5438
27.0437 39.8822
27.2272 39.2138
27.4109 38.9387
27.5946 39.0796
27.7784 38.7446
27.9623 38.7463
28.1462 39.7062
28.3304 38.2843
28.5145 36.5652
28.6987 36.16
28.8829 35.786
29.0673 35.3857
29.2517 34.8043
29.4361 34.6538
29.6207 33.7116
29.8053 33.3286
29.99 33.1094
30.1748 32.8166
30.3597 32.9124
30.5447 32.672
30.7297 32.6712
30.915 32.2863
31.1002 31.7778
31.2855 31.3588
31.4708 31.182
31.6563 31.1326
31.8418 30.6367
32.0275 30.4432
32.2132 30.0021
32.399 29.4252
32.5848 28.9121
32.7708 28.617
32.9569 28.545
33.143 28.235
33.3293 27.9409
33.5158 27.5392
33.7022 26.9364
33.8887 26.6401
34.0753 26.3627
34.262 26.0729
34.4488 25.7148
34.6357 25.3939
34.8227 24.9517
35.0098 24.8642
35.1969 24.6574
35.3842 24.3183
35.5716 24.1763
35.759 23.8687
35.9468 23.531
36.1345 23.2812
36.3222 23.0334
36.5101 22.7114
36.6981 22.4939
36.8861 22.2284
37.0743 21.8342
37.2626 21.5863
37.451 21.2831
37.6395 21.1356
37.8281 20.8551
38.0168 20.5361
38.2056 20.2748
38.3945 19.9484
38.5837 19.7274
38.7728 19.5205
38.9621 19.2565
39.1514 19.0563
39.3409 18.7468
39.5304 18.506
39.7201 18.3327
39.9099 18.082
40.0999 17.8421
40.2899 17.6221
40.48 17.382
40.6703 17.1879
40.8607 16.9961
41.0512 16.7342
41.242 16.5013
41.4327 16.2782
41.6236 16.0903
41.8146 15.9098
42.0057 15.6722
42.1969 15.4532
42.3882 15.2767
42.5797 15.0305
42.7713 14.8747
42.963 14.5957
43.1549 14.4183
43.3468 14.2009
43.5389 14.077
43.7312 13.8519
43.9237 13.656
44.1162 13.4419
44.3088 13.2533
44.5016 13.0747
44.6945 12.8751
44.8875 12.7106
45.0806 12.5482
45.2739 12.3495
45.4673 12.219
45.6609 12.0217
45.8546 11.8837
46.0484 11.6923
46.2424 11.4959
46.4365 11.3772
46.631 11.2141
46.8254 11.0043
47.0199 10.8394
47.2146 10.6685
47.4095 10.5173
47.6044 10.4064
47.7996 10.202
47.9948 10.105
48.1902 9.93489
48.3858 9.76525
48.5815 9.65378
48.7774 9.51218
48.9734 9.38865
49.1696 9.2363
49.3661 9.06158
49.5626 8.96302
49.7592 8.82506
49.956 8.74745
50.153 8.55912
50.3501 8.40677
50.5474 8.34039
50.7448 8.19282
50.9424 8.04741
51.1402 7.93435
51.3381 7.78082
51.5362 7.65592
51.7344 7.56351
51.9328 7.42736
52.1316 7.27805
52.3304 7.18017
52.5293 7.03985
52.7284 6.97951
52.9276 6.86391
53.1271 6.71568
53.3267 6.57902
53.5265 6.42995
53.7264 6.36678
53.9266 6.28793
54.1269 6.13492
54.3274 6.0352
54.528 5.8667
54.7289 5.68286
54.9301 5.48132
55.1314 5.37419
55.3328 5.13356
55.5344 4.94017
55.7361 4.81791