File: XRD/Ni3Fe_FD0848.xy
TT I
1.27165 7.11605
1.45013 6.25019
1.62863 5.4338
1.80712 4.92515
1.98562 4.69297
2.16411 5.214
2.34263 5.38374
2.52115 7.48777
2.69965 8.36753
2.87818 9.01178
3.05672 11.0826
3.23527 15.3883
3.4138 18.5908
3.59237 23.9208
3.77094 26.0483
3.9495 29.5612
4.12809 34.3604
4.30669 196.336
4.4853 62.7432
4.6639 54.7385
4.84253 66.8739
5.02118 85.122
5.19981 301.598
5.37848 176.772
5.55716 100.538
5.73586 91.0465
5.91455 91.4784
6.09328 4402.21
6.27201 80.9613
6.45075 66.2868
6.62952 62.2449
6.8083 57.9816
6.98711 55.1162
7.16591 54.2901
7.34475 86.443
7.5236 53.9617
7.70247 55.5481
7.88135 57.2333
8.06026 61.3888
8.23919 68.6323
8.41812 83.4253
8.59709 1159.01
8.77609 97.1818
8.9551 89.9451
9.13412 80.7938
9.31318 81.1745
9.49226 83.2774
9.67134 96.5233
9.85047 98.4938
10.0296 316.807
10.2088 396.007
10.388 102.492
10.5672 532.672
10.7465 85.3716
10.9257 77.3084
11.105 70.9655
11.2844 69.4782
11.4637 63.9443
11.6431 63.1193
11.8225 61.6361
12.002 62.7161
12.1814 154.398
12.3609 69.1345
12.5405 63.8403
12.72 68.736
12.8996 69.7864
13.0792 77.5671
13.2589 237.299
13.4386 121.499
13.6183 251.608
13.7981 96.079
13.9779 74.7374
14.1577 71.6904
14.3376 70.3333
14.5175 67.8946
14.6974 69.2825
14.8774 107.545
15.0574 147.695
15.2374 69.8506
15.4175 65.4871
15.5976 64.7008
15.7778 92.7506
15.958 151.025
16.1382 61.5179
16.3185 57.6213
16.4988 54.7852
16.6792 53.9612
16.8596 54.3609
17.04 54.9826
17.2205 65.8338
17.401 70.0448
17.5815 58.3108
17.7622 60.1998
17.9428 71.7611
18.1237 137.368
18.3044 90.3786
18.4852 75.9671
18.666 59.5315
18.8469 57.3673
19.0278 56.1059
19.2088 58.3699
19.3898 75.8368
19.5709 53.5579
19.752 52.4871
19.9332 55.2861
20.1144 68.9224
20.2957 63.7797
20.477 52.9172
20.6586 49.0332
20.84 48.2289
21.0215 47.9028
21.203 50.3346
21.3846 48.4708
21.5662 48.1637
21.7479 51.6907
21.9297 63.4076
22.1115 55.7013
22.2933 49.349
22.4753 48.3161
22.6572 48.0904
22.8393 51.1932
23.0214 56.3736
23.2037 48.0843
23.3859 48.781
23.5682 56.4338
23.7505 47.7674
23.9329 44.5889
24.1154 43.7373
24.2979 42.7412
24.4805 42.3397
24.6631 42.2906
24.8458 41.7062
25.0286 42.327
25.2114 44.0599
25.3943 44.1065
25.5773 40.4071
25.7605 40.0922
25.9436 40.3519
26.1268 41.1379
26.31 39.5993
26.4933 40.2721
26.6767 41.5805
26.8601 39.8685
27.0437 38.4826
27.2272 38.0757
27.4109 37.9295
27.5946 37.949
27.7784 37.4207
27.9623 37.9127
28.1462 38.3337
28.3304 36.6966
28.5145 35.5049
28.6987 35.1362
28.8829 35.0046
29.0673 34.1551
29.2517 33.8916
29.4361 33.6804
29.6207 32.7296
29.8053 32.4566
29.99 32.2729
30.1748 32.0241
30.3597 31.9283
30.5447 31.8446
30.7297 31.8035
30.915 31.2158
31.1002 30.7915
31.2855 30.5067
31.4708 30.4223
31.6563 30.066
31.8418 29.7843
32.0275 29.6305
32.2132 29.0447
32.399 28.5533
32.5848 28.1532
32.7708 27.8347
32.9569 27.6753
33.143 27.3339
33.3293 27.0756
33.5158 26.6695
33.7022 26.1778
33.8887 26.0647
34.0753 25.5822
34.262 25.3008
34.4488 25.0751
34.6357 24.6372
34.8227 24.3653
35.0098 24.1491
35.1969 23.8937
35.3842 23.6563
35.5716 23.5036
35.759 23.2096
35.9468 22.8161
36.1345 22.6222
36.3222 22.4249
36.5101 22.1328
36.6981 21.8691
36.8861 21.5692
37.0743 21.2397
37.2626 21.0221
37.451 20.791
37.6395 20.5521
37.8281 20.2987
38.0168 19.9267
38.2056 19.7008
38.3945 19.4404
38.5837 19.2333
38.7728 19.0555
38.9621 18.7342
39.1514 18.5302
39.3409 18.2465
39.5304 18.069
39.7201 17.85
39.9099 17.6328
40.0999 17.3338
40.2899 17.1688
40.48 16.9029
40.6703 16.7108
40.8607 16.4962
41.0512 16.2899
41.242 16.0909
41.4327 15.8776
41.6236 15.6885
41.8146 15.4892
42.0057 15.1656
42.1969 15.0603
42.3882 14.8667
42.5797 14.6822
42.7713 14.4136
42.963 14.2677
43.1549 14.0938
43.3468 13.8119
43.5389 13.6834
43.7312 13.4809
43.9237 13.3149
44.1162 13.1344
44.3088 12.9606
44.5016 12.7409
44.6945 12.572
44.8875 12.3417
45.0806 12.2549
45.2739 12.075
45.4673 11.8897
45.6609 11.7142
45.8546 11.5794
46.0484 11.3929
46.2424 11.2556
46.4365 11.096
46.631 10.9374
46.8254 10.7261
47.0199 10.6054
47.2146 10.4619
47.4095 10.2869
47.6044 10.1788
47.7996 9.99506
47.9948 9.86549
48.1902 9.69793
48.3858 9.57037
48.5815 9.44412
48.7774 9.30435
48.9734 9.11236
49.1696 8.98555
49.3661 8.85807
49.5626 8.71376
49.7592 8.58094
49.956 8.46222
50.153 8.35528
50.3501 8.20662
50.5474 8.05717
50.7448 7.95899
50.9424 7.82176
51.1402 7.72613
51.3381 7.58201
51.5362 7.46653
51.7344 7.37015
51.9328 7.2251
52.1316 7.04613
52.3304 6.98993
52.5293 6.87632
52.7284 6.73798
52.9276 6.66026
53.1271 6.52065
53.3267 6.40668
53.5265 6.28203
53.7264 6.21265
53.9266 6.0919
54.1269 5.98273
54.3274 5.89884
54.528 5.76563
54.7289 5.57257
54.9301 5.41935
55.1314 5.29056
55.3328 5.10796
55.5344 4.91338
55.7361 4.78946