File: XRD/Ni3Fe_FD0326.xy
TT I
1.27165 7.78951
1.45013 6.64227
1.62863 5.24307
1.80712 5.17034
1.98562 4.67269
2.16411 4.44992
2.34263 4.87347
2.52115 5.50388
2.69965 6.79109
2.87818 8.04711
3.05672 10.9992
3.23527 15.231
3.4138 18.8455
3.59237 23.785
3.77094 26.3757
3.9495 30.1114
4.12809 35.6021
4.30669 188.872
4.4853 63.5816
4.6639 56.8779
4.84253 69.1457
5.02118 91.7227
5.19981 540.718
5.37848 231.198
5.55716 106.221
5.73586 96.0918
5.91455 101.637
6.09328 3994.0
6.27201 86.6559
6.45075 69.8141
6.62952 64.1817
6.8083 59.6661
6.98711 57.3751
7.16591 56.8674
7.34475 87.1657
7.5236 55.7721
7.70247 57.5322
7.88135 59.5961
8.06026 64.3293
8.23919 71.8389
8.41812 88.676
8.59709 1146.36
8.77609 104.85
8.9551 93.0159
9.13412 84.2796
9.31318 85.2909
9.49226 87.2357
9.67134 100.184
9.85047 103.908
10.0296 413.718
10.2088 495.775
10.388 109.219
10.5672 478.696
10.7465 89.2914
10.9257 80.3149
11.105 73.8896
11.2844 71.961
11.4637 66.7481
11.6431 65.5042
11.8225 64.3061
12.002 66.2081
12.1814 148.617
12.3609 72.2332
12.5405 66.5173
12.72 71.6811
12.8996 73.4151
13.0792 82.3004
13.2589 239.695
13.4386 133.867
13.6183 238.262
13.7981 103.428
13.9779 78.0212
14.1577 74.531
14.3376 73.4507
14.5175 70.7864
14.6974 72.7879
14.8774 117.071
15.0574 157.912
15.2374 72.8289
15.4175 68.3855
15.5976 68.0139
15.7778 100.857
15.958 167.66
16.1382 64.3497
16.3185 60.2395
16.4988 57.1909
16.6792 56.3164
16.8596 56.9183
17.04 57.7962
17.2205 68.6925
17.401 74.5695
17.5815 61.0135
17.7622 63.3081
17.9428 78.0453
18.1237 139.767
18.3044 91.3971
18.4852 81.2305
18.666 62.3629
18.8469 59.9215
19.0278 58.6254
19.2088 61.8183
19.3898 77.6276
19.5709 55.9499
19.752 54.8907
19.9332 58.3302
20.1144 71.2426
20.2957 64.4096
20.477 55.4937
20.6586 51.1201
20.84 50.3797
21.0215 49.989
21.203 52.0073
21.3846 50.7515
21.5662 50.4101
21.7479 54.5342
21.9297 66.4226
22.1115 57.1622
22.2933 51.6269
22.4753 50.3819
22.6572 50.4897
22.8393 53.6931
23.0214 59.1776
23.2037 50.305
23.3859 51.5012
23.5682 57.715
23.7505 49.9798
23.9329 46.6835
24.1154 45.3565
24.2979 44.7039
24.4805 44.1252
24.6631 44.1782
24.8458 43.6169
25.0286 44.1923
25.2114 46.0541
25.3943 46.0958
25.5773 42.254
25.7605 41.6398
25.9436 42.0857
26.1268 42.877
26.31 41.3906
26.4933 41.934
26.6767 43.3922
26.8601 41.7219
27.0437 40.0641
27.2272 39.7152
27.4109 39.5488
27.5946 39.5892
27.7784 38.9704
27.9623 39.428
28.1462 40.0005
28.3304 38.3418
28.5145 37.1047
28.6987 36.6244
28.8829 36.3901
29.0673 35.761
29.2517 35.3659
29.4361 35.1501
29.6207 34.2247
29.8053 33.9021
29.99 33.5368
30.1748 33.2603
30.3597 33.1973
30.5447 33.029
30.7297 33.0722
30.915 32.6139
31.1002 32.1361
31.2855 31.7849
31.4708 31.7173
31.6563 31.3279
31.8418 31.0705
32.0275 30.8692
32.2132 30.2454
32.399 29.7833
32.5848 29.2699
32.7708 29.0579
32.9569 28.7979
33.143 28.6359
33.3293 28.2402
33.5158 27.8309
33.7022 27.4185
33.8887 27.0407
34.0753 26.7514
34.262 26.4551
34.4488 26.0889
34.6357 25.7886
34.8227 25.4527
35.0098 25.2482
35.1969 24.933
35.3842 24.6889
35.5716 24.4419
35.759 24.1906
35.9468 23.8624
36.1345 23.5823
36.3222 23.2975
36.5101 23.0398
36.6981 22.7561
36.8861 22.4703
37.0743 22.0829
37.2626 21.9301
37.451 21.6836
37.6395 21.4524
37.8281 21.0587
38.0168 20.8034
38.2056 20.5572
38.3945 20.25
38.5837 20.0287
38.7728 19.7703
38.9621 19.493
39.1514 19.2614
39.3409 18.9507
39.5304 18.7229
39.7201 18.5834
39.9099 18.2714
40.0999 18.0795
40.2899 17.877
40.48 17.6511
40.6703 17.3743
40.8607 17.2503
41.0512 17.0088
41.242 16.7232
41.4327 16.5333
41.6236 16.2928
41.8146 16.1255
42.0057 15.9286
42.1969 15.6601
42.3882 15.4997
42.5797 15.2376
42.7713 15.0677
42.963 14.8379
43.1549 14.6545
43.3468 14.4222
43.5389 14.2088
43.7312 14.0418
43.9237 13.8518
44.1162 13.6757
44.3088 13.4297
44.5016 13.3284
44.6945 13.0997
44.8875 12.9784
45.0806 12.7345
45.2739 12.5299
45.4673 12.447
45.6609 12.2245
45.8546 12.042
46.0484 11.869
46.2424 11.7052
46.4365 11.5115
46.631 11.3583
46.8254 11.17
47.0199 11.0702
47.2146 10.8781
47.4095 10.6617
47.6044 10.507
47.7996 10.3949
47.9948 10.2535
48.1902 10.1013
48.3858 9.93905
48.5815 9.79669
48.7774 9.67041
48.9734 9.52937
49.1696 9.35184
49.3661 9.24206
49.5626 9.11585
49.7592 8.9571
49.956 8.86133
50.153 8.67031
50.3501 8.53844
50.5474 8.40072
50.7448 8.26397
50.9424 8.17593
51.1402 8.06107
51.3381 7.86335
51.5362 7.77334
51.7344 7.63001
51.9328 7.51258
52.1316 7.33439
52.3304 7.25846
52.5293 7.14634
52.7284 6.99106
52.9276 6.91027
53.1271 6.78749
53.3267 6.72279
53.5265 6.55844
53.7264 6.47612
53.9266 6.30821
54.1269 6.25279
54.3274 6.13914
54.528 5.93679
54.7289 5.81169
54.9301 5.62145
55.1314 5.52193
55.3328 5.28987
55.5344 5.10771
55.7361 4.9384