File: XRD/Ni3Fe_FD0336.xy
TT I
1.27165 8.06938
1.45013 6.32837
1.62863 5.73202
1.80712 5.19949
1.98562 5.09094
2.16411 4.86285
2.34263 5.57549
2.52115 6.16913
2.69965 6.68832
2.87818 8.86305
3.05672 11.2515
3.23527 15.4152
3.4138 19.016
3.59237 23.9165
3.77094 26.457
3.9495 30.0962
4.12809 34.7833
4.30669 157.402
4.4853 60.3961
4.6639 56.9492
4.84253 69.609
5.02118 91.7602
5.19981 571.378
5.37848 224.682
5.55716 106.121
5.73586 96.3382
5.91455 101.575
6.09328 4088.14
6.27201 85.9088
6.45075 69.4519
6.62952 64.1582
6.8083 59.7847
6.98711 56.9219
7.16591 56.4842
7.34475 80.7821
7.5236 56.2048
7.70247 57.5019
7.88135 59.5852
8.06026 63.862
8.23919 71.4154
8.41812 88.7013
8.59709 1165.51
8.77609 104.863
8.9551 92.7411
9.13412 84.5868
9.31318 85.5439
9.49226 87.5073
9.67134 98.9881
9.85047 103.4
10.0296 429.853
10.2088 490.92
10.388 109.639
10.5672 484.427
10.7465 89.4776
10.9257 80.0275
11.105 73.6395
11.2844 71.4975
11.4637 66.6105
11.6431 65.5143
11.8225 64.3349
12.002 66.121
12.1814 148.896
12.3609 71.6276
12.5405 66.6294
12.72 70.8941
12.8996 73.073
13.0792 82.4312
13.2589 244.602
13.4386 133.057
13.6183 241.929
13.7981 102.415
13.9779 78.1597
14.1577 74.323
14.3376 72.9708
14.5175 71.0157
14.6974 72.7335
14.8774 119.03
15.0574 155.73
15.2374 72.4896
15.4175 68.3511
15.5976 68.1825
15.7778 102.0
15.958 164.892
16.1382 63.8846
16.3185 60.0116
16.4988 57.019
16.6792 56.0335
16.8596 56.6948
17.04 57.7669
17.2205 68.9511
17.401 74.3336
17.5815 61.051
17.7622 63.2525
17.9428 78.6799
18.1237 139.892
18.3044 91.6151
18.4852 80.2623
18.666 62.3822
18.8469 59.7814
19.0278 58.6021
19.2088 62.0176
19.3898 77.4464
19.5709 56.0433
19.752 54.949
19.9332 58.4543
20.1144 71.4137
20.2957 64.3991
20.477 55.3731
20.6586 51.1203
20.84 50.3242
21.0215 50.1191
21.203 52.2016
21.3846 50.4605
21.5662 50.4418
21.7479 54.64
21.9297 66.4923
22.1115 57.2805
22.2933 51.4676
22.4753 50.2478
22.6572 50.6949
22.8393 53.6833
23.0214 58.9561
23.2037 50.4192
23.3859 51.4867
23.5682 57.7064
23.7505 49.9586
23.9329 46.6492
24.1154 45.3714
24.2979 44.8146
24.4805 44.2548
24.6631 44.2493
24.8458 43.5518
25.0286 44.215
25.2114 46.0381
25.3943 45.961
25.5773 42.1976
25.7605 41.7941
25.9436 42.1319
26.1268 42.9053
26.31 41.4917
26.4933 42.0477
26.6767 43.3795
26.8601 41.5713
27.0437 39.9273
27.2272 39.6143
27.4109 39.5863
27.5946 39.5645
27.7784 38.9572
27.9623 39.4973
28.1462 39.9691
28.3304 38.3984
28.5145 37.0244
28.6987 36.7558
28.8829 36.4028
29.0673 35.7495
29.2517 35.3581
29.4361 35.0673
29.6207 34.0176
29.8053 33.7467
29.99 33.6427
30.1748 33.4238
30.3597 33.3553
30.5447 33.1836
30.7297 33.1015
30.915 32.5377
31.1002 32.065
31.2855 31.7414
31.4708 31.7051
31.6563 31.2806
31.8418 31.0356
32.0275 30.8683
32.2132 30.2441
32.399 29.7425
32.5848 29.287
32.7708 28.9964
32.9569 28.914
33.143 28.4558
33.3293 28.2527
33.5158 27.8587
33.7022 27.3205
33.8887 27.0792
34.0753 26.7121
34.262 26.4354
34.4488 26.0371
34.6357 25.672
34.8227 25.4333
35.0098 25.2115
35.1969 24.8073
35.3842 24.6778
35.5716 24.5665
35.759 24.1485
35.9468 23.7457
36.1345 23.5787
36.3222 23.3518
36.5101 23.0716
36.6981 22.7059
36.8861 22.48
37.0743 22.1005
37.2626 21.8816
37.451 21.5776
37.6395 21.4417
37.8281 21.0234
38.0168 20.7774
38.2056 20.5254
38.3945 20.2163
38.5837 20.0234
38.7728 19.7626
38.9621 19.5641
39.1514 19.1961
39.3409 19.0309
39.5304 18.7529
39.7201 18.586
39.9099 18.4111
40.0999 18.0714
40.2899 17.8517
40.48 17.6142
40.6703 17.3846
40.8607 17.221
41.0512 17.0172
41.242 16.754
41.4327 16.5381
41.6236 16.3033
41.8146 16.1165
42.0057 15.8696
42.1969 15.6337
42.3882 15.4729
42.5797 15.219
42.7713 15.033
42.963 14.811
43.1549 14.6537
43.3468 14.405
43.5389 14.2175
43.7312 14.0138
43.9237 13.7904
44.1162 13.6232
44.3088 13.4495
44.5016 13.2609
44.6945 13.0958
44.8875 12.8921
45.0806 12.7508
45.2739 12.5022
45.4673 12.3535
45.6609 12.1701
45.8546 12.0539
46.0484 11.9069
46.2424 11.6547
46.4365 11.487
46.631 11.3445
46.8254 11.1699
47.0199 11.0016
47.2146 10.8509
47.4095 10.697
47.6044 10.525
47.7996 10.388
47.9948 10.2343
48.1902 10.0845
48.3858 9.93135
48.5815 9.8116
48.7774 9.62062
48.9734 9.48637
49.1696 9.35005
49.3661 9.23757
49.5626 9.04071
49.7592 8.93276
49.956 8.83039
50.153 8.67601
50.3501 8.55218
50.5474 8.40293
50.7448 8.29551
50.9424 8.13689
51.1402 8.02056
51.3381 7.8904
51.5362 7.74801
51.7344 7.65054
51.9328 7.49103
52.1316 7.3548
52.3304 7.28184
52.5293 7.09105
52.7284 7.01365
52.9276 6.87727
53.1271 6.81941
53.3267 6.67341
53.5265 6.52881
53.7264 6.47088
53.9266 6.28076
54.1269 6.22352
54.3274 6.12606
54.528 5.96403
54.7289 5.80968
54.9301 5.6237
55.1314 5.47174
55.3328 5.2835
55.5344 5.08772
55.7361 4.96233