File: XRD/Ni3Fe_FD0716.xy
TT I
1.27165 7.15452
1.45013 5.5609
1.62863 5.0455
1.80712 4.6983
1.98562 4.49413
2.16411 5.03409
2.34263 5.4785
2.52115 6.69147
2.69965 8.24146
2.87818 8.85024
3.05672 10.9381
3.23527 15.5313
3.4138 18.7325
3.59237 23.2756
3.77094 25.815
3.9495 29.2337
4.12809 34.3939
4.30669 101.516
4.4853 53.9567
4.6639 55.8298
4.84253 68.8328
5.02118 88.5518
5.19981 399.557
5.37848 200.586
5.55716 103.091
5.73586 93.4312
5.91455 96.1408
6.09328 4519.23
6.27201 80.9724
6.45075 69.6446
6.62952 62.6676
6.8083 58.9735
6.98711 55.8494
7.16591 56.2301
7.34475 66.7952
7.5236 54.1821
7.70247 56.815
7.88135 57.5358
8.06026 62.604
8.23919 69.9132
8.41812 84.2461
8.59709 1219.94
8.77609 98.5888
8.9551 89.3134
9.13412 82.8641
9.31318 84.7808
9.49226 85.2244
9.67134 95.3272
9.85047 101.836
10.0296 365.213
10.2088 389.898
10.388 105.572
10.5672 504.872
10.7465 86.4315
10.9257 78.1301
11.105 71.4642
11.2844 68.4848
11.4637 64.8243
11.6431 63.3839
11.8225 62.6504
12.002 64.6227
12.1814 154.292
12.3609 67.3452
12.5405 65.0491
12.72 67.871
12.8996 71.7459
13.0792 80.3133
13.2589 250.689
13.4386 124.077
13.6183 255.818
13.7981 96.4543
13.9779 76.0858
14.1577 72.066
14.3376 70.3847
14.5175 69.1071
14.6974 70.6102
14.8774 114.837
15.0574 144.715
15.2374 69.3286
15.4175 66.4901
15.5976 65.7743
15.7778 97.8586
15.958 152.156
16.1382 61.5343
16.3185 57.9743
16.4988 55.3367
16.6792 54.3469
16.8596 54.8687
17.04 55.9526
17.2205 67.4081
17.401 70.5349
17.5815 59.2812
17.7622 61.3256
17.9428 74.4179
18.1237 138.765
18.3044 91.6256
18.4852 75.9361
18.666 60.2815
18.8469 58.0126
19.0278 56.5831
19.2088 59.4554
19.3898 74.9927
19.5709 54.0967
19.752 53.3007
19.9332 56.369
20.1144 69.4227
20.2957 63.7445
20.477 53.1925
20.6586 49.5636
20.84 48.8196
21.0215 48.5668
21.203 50.8254
21.3846 48.9614
21.5662 48.9175
21.7479 52.9382
21.9297 64.5683
22.1115 55.933
22.2933 49.7378
22.4753 48.7344
22.6572 48.9601
22.8393 52.1988
23.0214 57.1144
23.2037 48.7222
23.3859 49.853
23.5682 56.912
23.7505 48.0579
23.9329 45.2313
24.1154 44.0158
24.2979 43.2633
24.4805 42.7728
24.6631 42.8511
24.8458 42.2014
25.0286 42.8528
25.2114 44.6336
25.3943 44.3796
25.5773 40.7203
25.7605 40.3185
25.9436 40.8136
26.1268 41.6393
26.31 40.1646
26.4933 40.6262
26.6767 42.1493
26.8601 40.3171
27.0437 38.8273
27.2272 38.5325
27.4109 38.5102
27.5946 38.4123
27.7784 37.9373
27.9623 38.3919
28.1462 38.7594
28.3304 37.1062
28.5145 35.91
28.6987 35.4674
28.8829 35.3434
29.0673 34.5408
29.2517 34.3849
29.4361 34.094
29.6207 33.1286
29.8053 32.8157
29.99 32.5295
30.1748 32.3699
30.3597 32.1888
30.5447 32.1825
30.7297 32.1728
30.915 31.5115
31.1002 31.0834
31.2855 30.8143
31.4708 30.7974
31.6563 30.3203
31.8418 30.158
32.0275 29.8877
32.2132 29.2851
32.399 28.9507
32.5848 28.505
32.7708 28.1119
32.9569 27.8913
33.143 27.749
33.3293 27.3597
33.5158 26.9379
33.7022 26.4669
33.8887 26.2689
34.0753 25.8473
34.262 25.5741
34.4488 25.2251
34.6357 24.9671
34.8227 24.6483
35.0098 24.4362
35.1969 24.1481
35.3842 23.8721
35.5716 23.6742
35.759 23.4343
35.9468 23.0596
36.1345 22.8773
36.3222 22.5915
36.5101 22.3518
36.6981 22.0037
36.8861 21.7566
37.0743 21.4843
37.2626 21.1802
37.451 20.9079
37.6395 20.8209
37.8281 20.4022
38.0168 20.1823
38.2056 19.9522
38.3945 19.6173
38.5837 19.4037
38.7728 19.1202
38.9621 18.9145
39.1514 18.6646
39.3409 18.3624
39.5304 18.1671
39.7201 17.9908
39.9099 17.7741
40.0999 17.5377
40.2899 17.2765
40.48 17.0719
40.6703 16.8867
40.8607 16.6924
41.0512 16.4292
41.242 16.1896
41.4327 16.0222
41.6236 15.8194
41.8146 15.6386
42.0057 15.4053
42.1969 15.1926
42.3882 15.0091
42.5797 14.8238
42.7713 14.6065
42.963 14.408
43.1549 14.1786
43.3468 13.9471
43.5389 13.8238
43.7312 13.5749
43.9237 13.4825
44.1162 13.2327
44.3088 12.9782
44.5016 12.8854
44.6945 12.7487
44.8875 12.5149
45.0806 12.3369
45.2739 12.1388
45.4673 12.0275
45.6609 11.8198
45.8546 11.6837
46.0484 11.4691
46.2424 11.3062
46.4365 11.1483
46.631 10.9873
46.8254 10.8569
47.0199 10.6837
47.2146 10.5455
47.4095 10.3653
47.6044 10.1876
47.7996 10.0781
47.9948 9.93634
48.1902 9.73197
48.3858 9.67658
48.5815 9.53938
48.7774 9.38153
48.9734 9.24054
49.1696 9.07081
49.3661 8.92045
49.5626 8.78447
49.7592 8.65911
49.956 8.5811
50.153 8.39672
50.3501 8.23968
50.5474 8.15108
50.7448 8.0144
50.9424 7.90968
51.1402 7.7917
51.3381 7.6432
51.5362 7.51768
51.7344 7.37137
51.9328 7.2818
52.1316 7.17447
52.3304 7.05706
52.5293 6.94426
52.7284 6.81453
52.9276 6.71439
53.1271 6.60754
53.3267 6.51304
53.5265 6.35373
53.7264 6.2436
53.9266 6.14789
54.1269 6.05708
54.3274 5.95259
54.528 5.80175
54.7289 5.65947
54.9301 5.44136
55.1314 5.35166
55.3328 5.1208
55.5344 4.96222
55.7361 4.85543