File: XRD/Ni3Fe_FD0585.xy
TT I
1.27165 6.90888
1.45013 6.07035
1.62863 5.30859
1.80712 5.15257
1.98562 4.27399
2.16411 4.52819
2.34263 5.42367
2.52115 6.9739
2.69965 8.10225
2.87818 8.8987
3.05672 11.4452
3.23527 14.6733
3.4138 18.958
3.59237 23.0177
3.77094 25.9048
3.9495 29.7141
4.12809 34.0933
4.30669 117.41
4.4853 55.411
4.6639 56.0938
4.84253 69.0603
5.02118 88.1882
5.19981 476.516
5.37848 200.651
5.55716 103.814
5.73586 94.0252
5.91455 96.994
6.09328 4415.01
6.27201 82.0254
6.45075 68.9485
6.62952 62.9612
6.8083 59.2031
6.98711 55.6437
7.16591 55.9697
7.34475 71.232
7.5236 54.4873
7.70247 56.675
7.88135 58.1549
8.06026 63.1952
8.23919 69.7092
8.41812 85.7256
8.59709 1259.36
8.77609 99.6936
8.9551 90.0312
9.13412 83.2238
9.31318 84.9231
9.49226 85.8315
9.67134 95.9491
9.85047 101.618
10.0296 381.437
10.2088 370.917
10.388 106.966
10.5672 519.602
10.7465 87.103
10.9257 78.1206
11.105 71.6708
11.2844 69.1479
11.4637 65.2203
11.6431 63.8089
11.8225 62.9816
12.002 65.1666
12.1814 156.309
12.3609 67.9583
12.5405 65.2797
12.72 68.8154
12.8996 71.7492
13.0792 81.0785
13.2589 253.034
13.4386 121.473
13.6183 254.201
13.7981 96.466
13.9779 76.2302
14.1577 72.3219
14.3376 71.0413
14.5175 69.4173
14.6974 71.3731
14.8774 116.559
15.0574 143.058
15.2374 70.1281
15.4175 66.8896
15.5976 66.7553
15.7778 99.209
15.958 149.619
16.1382 61.9199
16.3185 58.5121
16.4988 55.6586
16.6792 54.9638
16.8596 55.3529
17.04 56.5984
17.2205 67.9988
17.401 70.6507
17.5815 59.8299
17.7622 61.7764
17.9428 75.6303
18.1237 142.049
18.3044 91.8722
18.4852 76.736
18.666 60.808
18.8469 58.4086
19.0278 57.2705
19.2088 60.0563
19.3898 76.1887
19.5709 54.4683
19.752 53.8523
19.9332 57.0773
20.1144 70.1123
20.2957 64.1899
20.477 53.6185
20.6586 50.0424
20.84 48.9367
21.0215 48.8053
21.203 51.3239
21.3846 49.1683
21.5662 49.4768
21.7479 53.6315
21.9297 65.0236
22.1115 56.388
22.2933 50.0856
22.4753 49.0547
22.6572 49.25
22.8393 52.5765
23.0214 57.4541
23.2037 49.0763
23.3859 50.3644
23.5682 57.1953
23.7505 48.2818
23.9329 45.3556
24.1154 44.2986
24.2979 43.8494
24.4805 43.2048
24.6631 43.187
24.8458 42.4936
25.0286 43.1723
25.2114 45.0477
25.3943 44.8962
25.5773 41.0816
25.7605 40.6641
25.9436 41.0273
26.1268 41.9965
26.31 40.2195
26.4933 41.176
26.6767 42.3615
26.8601 40.6055
27.0437 39.1189
27.2272 38.6653
27.4109 38.8192
27.5946 38.6488
27.7784 38.2086
27.9623 38.6852
28.1462 38.9423
28.3304 37.3984
28.5145 36.1754
28.6987 35.7592
28.8829 35.629
29.0673 34.7932
29.2517 34.5022
29.4361 34.2407
29.6207 33.3244
29.8053 33.0769
29.99 32.7665
30.1748 32.7158
30.3597 32.3596
30.5447 32.477
30.7297 32.3848
30.915 31.8888
31.1002 31.322
31.2855 31.0138
31.4708 31.0457
31.6563 30.5343
31.8418 30.4777
32.0275 30.1048
32.2132 29.6019
32.399 29.1397
32.5848 28.6623
32.7708 28.2742
32.9569 28.2274
33.143 27.9124
33.3293 27.5498
33.5158 27.1604
33.7022 26.8012
33.8887 26.467
34.0753 26.2049
34.262 25.8151
34.4488 25.4128
34.6357 25.1181
34.8227 24.8434
35.0098 24.5606
35.1969 24.3284
35.3842 24.0917
35.5716 23.8875
35.759 23.5406
35.9468 23.2118
36.1345 23.066
36.3222 22.8111
36.5101 22.543
36.6981 22.2383
36.8861 21.9306
37.0743 21.6128
37.2626 21.4093
37.451 21.0694
37.6395 20.8969
37.8281 20.5628
38.0168 20.3329
38.2056 20.0492
38.3945 19.7417
38.5837 19.5682
38.7728 19.3014
38.9621 19.0183
39.1514 18.8496
39.3409 18.5404
39.5304 18.3537
39.7201 18.1119
39.9099 17.9452
40.0999 17.7118
40.2899 17.4292
40.48 17.212
40.6703 16.9962
40.8607 16.792
41.0512 16.6359
41.242 16.3693
41.4327 16.1162
41.6236 15.9225
41.8146 15.747
42.0057 15.5102
42.1969 15.2864
42.3882 15.0867
42.5797 14.8685
42.7713 14.723
42.963 14.5434
43.1549 14.3036
43.3468 14.1217
43.5389 13.906
43.7312 13.691
43.9237 13.5485
44.1162 13.3324
44.3088 13.1662
44.5016 12.993
44.6945 12.8204
44.8875 12.5851
45.0806 12.4117
45.2739 12.261
45.4673 12.1032
45.6609 11.902
45.8546 11.7472
46.0484 11.6118
46.2424 11.4216
46.4365 11.2849
46.631 11.0975
46.8254 10.8881
47.0199 10.7516
47.2146 10.6203
47.4095 10.4242
47.6044 10.326
47.7996 10.138
47.9948 9.99396
48.1902 9.82464
48.3858 9.70546
48.5815 9.55364
48.7774 9.4279
48.9734 9.30006
49.1696 9.14613
49.3661 9.00988
49.5626 8.83195
49.7592 8.69332
49.956 8.60213
50.153 8.48773
50.3501 8.3233
50.5474 8.2225
50.7448 8.09895
50.9424 7.93282
51.1402 7.84525
51.3381 7.67225
51.5362 7.61402
51.7344 7.45015
51.9328 7.34011
52.1316 7.19181
52.3304 7.14034
52.5293 6.98318
52.7284 6.87974
52.9276 6.75861
53.1271 6.67728
53.3267 6.5294
53.5265 6.45795
53.7264 6.31033
53.9266 6.19191
54.1269 6.08158
54.3274 5.96782
54.528 5.85652
54.7289 5.6639
54.9301 5.52785
55.1314 5.37114
55.3328 5.18938
55.5344 4.98426
55.7361 4.80827