File: XRD/Ni3Fe_FD0739.xy
TT I
1.27165 7.32818
1.45013 5.72702
1.62863 4.75343
1.80712 5.11821
1.98562 4.88944
2.16411 4.91687
2.34263 5.60354
2.52115 6.94498
2.69965 8.27733
2.87818 8.45917
3.05672 10.7754
3.23527 15.114
3.4138 19.2969
3.59237 24.0497
3.77094 26.1345
3.9495 29.4986
4.12809 34.919
4.30669 217.146
4.4853 65.5328
4.6639 55.4169
4.84253 67.1159
5.02118 86.2955
5.19981 319.3
5.37848 184.679
5.55716 101.506
5.73586 91.0582
5.91455 92.9037
6.09328 4566.87
6.27201 82.711
6.45075 67.032
6.62952 62.3202
6.8083 58.4098
6.98711 55.6365
7.16591 55.4104
7.34475 91.1197
7.5236 54.3604
7.70247 55.9248
7.88135 57.6879
8.06026 61.8022
8.23919 69.2179
8.41812 84.8923
8.59709 1158.45
8.77609 98.773
8.9551 90.9294
9.13412 81.2982
9.31318 81.8847
9.49226 84.0079
9.67134 98.1501
9.85047 99.056
10.0296 322.986
10.2088 413.029
10.388 103.632
10.5672 520.91
10.7465 86.0677
10.9257 78.0636
11.105 71.5009
11.2844 70.1618
11.4637 64.6631
11.6431 63.4476
11.8225 62.3756
12.002 62.9077
12.1814 151.703
12.3609 70.6425
12.5405 64.0198
12.72 69.555
12.8996 70.3934
13.0792 78.1017
13.2589 235.265
13.4386 126.719
13.6183 246.711
13.7981 98.2748
13.9779 75.2133
14.1577 71.9327
14.3376 71.4562
14.5175 68.3151
14.6974 70.0272
14.8774 108.332
15.0574 150.499
15.2374 70.8121
15.4175 65.772
15.5976 65.2828
15.7778 92.9211
15.958 156.247
16.1382 62.5596
16.3185 58.4251
16.4988 55.241
16.6792 54.3961
16.8596 55.1047
17.04 55.228
17.2205 66.1881
17.401 70.4511
17.5815 58.8305
17.7622 60.9239
17.9428 72.3942
18.1237 138.086
18.3044 90.3973
18.4852 77.2678
18.666 60.0132
18.8469 57.63
19.0278 56.5078
19.2088 59.2754
19.3898 75.9459
19.5709 54.0182
19.752 52.9486
19.9332 55.7468
20.1144 69.3998
20.2957 63.6406
20.477 53.5757
20.6586 49.3237
20.84 48.6602
21.0215 48.2564
21.203 50.6082
21.3846 48.6452
21.5662 48.4296
21.7479 52.2333
21.9297 64.3311
22.1115 55.78
22.2933 49.6839
22.4753 48.8193
22.6572 48.5312
22.8393 51.4705
23.0214 57.0058
23.2037 48.6457
23.3859 49.3141
23.5682 56.884
23.7505 48.1835
23.9329 44.9728
24.1154 44.0106
24.2979 43.1767
24.4805 42.713
24.6631 42.5565
24.8458 42.1721
25.0286 42.6577
25.2114 44.3729
25.3943 44.4236
25.5773 40.764
25.7605 40.2336
25.9436 40.7101
26.1268 41.3826
26.31 39.8628
26.4933 40.5363
26.6767 41.7303
26.8601 40.2953
27.0437 38.619
27.2272 38.339
27.4109 38.1693
27.5946 38.2212
27.7784 37.5727
27.9623 38.4028
28.1462 38.6372
28.3304 37.0678
28.5145 35.7486
28.6987 35.473
28.8829 35.3014
29.0673 34.5295
29.2517 34.1499
29.4361 33.9325
29.6207 32.9967
29.8053 32.7429
29.99 32.4623
30.1748 32.3139
30.3597 32.1261
30.5447 31.9033
30.7297 32.0018
30.915 31.5098
31.1002 30.9578
31.2855 30.7087
31.4708 30.6758
31.6563 30.31
31.8418 29.9166
32.0275 29.7442
32.2132 29.1907
32.399 28.7506
32.5848 28.2915
32.7708 27.9631
32.9569 27.9044
33.143 27.6866
33.3293 27.2919
33.5158 26.9542
33.7022 26.4737
33.8887 26.244
34.0753 25.8865
34.262 25.5154
34.4488 25.2227
34.6357 24.8383
34.8227 24.5504
35.0098 24.414
35.1969 24.1189
35.3842 23.9207
35.5716 23.678
35.759 23.4055
35.9468 23.0316
36.1345 22.7995
36.3222 22.5151
36.5101 22.3188
36.6981 22.0284
36.8861 21.697
37.0743 21.3908
37.2626 21.13
37.451 20.9051
37.6395 20.7698
37.8281 20.332
38.0168 20.0969
38.2056 19.8698
38.3945 19.624
38.5837 19.3507
38.7728 19.1322
38.9621 18.9106
39.1514 18.6375
39.3409 18.3834
39.5304 18.1683
39.7201 17.9287
39.9099 17.727
40.0999 17.522
40.2899 17.3188
40.48 17.0568
40.6703 16.8937
40.8607 16.6298
41.0512 16.4415
41.242 16.1863
41.4327 15.993
41.6236 15.8067
41.8146 15.6075
42.0057 15.3272
42.1969 15.1263
42.3882 14.9255
42.5797 14.7799
42.7713 14.5873
42.963 14.307
43.1549 14.1693
43.3468 13.9754
43.5389 13.7847
43.7312 13.5889
43.9237 13.3673
44.1162 13.2421
44.3088 12.9993
44.5016 12.8483
44.6945 12.6771
44.8875 12.5108
45.0806 12.3118
45.2739 12.1396
45.4673 11.9793
45.6609 11.8442
45.8546 11.6316
46.0484 11.5045
46.2424 11.3271
46.4365 11.1855
46.631 11.0166
46.8254 10.8293
47.0199 10.6595
47.2146 10.5497
47.4095 10.3641
47.6044 10.1725
47.7996 10.0632
47.9948 9.89361
48.1902 9.73519
48.3858 9.62306
48.5815 9.51132
48.7774 9.32811
48.9734 9.21507
49.1696 9.07336
49.3661 8.89308
49.5626 8.77032
49.7592 8.66638
49.956 8.53492
50.153 8.40807
50.3501 8.2716
50.5474 8.1358
50.7448 8.01757
50.9424 7.89838
51.1402 7.76904
51.3381 7.64682
51.5362 7.53931
51.7344 7.41401
51.9328 7.24896
52.1316 7.11283
52.3304 7.03454
52.5293 6.90104
52.7284 6.82495
52.9276 6.70425
53.1271 6.5897
53.3267 6.48153
53.5265 6.35103
53.7264 6.23124
53.9266 6.12019
54.1269 6.04247
54.3274 5.935
54.528 5.79335
54.7289 5.56979
54.9301 5.44386
55.1314 5.34978
55.3328 5.15257
55.5344 4.94131
55.7361 4.78956