File: XRD/Ni3Fe_FD0735.xy
TT I
1.27165 7.45874
1.45013 5.41604
1.62863 5.57411
1.80712 4.33952
1.98562 5.17306
2.16411 5.22368
2.34263 5.32407
2.52115 6.31844
2.69965 8.52106
2.87818 8.73872
3.05672 11.013
3.23527 15.0733
3.4138 18.9434
3.59237 24.3785
3.77094 26.2222
3.9495 29.9243
4.12809 34.9105
4.30669 207.326
4.4853 64.6477
4.6639 55.387
4.84253 67.0829
5.02118 86.9601
5.19981 322.817
5.37848 183.922
5.55716 101.263
5.73586 91.8932
5.91455 93.0726
6.09328 4550.75
6.27201 82.4973
6.45075 67.3823
6.62952 62.549
6.8083 58.1685
6.98711 55.5395
7.16591 54.7425
7.34475 88.7704
7.5236 54.9074
7.70247 55.7483
7.88135 57.6798
8.06026 62.5643
8.23919 69.5361
8.41812 84.8675
8.59709 1174.45
8.77609 98.8701
8.9551 90.8023
9.13412 81.5844
9.31318 82.3465
9.49226 83.9106
9.67134 97.8536
9.85047 98.9784
10.0296 327.546
10.2088 407.858
10.388 103.866
10.5672 516.727
10.7465 86.4103
10.9257 78.093
11.105 71.9204
11.2844 70.0147
11.4637 64.7292
11.6431 63.761
11.8225 62.2119
12.002 63.2868
12.1814 154.282
12.3609 70.2351
12.5405 64.3343
12.72 69.5851
12.8996 70.671
13.0792 78.278
13.2589 237.633
13.4386 126.041
13.6183 248.181
13.7981 97.6312
13.9779 75.9114
14.1577 72.1121
14.3376 70.913
14.5175 68.6139
14.6974 70.0077
14.8774 109.438
15.0574 148.348
15.2374 70.8072
15.4175 66.3779
15.5976 65.4767
15.7778 93.713
15.958 155.797
16.1382 62.2384
16.3185 58.4216
16.4988 55.3262
16.6792 54.2667
16.8596 55.1303
17.04 55.6956
17.2205 66.3967
17.401 70.407
17.5815 58.9603
17.7622 61.1738
17.9428 72.5575
18.1237 138.6
18.3044 90.7963
18.4852 77.0681
18.666 60.1558
18.8469 57.8844
19.0278 56.8258
19.2088 59.1563
19.3898 75.5822
19.5709 53.9395
19.752 53.1072
19.9332 56.0501
20.1144 69.2535
20.2957 63.8849
20.477 53.5584
20.6586 49.4776
20.84 48.7401
21.0215 48.3514
21.203 50.8865
21.3846 48.8566
21.5662 48.4269
21.7479 52.2908
21.9297 64.2835
22.1115 56.0058
22.2933 49.6172
22.4753 48.7615
22.6572 48.5963
22.8393 51.7278
23.0214 57.0839
23.2037 48.6651
23.3859 49.5998
23.5682 56.8936
23.7505 48.1613
23.9329 45.135
24.1154 44.0516
24.2979 43.3105
24.4805 42.8598
24.6631 42.6539
24.8458 42.2176
25.0286 42.7733
25.2114 44.4748
25.3943 44.3591
25.5773 40.7202
25.7605 40.2164
25.9436 40.7443
26.1268 41.3449
26.31 39.9723
26.4933 40.5233
26.6767 41.9787
26.8601 40.3449
27.0437 38.7318
27.2272 38.4248
27.4109 38.2739
27.5946 38.1865
27.7784 37.7046
27.9623 38.167
28.1462 38.7043
28.3304 37.0175
28.5145 35.8142
28.6987 35.5301
28.8829 35.2242
29.0673 34.5282
29.2517 34.2357
29.4361 33.995
29.6207 33.0878
29.8053 32.7572
29.99 32.5519
30.1748 32.3373
30.3597 32.1978
30.5447 32.1257
30.7297 32.0048
30.915 31.5008
31.1002 31.0482
31.2855 30.8178
31.4708 30.6189
31.6563 30.1767
31.8418 30.0147
32.0275 29.8062
32.2132 29.2909
32.399 28.8616
32.5848 28.461
32.7708 28.0278
32.9569 27.866
33.143 27.6948
33.3293 27.3174
33.5158 26.9633
33.7022 26.5373
33.8887 26.2021
34.0753 25.9365
34.262 25.4825
34.4488 25.1989
34.6357 24.8736
34.8227 24.5984
35.0098 24.3931
35.1969 24.1094
35.3842 23.9683
35.5716 23.6416
35.759 23.3948
35.9468 23.0157
36.1345 22.8146
36.3222 22.6135
36.5101 22.3759
36.6981 22.0626
36.8861 21.7313
37.0743 21.4626
37.2626 21.1662
37.451 20.9153
37.6395 20.7651
37.8281 20.3851
38.0168 20.2085
38.2056 19.8618
38.3945 19.5906
38.5837 19.3526
38.7728 19.1794
38.9621 18.9015
39.1514 18.6557
39.3409 18.3424
39.5304 18.1702
39.7201 18.0632
39.9099 17.7869
40.0999 17.5917
40.2899 17.2905
40.48 17.0367
40.6703 16.8641
40.8607 16.6468
41.0512 16.4954
41.242 16.2393
41.4327 16.0141
41.6236 15.7581
41.8146 15.6431
42.0057 15.361
42.1969 15.2417
42.3882 15.0232
42.5797 14.777
42.7713 14.5863
42.963 14.3718
43.1549 14.2301
43.3468 13.935
43.5389 13.7827
43.7312 13.5593
43.9237 13.4478
44.1162 13.2275
44.3088 13.0294
44.5016 12.8559
44.6945 12.7027
44.8875 12.4997
45.0806 12.3209
45.2739 12.1482
45.4673 12.0101
45.6609 11.7921
45.8546 11.6683
46.0484 11.481
46.2424 11.3379
46.4365 11.149
46.631 10.9946
46.8254 10.8575
47.0199 10.6827
47.2146 10.5501
47.4095 10.3609
47.6044 10.2078
47.7996 10.0504
47.9948 9.9019
48.1902 9.78826
48.3858 9.64067
48.5815 9.51827
48.7774 9.36182
48.9734 9.21033
49.1696 9.06855
49.3661 8.91128
49.5626 8.79074
49.7592 8.66833
49.956 8.53709
50.153 8.39067
50.3501 8.28545
50.5474 8.14816
50.7448 8.04366
50.9424 7.88235
51.1402 7.78581
51.3381 7.6825
51.5362 7.52904
51.7344 7.43408
51.9328 7.30042
52.1316 7.1368
52.3304 7.03662
52.5293 6.92141
52.7284 6.82966
52.9276 6.70467
53.1271 6.62778
53.3267 6.48798
53.5265 6.37357
53.7264 6.2747
53.9266 6.15693
54.1269 6.00773
54.3274 5.90348
54.528 5.76946
54.7289 5.64495
54.9301 5.4329
55.1314 5.34608
55.3328 5.12612
55.5344 4.95945
55.7361 4.81738