File: XRD/Ni3Fe_FD0189.xy
TT I
1.27165 7.80468
1.45013 6.17462
1.62863 5.74194
1.80712 5.3715
1.98562 5.29198
2.16411 4.86854
2.34263 4.7145
2.52115 4.15178
2.69965 5.95868
2.87818 8.16331
3.05672 11.3527
3.23527 15.0117
3.4138 18.7754
3.59237 22.4016
3.77094 25.4248
3.9495 29.0508
4.12809 33.3313
4.30669 39.0034
4.4853 46.3451
4.6639 55.4485
4.84253 68.3557
5.02118 92.898
5.19981 558.757
5.37848 380.654
5.55716 109.535
5.73586 97.3369
5.91455 106.839
6.09328 2997.6
6.27201 89.1711
6.45075 68.2793
6.62952 61.3564
6.8083 57.2987
6.98711 55.0512
7.16591 53.6674
7.34475 53.34
7.5236 57.1605
7.70247 55.4561
7.88135 57.8118
8.06026 62.3629
8.23919 69.8654
8.41812 86.0201
8.59709 944.82
8.77609 113.936
8.9551 87.4599
9.13412 83.6347
9.31318 86.9379
9.49226 85.599
9.67134 90.9745
9.85047 101.408
10.0296 548.339
10.2088 851.656
10.388 107.271
10.5672 359.484
10.7465 91.2456
10.9257 77.6886
11.105 71.9253
11.2844 67.951
11.4637 64.8965
11.6431 63.6923
11.8225 62.5012
12.002 66.0657
12.1814 124.553
12.3609 73.1597
12.5405 64.6751
12.72 67.0282
12.8996 71.2173
13.0792 81.1969
13.2589 213.344
13.4386 187.463
13.6183 203.865
13.7981 139.011
13.9779 77.4882
14.1577 74.9263
14.3376 70.3173
14.5175 69.7741
14.6974 71.166
14.8774 122.167
15.0574 197.933
15.2374 70.4908
15.4175 67.6143
15.5976 67.0727
15.7778 107.639
15.958 184.083
16.1382 62.6442
16.3185 58.3946
16.4988 56.1185
16.6792 55.115
16.8596 55.5386
17.04 56.4611
17.2205 66.5522
17.401 80.8698
17.5815 60.2373
17.7622 62.4325
17.9428 84.3429
18.1237 120.958
18.3044 88.7042
18.4852 92.2932
18.666 61.7502
18.8469 59.1793
19.0278 57.8871
19.2088 62.5282
19.3898 71.336
19.5709 56.7064
19.752 54.294
19.9332 58.8539
20.1144 68.8497
20.2957 62.1176
20.477 58.3561
20.6586 50.784
20.84 49.9331
21.0215 49.8024
21.203 50.86
21.3846 51.0177
21.5662 49.8706
21.7479 54.7331
21.9297 63.6729
22.1115 56.8056
22.2933 52.5645
22.4753 49.7269
22.6572 50.0079
22.8393 53.0047
23.0214 58.238
23.2037 50.3017
23.3859 52.4081
23.5682 55.1229
23.7505 52.6566
23.9329 46.3888
24.1154 45.1698
24.2979 44.5269
24.4805 43.8492
24.6631 43.8704
24.8458 43.2496
25.0286 43.8677
25.2114 45.336
25.3943 45.5748
25.5773 42.3167
25.7605 41.5387
25.9436 41.711
26.1268 42.3423
26.31 41.4803
26.4933 41.5222
26.6767 42.7453
26.8601 41.7254
27.0437 40.0199
27.2272 39.5443
27.4109 39.3732
27.5946 39.3033
27.7784 39.0219
27.9623 39.1034
28.1462 39.9689
28.3304 38.4518
28.5145 36.9216
28.6987 36.4405
28.8829 36.091
29.0673 35.6109
29.2517 35.1024
29.4361 34.9469
29.6207 33.9447
29.8053 33.6028
29.99 33.3658
30.1748 32.9858
30.3597 33.0207
30.5447 32.8555
30.7297 32.8161
30.915 32.4608
31.1002 31.9301
31.2855 31.603
31.4708 31.3976
31.6563 31.2629
31.8418 30.8094
32.0275 30.6621
32.2132 30.1451
32.399 29.6777
32.5848 29.2227
32.7708 28.8854
32.9569 28.6808
33.143 28.3911
33.3293 28.0451
33.5158 27.6592
33.7022 27.1799
33.8887 26.8551
34.0753 26.5966
34.262 26.1702
34.4488 25.8592
34.6357 25.6003
34.8227 25.2718
35.0098 25.0491
35.1969 24.7882
35.3842 24.5109
35.5716 24.3075
35.759 23.9923
35.9468 23.605
36.1345 23.3815
36.3222 23.1846
36.5101 22.9623
36.6981 22.6701
36.8861 22.3545
37.0743 21.9919
37.2626 21.7006
37.451 21.4607
37.6395 21.3148
37.8281 20.9317
38.0168 20.6201
38.2056 20.4191
38.3945 20.1297
38.5837 19.8067
38.7728 19.6158
38.9621 19.3605
39.1514 19.1067
39.3409 18.9089
39.5304 18.6708
39.7201 18.3772
39.9099 18.2082
40.0999 17.9751
40.2899 17.728
40.48 17.5124
40.6703 17.2801
40.8607 17.116
41.0512 16.8877
41.242 16.5819
41.4327 16.4541
41.6236 16.1939
41.8146 16.0154
42.0057 15.7856
42.1969 15.5389
42.3882 15.3683
42.5797 15.0831
42.7713 14.964
42.963 14.7347
43.1549 14.5221
43.3468 14.2976
43.5389 14.1373
43.7312 13.9433
43.9237 13.7509
44.1162 13.6062
44.3088 13.3507
44.5016 13.1901
44.6945 12.9954
44.8875 12.8225
45.0806 12.6241
45.2739 12.4643
45.4673 12.3198
45.6609 12.1104
45.8546 11.9531
46.0484 11.8067
46.2424 11.5516
46.4365 11.4372
46.631 11.2302
46.8254 11.0857
47.0199 10.929
47.2146 10.747
47.4095 10.6011
47.6044 10.4449
47.7996 10.3018
47.9948 10.1502
48.1902 10.0228
48.3858 9.85314
48.5815 9.72335
48.7774 9.58865
48.9734 9.45009
49.1696 9.29435
49.3661 9.16597
49.5626 8.97116
49.7592 8.87567
49.956 8.75755
50.153 8.56682
50.3501 8.50084
50.5474 8.31953
50.7448 8.26738
50.9424 8.13299
51.1402 7.99633
51.3381 7.80808
51.5362 7.73662
51.7344 7.61493
51.9328 7.46152
52.1316 7.33156
52.3304 7.18618
52.5293 7.08807
52.7284 7.01907
52.9276 6.88318
53.1271 6.74498
53.3267 6.63282
53.5265 6.54039
53.7264 6.44936
53.9266 6.32965
54.1269 6.18214
54.3274 6.07968
54.528 5.9123
54.7289 5.68846
54.9301 5.52059
55.1314 5.39658
55.3328 5.17891
55.5344 4.93724
55.7361 4.85798