File: XRD/Ni3Fe_FD0455.xy
TT I
1.27165 7.54036
1.45013 6.06098
1.62863 5.44389
1.80712 5.19595
1.98562 4.19719
2.16411 5.00939
2.34263 4.95796
2.52115 6.73772
2.69965 7.44581
2.87818 8.45107
3.05672 10.4527
3.23527 14.6951
3.4138 19.1475
3.59237 23.2501
3.77094 26.0952
3.9495 29.9599
4.12809 35.0246
4.30669 140.581
4.4853 57.9709
4.6639 56.8118
4.84253 68.7207
5.02118 89.6543
5.19981 509.595
5.37848 203.548
5.55716 104.57
5.73586 94.765
5.91455 98.9304
6.09328 4232.35
6.27201 83.9626
6.45075 68.5289
6.62952 63.5156
6.8083 59.4292
6.98711 56.2643
7.16591 55.9297
7.34475 76.9237
7.5236 55.2044
7.70247 56.9694
7.88135 58.5412
8.06026 63.1625
8.23919 70.8233
8.41812 86.8947
8.59709 1230.81
8.77609 102.178
8.9551 90.8522
9.13412 83.7998
9.31318 84.6586
9.49226 86.308
9.67134 96.9664
9.85047 102.419
10.0296 408.001
10.2088 412.304
10.388 107.993
10.5672 491.829
10.7465 88.1391
10.9257 78.8127
11.105 72.3022
11.2844 70.3473
11.4637 65.5943
11.6431 64.4889
11.8225 63.386
12.002 65.4835
12.1814 155.532
12.3609 69.4696
12.5405 65.3705
12.72 69.7846
12.8996 72.4179
13.0792 81.816
13.2589 249.605
13.4386 125.472
13.6183 252.96
13.7981 97.9932
13.9779 77.2642
14.1577 73.4407
14.3376 72.0074
14.5175 70.1148
14.6974 71.8039
14.8774 117.733
15.0574 148.753
15.2374 71.2132
15.4175 67.5825
15.5976 67.2382
15.7778 101.356
15.958 156.45
16.1382 63.121
16.3185 59.0953
16.4988 56.2757
16.6792 55.493
16.8596 55.9801
17.04 56.9471
17.2205 68.4496
17.401 71.8818
17.5815 60.1949
17.7622 62.5974
17.9428 77.0062
18.1237 139.484
18.3044 91.876
18.4852 78.1895
18.666 61.3261
18.8469 59.121
19.0278 57.9523
19.2088 60.9486
19.3898 76.6951
19.5709 54.849
19.752 54.235
19.9332 57.8447
20.1144 70.6096
20.2957 64.1914
20.477 54.1932
20.6586 50.5083
20.84 49.5265
21.0215 49.4333
21.203 51.6243
21.3846 49.8457
21.5662 49.9275
21.7479 53.9208
21.9297 65.4171
22.1115 56.5264
22.2933 50.6453
22.4753 49.6592
22.6572 49.9359
22.8393 52.9905
23.0214 58.0683
23.2037 49.7914
23.3859 50.8747
23.5682 57.4202
23.7505 49.1129
23.9329 45.9742
24.1154 44.8581
24.2979 44.2761
24.4805 43.6861
24.6631 43.485
24.8458 43.0204
25.0286 43.6791
25.2114 45.5094
25.3943 45.2579
25.5773 41.5181
25.7605 41.1657
25.9436 41.5965
26.1268 42.3937
26.31 40.9483
26.4933 41.4847
26.6767 42.823
26.8601 41.0567
27.0437 39.6057
27.2272 39.1303
27.4109 39.1591
27.5946 39.1612
27.7784 38.5406
27.9623 39.203
28.1462 39.4857
28.3304 37.7429
28.5145 36.6442
28.6987 36.2226
28.8829 35.9697
29.0673 35.216
29.2517 34.97
29.4361 34.7049
29.6207 33.6013
29.8053 33.4773
29.99 33.0924
30.1748 32.9887
30.3597 32.7425
30.5447 32.7423
30.7297 32.8097
30.915 32.0987
31.1002 31.6131
31.2855 31.427
31.4708 31.31
31.6563 30.8473
31.8418 30.6315
32.0275 30.4209
32.2132 29.8385
32.399 29.3706
32.5848 28.9466
32.7708 28.6369
32.9569 28.4011
33.143 28.268
33.3293 27.7927
33.5158 27.3864
33.7022 27.0284
33.8887 26.7225
34.0753 26.3844
34.262 26.0386
34.4488 25.7162
34.6357 25.4008
34.8227 25.0562
35.0098 24.8062
35.1969 24.6951
35.3842 24.3847
35.5716 24.1151
35.759 23.7971
35.9468 23.4653
36.1345 23.2421
36.3222 23.0347
36.5101 22.7745
36.6981 22.4694
36.8861 22.1216
37.0743 21.8373
37.2626 21.6535
37.451 21.3153
37.6395 21.2364
37.8281 20.7946
38.0168 20.5011
38.2056 20.2596
38.3945 19.9722
38.5837 19.8185
38.7728 19.5377
38.9621 19.2967
39.1514 18.9696
39.3409 18.7396
39.5304 18.5236
39.7201 18.3418
39.9099 18.1539
40.0999 17.9047
40.2899 17.6621
40.48 17.4112
40.6703 17.2486
40.8607 17.0008
41.0512 16.7974
41.242 16.5531
41.4327 16.3481
41.6236 16.1025
41.8146 15.8871
42.0057 15.6633
42.1969 15.4575
42.3882 15.2977
42.5797 15.0576
42.7713 14.8263
42.963 14.6388
43.1549 14.4566
43.3468 14.2248
43.5389 14.0426
43.7312 13.8481
43.9237 13.668
44.1162 13.4255
44.3088 13.2853
44.5016 13.0952
44.6945 12.9474
44.8875 12.6992
45.0806 12.546
45.2739 12.3348
45.4673 12.2078
45.6609 12.0038
45.8546 11.8607
46.0484 11.6802
46.2424 11.5347
46.4365 11.3663
46.631 11.1763
46.8254 10.9986
47.0199 10.8961
47.2146 10.7121
47.4095 10.5544
47.6044 10.3904
47.7996 10.2296
47.9948 10.0544
48.1902 9.97108
48.3858 9.79654
48.5815 9.68009
48.7774 9.54518
48.9734 9.37279
49.1696 9.20764
49.3661 9.10127
49.5626 8.93435
49.7592 8.79907
49.956 8.71922
50.153 8.55309
50.3501 8.40505
50.5474 8.30816
50.7448 8.21455
50.9424 8.07238
51.1402 7.91924
51.3381 7.79334
51.5362 7.68363
51.7344 7.54936
51.9328 7.39568
52.1316 7.27926
52.3304 7.15722
52.5293 7.04004
52.7284 6.94455
52.9276 6.79356
53.1271 6.74626
53.3267 6.64284
53.5265 6.49061
53.7264 6.33744
53.9266 6.27735
54.1269 6.13947
54.3274 6.03228
54.528 5.8981
54.7289 5.68072
54.9301 5.59472
55.1314 5.44461
55.3328 5.24175
55.5344 5.05421
55.7361 4.91887