File: XRD/Ni3Fe_FD0149.xy
TT I
1.27165 7.62692
1.45013 6.16202
1.62863 5.79323
1.80712 5.42776
1.98562 4.34143
2.16411 4.403
2.34263 4.14605
2.52115 4.87816
2.69965 5.93267
2.87818 8.31796
3.05672 11.1681
3.23527 14.7255
3.4138 18.6911
3.59237 21.593
3.77094 25.1893
3.9495 28.5535
4.12809 32.1084
4.30669 37.7569
4.4853 44.8748
4.6639 53.7807
4.84253 66.1257
5.02118 90.06
5.19981 550.587
5.37848 452.201
5.55716 107.169
5.73586 95.1916
5.91455 105.196
6.09328 2697.94
6.27201 88.7713
6.45075 66.2442
6.62952 59.5629
6.8083 55.3306
6.98711 53.2389
7.16591 52.3928
7.34475 52.0067
7.5236 56.0321
7.70247 53.733
7.88135 55.7662
8.06026 60.8325
8.23919 67.8137
8.41812 83.5201
8.59709 882.268
8.77609 116.265
8.9551 84.6983
9.13412 81.2775
9.31318 86.2149
9.49226 83.2823
9.67134 88.37
9.85047 98.6186
10.0296 544.228
10.2088 991.513
10.388 104.109
10.5672 328.632
10.7465 90.2033
10.9257 75.6131
11.105 69.7435
11.2844 65.944
11.4637 63.3296
11.6431 61.8042
11.8225 60.9245
12.002 65.2027
12.1814 117.496
12.3609 75.2571
12.5405 62.9831
12.72 64.9846
12.8996 69.5476
13.0792 78.9414
13.2589 203.391
13.4386 210.559
13.6183 191.532
13.7981 153.759
13.9779 75.6795
14.1577 74.2405
14.3376 69.106
14.5175 68.0541
14.6974 69.4421
14.8774 120.615
15.0574 204.276
15.2374 68.7726
15.4175 65.9937
15.5976 65.4892
15.7778 107.023
15.958 183.289
16.1382 61.5922
16.3185 57.1895
16.4988 54.806
16.6792 53.9212
16.8596 54.0826
17.04 55.15
17.2205 64.7511
17.401 81.2321
17.5815 58.8603
17.7622 61.0701
17.9428 83.45
18.1237 114.128
18.3044 88.2709
18.4852 95.0043
18.666 60.6925
18.8469 58.0541
19.0278 56.6312
19.2088 61.6312
19.3898 68.8964
19.5709 56.3363
19.752 52.9618
19.9332 57.8633
20.1144 66.6451
20.2957 60.9703
20.477 58.7443
20.6586 49.5654
20.84 48.8421
21.0215 48.9124
21.203 49.5273
21.3846 50.367
21.5662 48.785
21.7479 53.8276
21.9297 61.8812
22.1115 56.1285
22.2933 52.4655
22.4753 48.6583
22.6572 48.9125
22.8393 52.0941
23.0214 57.0035
23.2037 49.7721
23.3859 51.613
23.5682 53.44
23.7505 53.0385
23.9329 45.4771
24.1154 44.2473
24.2979 43.656
24.4805 42.8715
24.6631 42.9277
24.8458 42.4509
25.0286 42.8874
25.2114 44.3872
25.3943 44.6899
25.5773 41.6594
25.7605 40.5622
25.9436 41.0067
26.1268 41.5956
26.31 40.8507
26.4933 40.8616
26.6767 42.0251
26.8601 41.2341
27.0437 39.4198
27.2272 38.846
27.4109 38.4599
27.5946 38.6451
27.7784 38.4916
27.9623 38.4945
28.1462 39.2904
28.3304 37.928
28.5145 36.3168
28.6987 35.8533
28.8829 35.3304
29.0673 35.0928
29.2517 34.4208
29.4361 34.1408
29.6207 33.5831
29.8053 33.0984
29.99 32.7424
30.1748 32.4691
30.3597 32.5516
30.5447 32.2001
30.7297 32.2187
30.915 32.034
31.1002 31.3786
31.2855 31.0316
31.4708 30.9042
31.6563 30.8106
31.8418 30.2538
32.0275 30.0732
32.2132 29.6338
32.399 29.1826
32.5848 28.7012
32.7708 28.4033
32.9569 28.0949
33.143 27.8762
33.3293 27.6256
33.5158 27.2614
33.7022 26.7842
33.8887 26.4569
34.0753 26.156
34.262 25.7509
34.4488 25.3884
34.6357 25.1066
34.8227 24.797
35.0098 24.6796
35.1969 24.3256
35.3842 24.1151
35.5716 23.9366
35.759 23.6445
35.9468 23.1998
36.1345 22.992
36.3222 22.7986
36.5101 22.5163
36.6981 22.2528
36.8861 22.0026
37.0743 21.5982
37.2626 21.4071
37.451 21.0955
37.6395 20.9115
37.8281 20.6395
38.0168 20.3835
38.2056 20.1073
38.3945 19.7499
38.5837 19.5857
38.7728 19.3285
38.9621 19.0189
39.1514 18.8498
39.3409 18.6449
39.5304 18.3669
39.7201 18.1434
39.9099 17.9462
40.0999 17.6121
40.2899 17.4559
40.48 17.1963
40.6703 17.0158
40.8607 16.7965
41.0512 16.5733
41.242 16.3398
41.4327 16.1463
41.6236 15.9148
41.8146 15.7463
42.0057 15.5785
42.1969 15.2743
42.3882 15.1229
42.5797 14.8585
42.7713 14.7503
42.963 14.487
43.1549 14.3501
43.3468 14.098
43.5389 13.9016
43.7312 13.7134
43.9237 13.5171
44.1162 13.3356
44.3088 13.1314
44.5016 12.9584
44.6945 12.807
44.8875 12.5782
45.0806 12.4306
45.2739 12.2269
45.4673 12.1214
45.6609 11.9482
45.8546 11.7447
46.0484 11.5841
46.2424 11.4508
46.4365 11.2216
46.631 11.0654
46.8254 10.9039
47.0199 10.7361
47.2146 10.6084
47.4095 10.4359
47.6044 10.285
47.7996 10.1207
47.9948 9.99362
48.1902 9.8964
48.3858 9.72092
48.5815 9.57847
48.7774 9.42071
48.9734 9.27831
49.1696 9.1596
49.3661 9.05039
49.5626 8.84785
49.7592 8.77537
49.956 8.60314
50.153 8.48703
50.3501 8.35962
50.5474 8.21867
50.7448 8.09805
50.9424 7.97319
51.1402 7.85173
51.3381 7.66033
51.5362 7.62664
51.7344 7.47088
51.9328 7.32294
52.1316 7.20262
52.3304 7.11737
52.5293 7.00668
52.7284 6.86443
52.9276 6.75407
53.1271 6.65847
53.3267 6.52303
53.5265 6.44704
53.7264 6.29125
53.9266 6.13769
54.1269 6.08103
54.3274 5.96084
54.528 5.8171
54.7289 5.61582
54.9301 5.44615
55.1314 5.26343
55.3328 5.06677
55.5344 4.87939
55.7361 4.84299