File: XRD/Ni3Fe_FD0681.xy
TT I
1.27165 6.95862
1.45013 6.51585
1.62863 4.99405
1.80712 4.87801
1.98562 5.1201
2.16411 4.3909
2.34263 5.74442
2.52115 6.87828
2.69965 8.17994
2.87818 9.18366
3.05672 11.573
3.23527 15.1565
3.4138 19.1735
3.59237 23.5218
3.77094 25.9404
3.9495 29.4706
4.12809 34.5102
4.30669 141.02
4.4853 57.9589
4.6639 55.8621
4.84253 68.059
5.02118 87.9302
5.19981 411.897
5.37848 187.084
5.55716 102.815
5.73586 92.8116
5.91455 95.6713
6.09328 4498.74
6.27201 81.4413
6.45075 68.0091
6.62952 62.733
6.8083 58.8293
6.98711 55.603
7.16591 55.2815
7.34475 75.3717
7.5236 54.5067
7.70247 56.2279
7.88135 57.7411
8.06026 62.3328
8.23919 69.6422
8.41812 84.8505
8.59709 1223.33
8.77609 98.4872
8.9551 89.6821
9.13412 82.4516
9.31318 83.1511
9.49226 84.7488
9.67134 95.8605
9.85047 100.789
10.0296 367.024
10.2088 356.386
10.388 105.198
10.5672 507.8
10.7465 86.2264
10.9257 78.2281
11.105 71.1831
11.2844 69.2417
11.4637 65.0398
11.6431 63.5855
11.8225 62.7232
12.002 64.2068
12.1814 154.799
12.3609 67.9829
12.5405 64.5342
12.72 68.6541
12.8996 71.0786
13.0792 80.0088
13.2589 249.945
13.4386 120.426
13.6183 256.098
13.7981 93.4937
13.9779 75.7539
14.1577 72.1354
14.3376 70.7084
14.5175 69.0155
14.6974 70.6654
14.8774 113.571
15.0574 139.285
15.2374 69.8256
15.4175 66.3375
15.5976 65.8382
15.7778 96.93
15.958 149.37
16.1382 61.6267
16.3185 58.0951
16.4988 55.3027
16.6792 54.3043
16.8596 54.9387
17.04 55.882
17.2205 67.634
17.401 69.8044
17.5815 59.0122
17.7622 61.1762
17.9428 74.6122
18.1237 142.577
18.3044 91.3101
18.4852 75.0891
18.666 60.0888
18.8469 58.009
19.0278 56.6424
19.2088 59.4374
19.3898 76.315
19.5709 54.0728
19.752 53.3552
19.9332 56.4396
20.1144 69.9666
20.2957 63.9269
20.477 52.9701
20.6586 49.8079
20.84 48.6996
21.0215 48.5249
21.203 50.9059
21.3846 48.5787
21.5662 48.9096
21.7479 52.9021
21.9297 64.5532
22.1115 55.9845
22.2933 49.6234
22.4753 48.6222
22.6572 48.7545
22.8393 52.263
23.0214 56.9431
23.2037 48.8178
23.3859 49.861
23.5682 57.2979
23.7505 47.7721
23.9329 45.1346
24.1154 44.0515
24.2979 43.2385
24.4805 42.9514
24.6631 42.6909
24.8458 42.2045
25.0286 42.8225
25.2114 44.5846
25.3943 44.3828
25.5773 40.81
25.7605 40.4175
25.9436 40.9125
26.1268 41.6352
26.31 39.9969
26.4933 40.5935
26.6767 42.1993
26.8601 40.3492
27.0437 38.7256
27.2272 38.5407
27.4109 38.3487
27.5946 38.2357
27.7784 37.9029
27.9623 38.5009
28.1462 38.7687
28.3304 36.9623
28.5145 35.8458
28.6987 35.5715
28.8829 35.495
29.0673 34.6187
29.2517 34.3147
29.4361 34.0902
29.6207 33.091
29.8053 32.8448
29.99 32.6164
30.1748 32.4594
30.3597 32.2304
30.5447 32.0949
30.7297 32.1993
30.915 31.5122
31.1002 31.1046
31.2855 30.8541
31.4708 30.7983
31.6563 30.2651
31.8418 30.0922
32.0275 29.8305
32.2132 29.3785
32.399 28.9193
32.5848 28.4897
32.7708 28.1525
32.9569 28.0849
33.143 27.7226
33.3293 27.3282
33.5158 26.9435
33.7022 26.6
33.8887 26.2645
34.0753 25.9172
34.262 25.6161
34.4488 25.2826
34.6357 24.9223
34.8227 24.6517
35.0098 24.4741
35.1969 24.1949
35.3842 23.9866
35.5716 23.6533
35.759 23.3963
35.9468 23.0868
36.1345 22.8523
36.3222 22.6748
36.5101 22.4168
36.6981 22.1367
36.8861 21.7646
37.0743 21.3971
37.2626 21.2065
37.451 20.913
37.6395 20.8487
37.8281 20.4342
38.0168 20.1223
38.2056 19.9081
38.3945 19.6572
38.5837 19.3915
38.7728 19.1796
38.9621 18.9366
39.1514 18.6689
39.3409 18.3858
39.5304 18.1727
39.7201 18.0986
39.9099 17.8047
40.0999 17.5363
40.2899 17.2877
40.48 17.0475
40.6703 16.8847
40.8607 16.7129
41.0512 16.5161
41.242 16.2288
41.4327 16.0799
41.6236 15.8089
41.8146 15.5752
42.0057 15.3925
42.1969 15.1643
42.3882 15.0614
42.5797 14.8108
42.7713 14.539
42.963 14.4353
43.1549 14.2412
43.3468 14.0258
43.5389 13.7523
43.7312 13.6085
43.9237 13.4273
44.1162 13.2365
44.3088 13.0479
44.5016 12.896
44.6945 12.6796
44.8875 12.5362
45.0806 12.3554
45.2739 12.1748
45.4673 12.0186
45.6609 11.8485
45.8546 11.6855
46.0484 11.5059
46.2424 11.3215
46.4365 11.1985
46.631 11.0058
46.8254 10.8188
47.0199 10.7207
47.2146 10.5393
47.4095 10.3668
47.6044 10.2334
47.7996 10.0713
47.9948 9.91067
48.1902 9.77068
48.3858 9.60916
48.5815 9.5188
48.7774 9.37088
48.9734 9.2225
49.1696 9.07721
49.3661 8.94882
49.5626 8.81393
49.7592 8.66306
49.956 8.55569
50.153 8.429
50.3501 8.2416
50.5474 8.15318
50.7448 8.02555
50.9424 7.93218
51.1402 7.77354
51.3381 7.66436
51.5362 7.50519
51.7344 7.37501
51.9328 7.28073
52.1316 7.14276
52.3304 7.05948
52.5293 6.90596
52.7284 6.84626
52.9276 6.71872
53.1271 6.61941
53.3267 6.4786
53.5265 6.354
53.7264 6.22127
53.9266 6.14475
54.1269 6.01963
54.3274 5.91284
54.528 5.83208
54.7289 5.60418
54.9301 5.48082
55.1314 5.35982
55.3328 5.17127
55.5344 4.95863
55.7361 4.83164