File: XRD/Ni3Fe_FD0523.xy
TT I
1.27165 7.96306
1.45013 6.50878
1.62863 5.5914
1.80712 4.83016
1.98562 4.71963
2.16411 5.19885
2.34263 4.94055
2.52115 7.31594
2.69965 7.86796
2.87818 8.71204
3.05672 11.1068
3.23527 15.0001
3.4138 19.0594
3.59237 24.5601
3.77094 26.6064
3.9495 30.4236
4.12809 35.4238
4.30669 256.508
4.4853 70.3065
4.6639 56.0347
4.84253 67.4476
5.02118 87.3285
5.19981 378.889
5.37848 204.93
5.55716 103.351
5.73586 93.3541
5.91455 95.6104
6.09328 4131.49
6.27201 85.4929
6.45075 68.268
6.62952 64.0789
6.8083 60.2357
6.98711 56.8589
7.16591 56.3149
7.34475 101.159
7.5236 55.7732
7.70247 57.0319
7.88135 58.5525
8.06026 62.9748
8.23919 70.3514
8.41812 86.6576
8.59709 1122.87
8.77609 102.449
8.9551 94.2511
9.13412 82.8864
9.31318 83.299
9.49226 85.4062
9.67134 101.335
9.85047 100.677
10.0296 342.533
10.2088 454.871
10.388 106.457
10.5672 494.859
10.7465 87.5831
10.9257 79.653
11.105 72.7562
11.2844 72.1092
11.4637 65.8557
11.6431 64.4632
11.8225 63.3982
12.002 64.4163
12.1814 149.052
12.3609 72.8663
12.5405 65.2272
12.72 71.6891
12.8996 71.544
13.0792 79.4836
13.2589 229.701
13.4386 131.57
13.6183 236.849
13.7981 103.052
13.9779 76.9435
14.1577 73.5021
14.3376 73.0768
14.5175 69.638
14.6974 71.3414
14.8774 109.483
15.0574 157.207
15.2374 72.4215
15.4175 67.1868
15.5976 66.4047
15.7778 94.5276
15.958 163.807
16.1382 64.3187
16.3185 59.7627
16.4988 56.3777
16.6792 55.1544
16.8596 56.0994
17.04 56.4432
17.2205 66.8965
17.401 72.8354
17.5815 59.9945
17.7622 62.1119
17.9428 74.0019
18.1237 138.049
18.3044 90.0197
18.4852 80.8667
18.666 61.2366
18.8469 58.5483
19.0278 57.841
19.2088 60.2455
19.3898 76.7496
19.5709 54.9805
19.752 53.9666
19.9332 56.8326
20.1144 70.324
20.2957 63.8448
20.477 54.8667
20.6586 50.2489
20.84 49.524
21.0215 49.1868
21.203 51.2605
21.3846 49.7574
21.5662 49.4474
21.7479 53.0927
21.9297 64.7601
22.1115 56.4296
22.2933 50.7282
22.4753 49.5318
22.6572 49.4372
22.8393 52.4291
23.0214 58.1745
23.2037 49.4599
23.3859 50.2565
23.5682 57.1128
23.7505 49.3163
23.9329 45.7632
24.1154 44.8189
24.2979 44.0657
24.4805 43.4845
24.6631 43.3455
24.8458 42.9263
25.0286 43.3969
25.2114 45.1712
25.3943 45.19
25.5773 41.4694
25.7605 41.0664
25.9436 41.46
26.1268 42.2085
26.31 40.601
26.4933 41.2441
26.6767 42.5474
26.8601 40.9985
27.0437 39.4032
27.2272 39.0761
27.4109 38.8162
27.5946 39.0787
27.7784 38.3517
27.9623 38.7757
28.1462 39.3908
28.3304 37.7178
28.5145 36.4283
28.6987 35.989
28.8829 35.8773
29.0673 35.1155
29.2517 34.8591
29.4361 34.6316
29.6207 33.5677
29.8053 33.3982
29.99 33.0038
30.1748 32.8573
30.3597 32.6515
30.5447 32.557
30.7297 32.5102
30.915 32.0247
31.1002 31.5873
31.2855 31.2392
31.4708 31.2808
31.6563 30.8903
31.8418 30.5676
32.0275 30.2415
32.2132 29.7443
32.399 29.2936
32.5848 28.9301
32.7708 28.5054
32.9569 28.3724
33.143 28.1476
33.3293 27.6822
33.5158 27.376
33.7022 26.8392
33.8887 26.6734
34.0753 26.3259
34.262 25.9933
34.4488 25.6431
34.6357 25.3295
34.8227 25.072
35.0098 24.7693
35.1969 24.5095
35.3842 24.3318
35.5716 24.1667
35.759 23.7449
35.9468 23.3713
36.1345 23.1504
36.3222 22.9075
36.5101 22.7491
36.6981 22.4653
36.8861 22.0885
37.0743 21.7327
37.2626 21.537
37.451 21.2221
37.6395 21.0402
37.8281 20.8068
38.0168 20.459
38.2056 20.2041
38.3945 19.9787
38.5837 19.6331
38.7728 19.4778
38.9621 19.2333
39.1514 18.9465
39.3409 18.7178
39.5304 18.4043
39.7201 18.3027
39.9099 18.0803
40.0999 17.825
40.2899 17.6029
40.48 17.2554
40.6703 17.1506
40.8607 16.9458
41.0512 16.7592
41.242 16.486
41.4327 16.3051
41.6236 16.0373
41.8146 15.8865
42.0057 15.5984
42.1969 15.427
42.3882 15.2472
42.5797 14.9959
42.7713 14.8119
42.963 14.6462
43.1549 14.4415
43.3468 14.174
43.5389 13.9525
43.7312 13.786
43.9237 13.65
44.1162 13.4598
44.3088 13.2261
44.5016 13.0462
44.6945 12.9282
44.8875 12.7233
45.0806 12.4574
45.2739 12.3664
45.4673 12.1456
45.6609 12.0181
45.8546 11.8401
46.0484 11.6629
46.2424 11.4891
46.4365 11.3496
46.631 11.1824
46.8254 11.0058
47.0199 10.8431
47.2146 10.6801
47.4095 10.5085
47.6044 10.3689
47.7996 10.2118
47.9948 10.0528
48.1902 9.934
48.3858 9.80307
48.5815 9.63968
48.7774 9.50818
48.9734 9.34477
49.1696 9.21165
49.3661 9.06259
49.5626 8.95543
49.7592 8.80268
49.956 8.72083
50.153 8.51348
50.3501 8.41159
50.5474 8.27063
50.7448 8.14371
50.9424 8.01743
51.1402 7.90949
51.3381 7.76215
51.5362 7.63105
51.7344 7.51661
51.9328 7.39459
52.1316 7.2661
52.3304 7.16339
52.5293 7.06864
52.7284 6.93435
52.9276 6.80763
53.1271 6.73908
53.3267 6.59627
53.5265 6.45643
53.7264 6.35662
53.9266 6.25187
54.1269 6.1176
54.3274 6.01182
54.528 5.88057
54.7289 5.67023
54.9301 5.57541
55.1314 5.39903
55.3328 5.19887
55.5344 5.02627
55.7361 4.88765