File: XRD/Ni3Fe_FD0357.xy
TT I
1.27165 7.56501
1.45013 6.12506
1.62863 5.38912
1.80712 4.74382
1.98562 5.45425
2.16411 4.45837
2.34263 4.55891
2.52115 5.75817
2.69965 7.38145
2.87818 8.5027
3.05672 10.7346
3.23527 14.9472
3.4138 18.6492
3.59237 23.2523
3.77094 25.9522
3.9495 29.846
4.12809 35.4612
4.30669 120.192
4.4853 56.0502
4.6639 57.1643
4.84253 69.7625
5.02118 92.3814
5.19981 614.066
5.37848 220.598
5.55716 106.718
5.73586 96.7181
5.91455 101.803
6.09328 3972.3
6.27201 85.3237
6.45075 69.5024
6.62952 64.0354
6.8083 59.5674
6.98711 56.6156
7.16591 56.3993
7.34475 72.2129
7.5236 55.7648
7.70247 57.4026
7.88135 59.0865
8.06026 63.7162
8.23919 71.582
8.41812 88.2068
8.59709 1195.58
8.77609 104.076
8.9551 91.1563
9.13412 84.7228
9.31318 86.2518
9.49226 87.1283
9.67134 97.2868
9.85047 104.183
10.0296 444.221
10.2088 454.518
10.388 110.106
10.5672 489.492
10.7465 89.3957
10.9257 79.9016
11.105 73.4436
11.2844 70.697
11.4637 66.5854
11.6431 65.2048
11.8225 64.1956
12.002 66.5359
12.1814 151.506
12.3609 70.0469
12.5405 66.0571
12.72 70.313
12.8996 73.3721
13.0792 83.4034
13.2589 247.213
13.4386 132.737
13.6183 245.067
13.7981 101.83
13.9779 78.1944
14.1577 74.2037
14.3376 72.5204
14.5175 71.1008
14.6974 72.8945
14.8774 120.373
15.0574 152.096
15.2374 71.6952
15.4175 68.4517
15.5976 68.3595
15.7778 103.378
15.958 161.47
16.1382 63.5593
16.3185 59.6403
16.4988 56.9026
16.6792 56.0611
16.8596 56.455
17.04 57.9178
17.2205 69.1861
17.401 73.2174
17.5815 61.0154
17.7622 63.1774
17.9428 78.8691
18.1237 139.808
18.3044 91.9201
18.4852 79.1956
18.666 62.1684
18.8469 59.9768
19.0278 58.595
19.2088 61.8653
19.3898 76.8508
19.5709 55.7431
19.752 54.9522
19.9332 58.5312
20.1144 71.5268
20.2957 64.5879
20.477 55.0856
20.6586 51.2093
20.84 50.1947
21.0215 50.2282
21.203 52.0758
21.3846 50.5472
21.5662 50.6226
21.7479 54.9393
21.9297 65.9755
22.1115 57.3248
22.2933 51.2707
22.4753 50.1521
22.6572 50.571
22.8393 53.8595
23.0214 58.921
23.2037 50.2288
23.3859 51.8118
23.5682 57.6847
23.7505 49.8054
23.9329 46.4991
24.1154 45.2864
24.2979 44.8178
24.4805 44.1762
24.6631 44.0291
24.8458 43.4645
25.0286 44.2282
25.2114 45.952
25.3943 46.0084
25.5773 42.0328
25.7605 41.7669
25.9436 41.9441
26.1268 42.8591
26.31 41.4091
26.4933 42.0502
26.6767 43.3746
26.8601 41.5336
27.0437 40.0219
27.2272 39.5561
27.4109 39.5506
27.5946 39.5051
27.7784 39.0553
27.9623 39.4271
28.1462 39.816
28.3304 38.2563
28.5145 36.922
28.6987 36.5814
28.8829 36.3474
29.0673 35.6172
29.2517 35.2737
29.4361 35.0263
29.6207 34.0174
29.8053 33.8103
29.99 33.4404
30.1748 33.2055
30.3597 33.147
30.5447 33.0591
30.7297 33.0917
30.915 32.533
31.1002 31.9193
31.2855 31.7193
31.4708 31.6637
31.6563 31.2195
31.8418 30.9193
32.0275 30.6695
32.2132 30.2059
32.399 29.7453
32.5848 29.2997
32.7708 28.9386
32.9569 28.7237
33.143 28.4811
33.3293 28.1265
33.5158 27.7798
33.7022 27.3148
33.8887 27.1338
34.0753 26.6581
34.262 26.4554
34.4488 25.9607
34.6357 25.6253
34.8227 25.4553
35.0098 25.2146
35.1969 24.8772
35.3842 24.6575
35.5716 24.4028
35.759 24.0962
35.9468 23.7714
36.1345 23.4495
36.3222 23.2979
36.5101 22.996
36.6981 22.7143
36.8861 22.4537
37.0743 22.0191
37.2626 21.7908
37.451 21.5702
37.6395 21.4249
37.8281 21.0338
38.0168 20.8013
38.2056 20.4475
38.3945 20.1983
38.5837 20.0188
38.7728 19.782
38.9621 19.4566
39.1514 19.227
39.3409 18.9923
39.5304 18.7451
39.7201 18.5431
39.9099 18.3102
40.0999 18.0648
40.2899 17.8816
40.48 17.584
40.6703 17.4037
40.8607 17.2185
41.0512 16.9686
41.242 16.679
41.4327 16.5092
41.6236 16.2772
41.8146 16.0485
42.0057 15.8985
42.1969 15.5621
42.3882 15.4563
42.5797 15.1844
42.7713 15.0398
42.963 14.7865
43.1549 14.604
43.3468 14.3609
43.5389 14.1749
43.7312 14.0218
43.9237 13.7884
44.1162 13.6078
44.3088 13.4109
44.5016 13.2096
44.6945 13.0434
44.8875 12.8588
45.0806 12.6736
45.2739 12.533
45.4673 12.3439
45.6609 12.1755
45.8546 12.0201
46.0484 11.8519
46.2424 11.6556
46.4365 11.4947
46.631 11.3283
46.8254 11.1483
47.0199 11.0036
47.2146 10.8238
47.4095 10.6724
47.6044 10.4939
47.7996 10.3534
47.9948 10.2178
48.1902 10.0514
48.3858 9.91646
48.5815 9.76129
48.7774 9.62422
48.9734 9.48935
49.1696 9.3177
49.3661 9.18028
49.5626 9.02307
49.7592 8.9289
49.956 8.80511
50.153 8.65009
50.3501 8.51041
50.5474 8.40087
50.7448 8.255
50.9424 8.1402
51.1402 7.99121
51.3381 7.87796
51.5362 7.74687
51.7344 7.62689
51.9328 7.47753
52.1316 7.35311
52.3304 7.24515
52.5293 7.13348
52.7284 7.00158
52.9276 6.86838
53.1271 6.80453
53.3267 6.71497
53.5265 6.5494
53.7264 6.42643
53.9266 6.32022
54.1269 6.20891
54.3274 6.04337
54.528 5.91279
54.7289 5.76276
54.9301 5.61349
55.1314 5.45497
55.3328 5.31095
55.5344 5.07602
55.7361 4.93245