File: XRD/Ni3Fe_FD0944.xy
TT I
1.27165 7.12394
1.45013 6.32861
1.62863 4.78305
1.80712 4.11923
1.98562 5.04536
2.16411 4.97462
2.34263 5.62884
2.52115 6.52958
2.69965 8.41438
2.87818 8.99343
3.05672 11.0975
3.23527 15.2271
3.4138 18.3628
3.59237 23.1181
3.77094 25.7776
3.9495 29.2909
4.12809 33.9729
4.30669 84.3668
4.4853 51.5321
4.6639 55.0035
4.84253 67.9536
5.02118 85.584
5.19981 371.612
5.37848 198.429
5.55716 100.883
5.73586 91.876
5.91455 94.219
6.09328 4642.74
6.27201 78.5254
6.45075 70.1365
6.62952 62.6519
6.8083 59.3553
6.98711 55.0201
7.16591 55.925
7.34475 63.1493
7.5236 53.5652
7.70247 56.9508
7.88135 56.5942
8.06026 61.9847
8.23919 68.4561
8.41812 82.123
8.59709 1207.1
8.77609 95.8507
8.9551 89.0111
9.13412 82.3592
9.31318 84.6669
9.49226 83.7714
9.67134 94.5012
9.85047 101.298
10.0296 330.807
10.2088 328.931
10.388 103.465
10.5672 548.813
10.7465 84.9769
10.9257 77.0019
11.105 70.3876
11.2844 67.0246
11.4637 63.9518
11.6431 62.5824
11.8225 61.9447
12.002 63.6258
12.1814 160.877
12.3609 65.1058
12.5405 64.2597
12.72 66.5917
12.8996 70.422
13.0792 79.3351
13.2589 247.582
13.4386 113.876
13.6183 260.43
13.7981 91.1987
13.9779 74.722
14.1577 70.533
14.3376 68.8659
14.5175 67.652
14.6974 69.669
14.8774 111.097
15.0574 135.432
15.2374 68.1492
15.4175 65.4711
15.5976 65.0254
15.7778 94.4499
15.958 143.712
16.1382 60.2459
16.3185 56.844
16.4988 54.4041
16.6792 53.6046
16.8596 54.0647
17.04 55.243
17.2205 66.408
17.401 67.5706
17.5815 58.2447
17.7622 60.4931
17.9428 72.1837
18.1237 140.961
18.3044 90.8842
18.4852 72.7566
18.666 59.3654
18.8469 57.0258
19.0278 55.8368
19.2088 58.0937
19.3898 74.9077
19.5709 52.9849
19.752 52.4584
19.9332 55.3476
20.1144 69.3585
20.2957 64.1714
20.477 51.7463
20.6586 48.8953
20.84 48.1704
21.0215 47.7482
21.203 50.3058
21.3846 48.0309
21.5662 48.2075
21.7479 52.01
21.9297 64.0826
22.1115 55.5197
22.2933 48.7003
22.4753 47.7434
22.6572 48.0424
22.8393 51.3525
23.0214 55.8776
23.2037 47.8964
23.3859 49.0171
23.5682 57.0845
23.7505 46.9375
23.9329 44.3296
24.1154 43.3869
24.2979 42.7093
24.4805 42.1931
24.6631 42.1852
24.8458 41.5336
25.0286 42.1944
25.2114 43.9526
25.3943 43.7028
25.5773 40.1817
25.7605 39.668
25.9436 40.3086
26.1268 41.0631
26.31 39.4093
26.4933 39.9603
26.6767 41.515
26.8601 39.8697
27.0437 38.1359
27.2272 37.9833
27.4109 37.7886
27.5946 37.6922
27.7784 37.1328
27.9623 37.9719
28.1462 38.0716
28.3304 36.4662
28.5145 35.4037
28.6987 35.0153
28.8829 34.8446
29.0673 34.1442
29.2517 33.7305
29.4361 33.6404
29.6207 32.4983
29.8053 32.445
29.99 32.041
30.1748 31.9411
30.3597 31.7248
30.5447 31.6222
30.7297 31.6943
30.915 31.0379
31.1002 30.5904
31.2855 30.3888
31.4708 30.3144
31.6563 29.881
31.8418 29.6734
32.0275 29.4802
32.2132 28.8037
32.399 28.4902
32.5848 28.1128
32.7708 27.6656
32.9569 27.5291
33.143 27.3223
33.3293 26.946
33.5158 26.6311
33.7022 26.1259
33.8887 25.921
34.0753 25.5065
34.262 25.199
34.4488 24.8791
34.6357 24.5564
34.8227 24.296
35.0098 24.1238
35.1969 23.7784
35.3842 23.5926
35.5716 23.3571
35.759 23.0458
35.9468 22.7297
36.1345 22.4764
36.3222 22.3089
36.5101 22.0366
36.6981 21.7864
36.8861 21.4936
37.0743 21.0834
37.2626 20.9109
37.451 20.6304
37.6395 20.5129
37.8281 20.1399
38.0168 19.8072
38.2056 19.6028
38.3945 19.35
38.5837 19.1221
38.7728 18.8804
38.9621 18.6586
39.1514 18.4038
39.3409 18.1842
39.5304 17.9226
39.7201 17.7545
39.9099 17.5259
40.0999 17.2717
40.2899 17.0448
40.48 16.7862
40.6703 16.6112
40.8607 16.4766
41.0512 16.1987
41.242 15.9988
41.4327 15.7661
41.6236 15.5918
41.8146 15.4152
42.0057 15.1708
42.1969 15.0054
42.3882 14.7836
42.5797 14.6136
42.7713 14.3239
42.963 14.218
43.1549 13.9735
43.3468 13.803
43.5389 13.5879
43.7312 13.4413
43.9237 13.2265
44.1162 13.0529
44.3088 12.8775
44.5016 12.6185
44.6945 12.5034
44.8875 12.3765
45.0806 12.1471
45.2739 11.9813
45.4673 11.8344
45.6609 11.6563
45.8546 11.5322
46.0484 11.3503
46.2424 11.1728
46.4365 11.0162
46.631 10.8492
46.8254 10.659
47.0199 10.54
47.2146 10.384
47.4095 10.2238
47.6044 10.0686
47.7996 9.9436
47.9948 9.74913
48.1902 9.62168
48.3858 9.49998
48.5815 9.34815
48.7774 9.23458
48.9734 9.07499
49.1696 8.9333
49.3661 8.82579
49.5626 8.6819
49.7592 8.52372
49.956 8.41986
50.153 8.32387
50.3501 8.15555
50.5474 8.0227
50.7448 7.92597
50.9424 7.78071
51.1402 7.69273
51.3381 7.53855
51.5362 7.43582
51.7344 7.28245
51.9328 7.17407
52.1316 7.02657
52.3304 6.92982
52.5293 6.81901
52.7284 6.69734
52.9276 6.58483
53.1271 6.48067
53.3267 6.39896
53.5265 6.30838
53.7264 6.19168
53.9266 6.09491
54.1269 5.91413
54.3274 5.8352
54.528 5.70392
54.7289 5.57617
54.9301 5.41088
55.1314 5.21286
55.3328 5.08549
55.5344 4.92079
55.7361 4.72464