File: XRD/Ni3Fe_FD0833.xy
TT I
1.27165 7.15099
1.45013 6.28305
1.62863 4.58287
1.80712 5.1405
1.98562 4.56985
2.16411 4.56694
2.34263 5.313
2.52115 6.76184
2.69965 8.45383
2.87818 8.96927
3.05672 11.1772
3.23527 15.4859
3.4138 18.2973
3.59237 23.1536
3.77094 25.7962
3.9495 29.8349
4.12809 34.3434
4.30669 115.674
4.4853 54.6854
4.6639 55.6146
4.84253 68.2737
5.02118 87.4623
5.19981 350.112
5.37848 191.354
5.55716 101.577
5.73586 92.2855
5.91455 94.389
6.09328 4347.55
6.27201 80.3328
6.45075 68.8265
6.62952 62.3934
6.8083 58.833
6.98711 55.5119
7.16591 56.2832
7.34475 69.2805
7.5236 54.1267
7.70247 56.3176
7.88135 57.3768
8.06026 62.3186
8.23919 69.0072
8.41812 83.6473
8.59709 1193.48
8.77609 97.7696
8.9551 88.8916
9.13412 82.4553
9.31318 83.8733
9.49226 84.0987
9.67134 94.7409
9.85047 100.451
10.0296 343.786
10.2088 396.74
10.388 103.285
10.5672 525.768
10.7465 85.6177
10.9257 77.6564
11.105 70.9283
11.2844 68.2541
11.4637 64.1666
11.6431 63.0172
11.8225 62.2234
12.002 63.2939
12.1814 156.077
12.3609 67.0745
12.5405 64.0787
12.72 67.5491
12.8996 70.7398
13.0792 78.9783
13.2589 246.206
13.4386 121.767
13.6183 253.926
13.7981 96.8718
13.9779 75.3059
14.1577 71.3056
14.3376 69.6709
14.5175 68.3778
14.6974 69.6171
14.8774 111.809
15.0574 144.662
15.2374 69.1159
15.4175 65.7244
15.5976 65.1706
15.7778 95.4545
15.958 150.89
16.1382 60.8915
16.3185 57.3845
16.4988 54.859
16.6792 53.7958
16.8596 54.5564
17.04 55.4677
17.2205 66.787
17.401 69.624
17.5815 58.828
17.7622 60.9516
17.9428 72.944
18.1237 137.556
18.3044 91.1867
18.4852 75.7483
18.666 59.7289
18.8469 57.4917
19.0278 56.2059
19.2088 58.7227
19.3898 74.4053
19.5709 53.5384
19.752 52.8199
19.9332 55.7862
20.1144 69.0455
20.2957 63.6222
20.477 52.8779
20.6586 49.0847
20.84 48.4213
21.0215 48.1179
21.203 50.3981
21.3846 48.4337
21.5662 48.6468
21.7479 52.3641
21.9297 63.8451
22.1115 55.598
22.2933 49.2516
22.4753 48.2011
22.6572 48.1788
22.8393 51.7042
23.0214 56.3722
23.2037 48.3617
23.3859 49.3238
23.5682 56.5127
23.7505 47.8574
23.9329 44.8844
24.1154 43.7112
24.2979 43.0037
24.4805 42.5494
24.6631 42.3379
24.8458 41.7853
25.0286 42.4616
25.2114 44.1562
25.3943 43.9699
25.5773 40.4648
25.7605 40.0313
25.9436 40.4371
26.1268 41.1536
26.31 39.723
26.4933 40.3281
26.6767 41.6719
26.8601 39.9701
27.0437 38.3636
27.2272 38.0372
27.4109 38.0713
27.5946 38.0245
27.7784 37.5366
27.9623 38.1628
28.1462 38.4241
28.3304 36.7768
28.5145 35.6757
28.6987 35.251
28.8829 35.0325
29.0673 34.3423
29.2517 33.9791
29.4361 33.7098
29.6207 32.7524
29.8053 32.5658
29.99 32.3614
30.1748 32.2021
30.3597 31.9918
30.5447 31.8512
30.7297 31.8436
30.915 31.2352
31.1002 30.903
31.2855 30.5899
31.4708 30.5007
31.6563 30.0768
31.8418 29.8852
32.0275 29.6359
32.2132 29.0107
32.399 28.6871
32.5848 28.1667
32.7708 27.9065
32.9569 27.7326
33.143 27.5682
33.3293 27.0984
33.5158 26.705
33.7022 26.3054
33.8887 26.0612
34.0753 25.7932
34.262 25.3389
34.4488 25.0228
34.6357 24.6779
34.8227 24.4739
35.0098 24.2637
35.1969 23.9986
35.3842 23.7796
35.5716 23.5535
35.759 23.2411
35.9468 22.9065
36.1345 22.6626
36.3222 22.3961
36.5101 22.1786
36.6981 21.9173
36.8861 21.5489
37.0743 21.1922
37.2626 21.036
37.451 20.7774
37.6395 20.6538
37.8281 20.3028
38.0168 19.8553
38.2056 19.7284
38.3945 19.4013
38.5837 19.2265
38.7728 19.0061
38.9621 18.732
39.1514 18.4828
39.3409 18.2718
39.5304 17.9817
39.7201 17.8778
39.9099 17.6503
40.0999 17.3746
40.2899 17.1569
40.48 16.8959
40.6703 16.6875
40.8607 16.5223
41.0512 16.3585
41.242 16.1299
41.4327 15.9299
41.6236 15.6602
41.8146 15.503
42.0057 15.253
42.1969 15.0506
42.3882 14.8745
42.5797 14.7154
42.7713 14.4331
42.963 14.3034
43.1549 14.0757
43.3468 13.8312
43.5389 13.7268
43.7312 13.4683
43.9237 13.3219
44.1162 13.1451
44.3088 12.9865
44.5016 12.7761
44.6945 12.5887
44.8875 12.4002
45.0806 12.2298
45.2739 12.0746
45.4673 11.9273
45.6609 11.7139
45.8546 11.5899
46.0484 11.4031
46.2424 11.2404
46.4365 11.1283
46.631 10.9058
46.8254 10.7495
47.0199 10.5931
47.2146 10.4332
47.4095 10.3082
47.6044 10.1037
47.7996 9.98123
47.9948 9.84515
48.1902 9.70322
48.3858 9.5689
48.5815 9.39892
48.7774 9.28703
48.9734 9.14649
49.1696 9.04464
49.3661 8.85861
49.5626 8.73408
49.7592 8.61955
49.956 8.4592
50.153 8.34133
50.3501 8.19548
50.5474 8.09108
50.7448 7.96827
50.9424 7.80706
51.1402 7.74685
51.3381 7.5801
51.5362 7.46024
51.7344 7.36256
51.9328 7.22155
52.1316 7.10852
52.3304 7.01138
52.5293 6.90811
52.7284 6.73197
52.9276 6.63393
53.1271 6.54755
53.3267 6.39449
53.5265 6.29934
53.7264 6.20714
53.9266 6.10464
54.1269 6.00826
54.3274 5.88658
54.528 5.71856
54.7289 5.56541
54.9301 5.40982
55.1314 5.30203
55.3328 5.10058
55.5344 4.8656
55.7361 4.75776