File: XRD/Ni3Fe_FD0265.xy
TT I
1.27165 7.65418
1.45013 6.8489
1.62863 5.5636
1.80712 5.45804
1.98562 5.60394
2.16411 5.13609
2.34263 4.61523
2.52115 4.71274
2.69965 6.56585
2.87818 8.13918
3.05672 10.7018
3.23527 15.4074
3.4138 19.4717
3.59237 23.7956
3.77094 26.7688
3.9495 30.2035
4.12809 35.5002
4.30669 164.854
4.4853 61.3616
4.6639 57.5376
4.84253 70.4272
5.02118 93.2435
5.19981 545.83
5.37848 269.891
5.55716 109.597
5.73586 98.9204
5.91455 104.172
6.09328 3695.26
6.27201 89.8837
6.45075 70.7736
6.62952 65.201
6.8083 60.8869
6.98711 58.0619
7.16591 57.6224
7.34475 84.0112
7.5236 56.3697
7.70247 58.3022
7.88135 60.1116
8.06026 64.8223
8.23919 72.4803
8.41812 89.3576
8.59709 1097.29
8.77609 110.493
8.9551 94.5198
9.13412 85.7607
9.31318 86.8936
9.49226 88.5996
9.67134 100.134
9.85047 105.457
10.0296 445.507
10.2088 607.922
10.388 110.849
10.5672 451.879
10.7465 92.2922
10.9257 81.5399
11.105 74.7304
11.2844 72.6173
11.4637 67.716
11.6431 66.225
11.8225 65.2061
12.002 66.7194
12.1814 143.788
12.3609 74.3614
12.5405 67.5925
12.72 71.7906
12.8996 74.0927
13.0792 82.7732
13.2589 230.115
13.4386 152.518
13.6183 230.834
13.7981 115.487
13.9779 79.454
14.1577 75.5463
14.3376 74.078
14.5175 72.0602
14.6974 73.6432
14.8774 117.028
15.0574 177.744
15.2374 73.6578
15.4175 69.4308
15.5976 68.8512
15.7778 101.898
15.958 176.034
16.1382 65.0595
16.3185 60.7357
16.4988 57.852
16.6792 56.8856
16.8596 57.4712
17.04 58.2204
17.2205 68.7961
17.401 77.823
17.5815 61.7052
17.7622 64.0774
17.9428 80.443
18.1237 135.675
18.3044 91.3324
18.4852 85.523
18.666 63.2497
18.8469 60.7501
19.0278 59.4251
19.2088 62.5877
19.3898 76.9003
19.5709 56.9646
19.752 55.6998
19.9332 59.2508
20.1144 71.8339
20.2957 64.7031
20.477 57.2819
20.6586 52.0645
20.84 51.0596
21.0215 51.0038
21.203 52.44
21.3846 51.5028
21.5662 51.0975
21.7479 55.1449
21.9297 66.13
22.1115 58.0004
22.2933 52.6182
22.4753 51.0503
22.6572 51.2087
22.8393 53.7958
23.0214 59.7695
23.2037 51.0003
23.3859 52.4566
23.5682 57.7254
23.7505 51.4741
23.9329 47.3117
24.1154 46.1082
24.2979 45.3443
24.4805 44.8395
24.6631 44.6828
24.8458 44.1419
25.0286 44.7037
25.2114 46.3151
25.3943 46.4721
25.5773 42.7712
25.7605 42.3208
25.9436 42.6568
26.1268 43.3485
26.31 42.0324
26.4933 42.3975
26.6767 43.7595
26.8601 42.1979
27.0437 40.6823
27.2272 40.2771
27.4109 40.0053
27.5946 40.1058
27.7784 39.5014
27.9623 39.8793
28.1462 40.5601
28.3304 38.9899
28.5145 37.4757
28.6987 37.1378
28.8829 36.9799
29.0673 36.3085
29.2517 35.7629
29.4361 35.6354
29.6207 34.6705
29.8053 34.2568
29.99 34.0719
30.1748 33.8281
30.3597 33.7468
30.5447 33.6014
30.7297 33.4605
30.915 33.0457
31.1002 32.5886
31.2855 32.211
31.4708 32.0761
31.6563 31.7775
31.8418 31.4139
32.0275 31.2802
32.2132 30.6255
32.399 30.152
32.5848 29.6753
32.7708 29.3798
32.9569 29.2395
33.143 28.9026
33.3293 28.5632
33.5158 28.2068
33.7022 27.7545
33.8887 27.4376
34.0753 27.1104
34.262 26.7979
34.4488 26.4455
34.6357 26.061
34.8227 25.7856
35.0098 25.5005
35.1969 25.2727
35.3842 24.9492
35.5716 24.8217
35.759 24.4684
35.9468 24.0912
36.1345 23.8708
36.3222 23.6133
36.5101 23.368
36.6981 23.0618
36.8861 22.8048
37.0743 22.4244
37.2626 22.2221
37.451 21.9123
37.6395 21.7216
37.8281 21.4041
38.0168 21.0947
38.2056 20.7851
38.3945 20.5327
38.5837 20.2991
38.7728 20.0615
38.9621 19.9024
39.1514 19.5527
39.3409 19.2682
39.5304 19.0597
39.7201 18.8268
39.9099 18.5593
40.0999 18.3569
40.2899 18.092
40.48 17.8394
40.6703 17.72
40.8607 17.4155
41.0512 17.2249
41.242 16.967
41.4327 16.7312
41.6236 16.5159
41.8146 16.3287
42.0057 16.1339
42.1969 15.8637
42.3882 15.6728
42.5797 15.4197
42.7713 15.2589
42.963 15.0352
43.1549 14.884
43.3468 14.6438
43.5389 14.4462
43.7312 14.1836
43.9237 14.0173
44.1162 13.812
44.3088 13.6223
44.5016 13.4399
44.6945 13.334
44.8875 13.1006
45.0806 12.9041
45.2739 12.6798
45.4673 12.5572
45.6609 12.3138
45.8546 12.1955
46.0484 12.0406
46.2424 11.878
46.4365 11.6722
46.631 11.4706
46.8254 11.3198
47.0199 11.1611
47.2146 10.9931
47.4095 10.8362
47.6044 10.6322
47.7996 10.5416
47.9948 10.3801
48.1902 10.2075
48.3858 10.0335
48.5815 9.8752
48.7774 9.77301
48.9734 9.61432
49.1696 9.4872
49.3661 9.36189
49.5626 9.19922
49.7592 9.06542
49.956 8.89194
50.153 8.81452
50.3501 8.64904
50.5474 8.54039
50.7448 8.3916
50.9424 8.30035
51.1402 8.14481
51.3381 7.97018
51.5362 7.86377
51.7344 7.75976
51.9328 7.57539
52.1316 7.44564
52.3304 7.35184
52.5293 7.20401
52.7284 7.11217
52.9276 6.98813
53.1271 6.8741
53.3267 6.74641
53.5265 6.58833
53.7264 6.51864
53.9266 6.43376
54.1269 6.31539
54.3274 6.20089
54.528 5.99869
54.7289 5.89138
54.9301 5.67395
55.1314 5.53127
55.3328 5.32389
55.5344 5.08755
55.7361 4.98203