File: XRD/Ni3Fe_FD0574.xy
TT I
1.27165 7.33322
1.45013 6.03753
1.62863 4.5503
1.80712 4.34455
1.98562 4.78664
2.16411 4.37123
2.34263 5.39163
2.52115 6.66214
2.69965 7.76386
2.87818 8.63597
3.05672 10.7524
3.23527 15.1854
3.4138 18.4821
3.59237 23.05
3.77094 26.0563
3.9495 29.6172
4.12809 34.1873
4.30669 131.078
4.4853 57.0509
4.6639 55.9463
4.84253 67.8971
5.02118 88.6932
5.19981 459.033
5.37848 196.779
5.55716 103.518
5.73586 93.7945
5.91455 97.3024
6.09328 4488.24
6.27201 82.2981
6.45075 68.4214
6.62952 62.5855
6.8083 58.8963
6.98711 55.6729
7.16591 55.4779
7.34475 74.3813
7.5236 54.6445
7.70247 56.6408
7.88135 58.037
8.06026 62.6432
8.23919 70.0509
8.41812 85.2775
8.59709 1226.84
8.77609 100.172
8.9551 89.773
9.13412 82.9239
9.31318 83.9526
9.49226 84.6969
9.67134 96.0897
9.85047 101.22
10.0296 380.137
10.2088 371.825
10.388 106.291
10.5672 523.354
10.7465 86.9754
10.9257 78.089
11.105 72.122
11.2844 69.6853
11.4637 64.9101
11.6431 63.8279
11.8225 62.8417
12.002 64.6513
12.1814 156.074
12.3609 68.2217
12.5405 65.0542
12.72 69.1737
12.8996 71.7326
13.0792 80.7966
13.2589 250.774
13.4386 121.973
13.6183 256.653
13.7981 96.6032
13.9779 76.48
14.1577 72.6099
14.3376 71.227
14.5175 69.333
14.6974 71.1574
14.8774 116.221
15.0574 145.311
15.2374 70.412
15.4175 66.7261
15.5976 66.3474
15.7778 99.2224
15.958 151.414
16.1382 62.1365
16.3185 58.4885
16.4988 55.824
16.6792 54.6499
16.8596 55.3735
17.04 56.4627
17.2205 67.8889
17.401 71.0546
17.5815 59.6423
17.7622 61.9156
17.9428 75.5851
18.1237 141.784
18.3044 92.0361
18.4852 76.8011
18.666 60.672
18.8469 58.3525
19.0278 57.3162
19.2088 60.3089
19.3898 76.3363
19.5709 54.5076
19.752 53.6791
19.9332 57.0521
20.1144 70.5078
20.2957 64.3821
20.477 53.5178
20.6586 50.0356
20.84 49.142
21.0215 48.9609
21.203 51.1492
21.3846 49.2808
21.5662 49.5104
21.7479 53.4386
21.9297 65.2697
22.1115 56.2588
22.2933 50.0283
22.4753 49.1289
22.6572 49.472
22.8393 52.784
23.0214 57.3976
23.2037 49.1257
23.3859 50.3694
23.5682 57.4099
23.7505 48.4653
23.9329 45.5991
24.1154 44.4006
24.2979 43.7541
24.4805 43.3749
24.6631 43.1871
24.8458 42.7147
25.0286 43.3351
25.2114 45.0704
25.3943 44.9394
25.5773 41.0996
25.7605 40.6707
25.9436 41.2266
26.1268 42.0842
26.31 40.3795
26.4933 41.1951
26.6767 42.535
26.8601 40.7268
27.0437 39.1045
27.2272 38.8589
27.4109 38.7681
27.5946 38.7174
27.7784 38.2837
27.9623 38.807
28.1462 39.0439
28.3304 37.381
28.5145 36.1504
28.6987 35.93
28.8829 35.6715
29.0673 34.9499
29.2517 34.669
29.4361 34.3202
29.6207 33.2922
29.8053 33.1384
29.99 32.8483
30.1748 32.6783
30.3597 32.5239
30.5447 32.3949
30.7297 32.3819
30.915 31.9206
31.1002 31.3437
31.2855 31.0984
31.4708 31.0787
31.6563 30.5876
31.8418 30.3615
32.0275 30.109
32.2132 29.5765
32.399 29.0691
32.5848 28.6901
32.7708 28.39
32.9569 28.2082
33.143 27.9148
33.3293 27.6054
33.5158 27.1891
33.7022 26.8284
33.8887 26.4584
34.0753 26.1388
34.262 25.751
34.4488 25.4527
34.6357 25.1948
34.8227 24.8043
35.0098 24.6756
35.1969 24.3128
35.3842 24.1006
35.5716 23.9557
35.759 23.6484
35.9468 23.2735
36.1345 23.0395
36.3222 22.8005
36.5101 22.566
36.6981 22.2365
36.8861 21.9594
37.0743 21.779
37.2626 21.3672
37.451 21.1076
37.6395 20.9996
37.8281 20.6109
38.0168 20.3582
38.2056 20.067
38.3945 19.8467
38.5837 19.5526
38.7728 19.3577
38.9621 19.0096
39.1514 18.7937
39.3409 18.5943
39.5304 18.3573
39.7201 18.1724
39.9099 18.0174
40.0999 17.694
40.2899 17.5192
40.48 17.2117
40.6703 17.0098
40.8607 16.8137
41.0512 16.6145
41.242 16.3701
41.4327 16.1249
41.6236 15.9551
41.8146 15.751
42.0057 15.6002
42.1969 15.306
42.3882 15.0943
42.5797 14.9031
42.7713 14.7261
42.963 14.5055
43.1549 14.3335
43.3468 14.1142
43.5389 13.9064
43.7312 13.7439
43.9237 13.5115
44.1162 13.3398
44.3088 13.1778
44.5016 12.9468
44.6945 12.7678
44.8875 12.6405
45.0806 12.4374
45.2739 12.2905
45.4673 12.1107
45.6609 11.9601
45.8546 11.7906
46.0484 11.6315
46.2424 11.5093
46.4365 11.276
46.631 11.0791
46.8254 10.9098
47.0199 10.7838
47.2146 10.6364
47.4095 10.462
47.6044 10.2926
47.7996 10.1499
47.9948 10.0073
48.1902 9.84644
48.3858 9.7266
48.5815 9.5692
48.7774 9.43396
48.9734 9.31271
49.1696 9.17952
49.3661 9.01335
49.5626 8.83474
49.7592 8.75431
49.956 8.61436
50.153 8.43809
50.3501 8.32887
50.5474 8.25531
50.7448 8.13186
50.9424 7.98748
51.1402 7.8462
51.3381 7.72422
51.5362 7.59289
51.7344 7.499
51.9328 7.36091
52.1316 7.20391
52.3304 7.09531
52.5293 7.02759
52.7284 6.90228
52.9276 6.7474
53.1271 6.68553
53.3267 6.47004
53.5265 6.44234
53.7264 6.30706
53.9266 6.20436
54.1269 6.12911
54.3274 6.00577
54.528 5.86311
54.7289 5.66042
54.9301 5.53797
55.1314 5.40029
55.3328 5.17162
55.5344 5.01368
55.7361 4.82521