File: XRD/Ni3Fe_FD0224.xy
TT I
1.27165 7.96109
1.45013 7.12545
1.62863 5.85534
1.80712 5.05587
1.98562 5.2323
2.16411 4.60689
2.34263 4.09775
2.52115 5.11605
2.69965 6.69122
2.87818 8.02534
3.05672 10.8194
3.23527 15.0298
3.4138 18.8092
3.59237 22.4077
3.77094 25.7985
3.9495 30.3665
4.12809 34.9968
4.30669 40.6399
4.4853 48.5024
4.6639 58.0645
4.84253 71.8551
5.02118 96.4849
5.19981 885.108
5.37848 274.924
5.55716 112.459
5.73586 101.145
5.91455 110.435
6.09328 3630.82
6.27201 89.4086
6.45075 70.7621
6.62952 64.1896
6.8083 59.8075
6.98711 57.4503
7.16591 56.5307
7.34475 56.1884
7.5236 56.5517
7.70247 58.0879
7.88135 60.5586
8.06026 65.3898
8.23919 73.1043
8.41812 90.7274
8.59709 1058.73
8.77609 111.096
8.9551 90.4241
9.13412 86.7081
9.31318 88.1759
9.49226 89.8333
9.67134 95.6461
9.85047 106.899
10.0296 518.016
10.2088 554.098
10.388 114.921
10.5672 440.438
10.7465 92.7809
10.9257 80.7126
11.105 74.8516
11.2844 71.1051
11.4637 67.7201
11.6431 66.3121
11.8225 65.1219
12.002 68.7656
12.1814 140.014
12.3609 70.4292
12.5405 67.6435
12.72 69.8167
12.8996 74.973
13.0792 86.0478
13.2589 228.009
13.4386 150.276
13.6183 225.22
13.7981 112.724
13.9779 79.7896
14.1577 75.3431
14.3376 73.298
14.5175 72.4764
14.6974 74.3996
14.8774 119.095
15.0574 171.845
15.2374 72.4347
15.4175 70.0502
15.5976 69.9298
15.7778 103.598
15.958 179.18
16.1382 64.125
16.3185 60.2257
16.4988 58.0614
16.6792 56.8304
16.8596 57.3135
17.04 59.3198
17.2205 68.6717
17.401 77.1778
17.5815 62.219
17.7622 64.5987
17.9428 82.8306
18.1237 138.94
18.3044 90.2941
18.4852 84.2077
18.666 63.5176
18.8469 60.9977
19.0278 59.5533
19.2088 62.798
19.3898 76.537
19.5709 57.0639
19.752 55.8643
19.9332 59.5613
20.1144 72.4979
20.2957 64.4638
20.477 56.8574
20.6586 51.9478
20.84 51.1861
21.0215 51.2526
21.203 52.4996
21.3846 51.6646
21.5662 51.8248
21.7479 55.4212
21.9297 66.8318
22.1115 57.8239
22.2933 52.6927
22.4753 50.9103
22.6572 52.0747
22.8393 54.4471
23.0214 60.0226
23.2037 51.5008
23.3859 52.7495
23.5682 57.6172
23.7505 51.345
23.9329 47.4284
24.1154 46.1219
24.2979 45.4468
24.4805 44.9396
24.6631 44.8842
24.8458 44.2264
25.0286 44.9927
25.2114 46.6957
25.3943 46.7592
25.5773 43.0384
25.7605 42.5261
25.9436 42.6277
26.1268 43.5888
26.31 42.2613
26.4933 42.4923
26.6767 43.9552
26.8601 42.4615
27.0437 40.8138
27.2272 40.4834
27.4109 40.2053
27.5946 40.385
27.7784 39.8464
27.9623 39.9389
28.1462 40.7213
28.3304 39.0107
28.5145 37.6788
28.6987 37.2682
28.8829 36.9279
29.0673 36.4307
29.2517 35.8668
29.4361 35.6419
29.6207 34.687
29.8053 34.4714
29.99 34.1686
30.1748 33.9714
30.3597 33.8216
30.5447 33.674
30.7297 33.6398
30.915 33.113
31.1002 32.5817
31.2855 32.2746
31.4708 32.2001
31.6563 31.88
31.8418 31.5406
32.0275 31.2853
32.2132 30.7843
32.399 30.2998
32.5848 29.8631
32.7708 29.5075
32.9569 29.4298
33.143 29.1319
33.3293 28.7837
33.5158 28.2768
33.7022 27.9037
33.8887 27.487
34.0753 27.232
34.262 26.7751
34.4488 26.5067
34.6357 26.1233
34.8227 25.8043
35.0098 25.701
35.1969 25.2688
35.3842 25.0803
35.5716 24.8207
35.759 24.5455
35.9468 24.1999
36.1345 24.0047
36.3222 23.6528
36.5101 23.4409
36.6981 23.1243
36.8861 22.8668
37.0743 22.5322
37.2626 22.2592
37.451 21.9379
37.6395 21.7887
37.8281 21.4001
38.0168 21.1297
38.2056 20.9326
38.3945 20.5901
38.5837 20.2761
38.7728 20.0731
38.9621 19.8706
39.1514 19.6078
39.3409 19.3423
39.5304 19.1013
39.7201 18.9461
39.9099 18.6708
40.0999 18.3306
40.2899 18.1657
40.48 17.9002
40.6703 17.7102
40.8607 17.5494
41.0512 17.2346
41.242 16.9393
41.4327 16.7855
41.6236 16.5282
41.8146 16.3912
42.0057 16.1008
42.1969 15.8947
42.3882 15.6972
42.5797 15.4805
42.7713 15.3038
42.963 15.0556
43.1549 14.8733
43.3468 14.5918
43.5389 14.4579
43.7312 14.2563
43.9237 14.0876
44.1162 13.8472
44.3088 13.6839
44.5016 13.4577
44.6945 13.3332
44.8875 13.1001
45.0806 12.9194
45.2739 12.8155
45.4673 12.5748
45.6609 12.371
45.8546 12.2054
46.0484 12.034
46.2424 11.8331
46.4365 11.6605
46.631 11.5279
46.8254 11.2914
47.0199 11.1854
47.2146 11.0131
47.4095 10.8497
47.6044 10.6959
47.7996 10.5434
47.9948 10.3531
48.1902 10.2157
48.3858 10.0933
48.5815 9.95562
48.7774 9.80639
48.9734 9.6677
49.1696 9.47263
49.3661 9.34095
49.5626 9.203
49.7592 9.10144
49.956 8.93811
50.153 8.75528
50.3501 8.67847
50.5474 8.54238
50.7448 8.42874
50.9424 8.27162
51.1402 8.16931
51.3381 7.99422
51.5362 7.86858
51.7344 7.73909
51.9328 7.61309
52.1316 7.44677
52.3304 7.40725
52.5293 7.2809
52.7284 7.12106
52.9276 6.99393
53.1271 6.93786
53.3267 6.80708
53.5265 6.61626
53.7264 6.56109
53.9266 6.48298
54.1269 6.29324
54.3274 6.13721
54.528 5.97314
54.7289 5.83869
54.9301 5.65755
55.1314 5.53798
55.3328 5.28559
55.5344 5.11418
55.7361 5.0168