File: XRD/Ni3Fe_FD0082.xy
TT I
1.27165 10.4006
1.45013 7.10026
1.62863 6.78804
1.80712 6.3585
1.98562 6.84645
2.16411 5.75017
2.34263 5.16805
2.52115 4.50705
2.69965 5.54356
2.87818 7.8376
3.05672 11.4945
3.23527 15.1477
3.4138 18.5375
3.59237 21.3176
3.77094 24.5547
3.9495 28.2665
4.12809 32.4175
4.30669 37.1236
4.4853 44.1766
4.6639 53.1654
4.84253 66.3857
5.02118 98.7529
5.19981 762.773
5.37848 1222.76
5.55716 120.233
5.73586 101.776
5.91455 121.926
6.09328 1531.04
6.27201 109.035
6.45075 67.9509
6.62952 58.8343
6.8083 54.4116
6.98711 51.9546
7.16591 51.0055
7.34475 50.7716
7.5236 69.9605
7.70247 53.4579
7.88135 54.3532
8.06026 58.9
8.23919 66.4691
8.41812 85.3094
8.59709 593.444
8.77609 156.347
8.9551 85.4602
9.13412 81.4954
9.31318 132.765
9.49226 82.0321
9.67134 86.4329
9.85047 97.6916
10.0296 582.293
10.2088 1453.88
10.388 107.103
10.5672 187.461
10.7465 110.461
10.9257 74.0068
11.105 67.9933
11.2844 64.1645
11.4637 61.4284
11.6431 60.2287
11.8225 59.3697
12.002 85.3879
12.1814 88.7165
12.3609 93.1194
12.5405 60.9179
12.72 62.5274
12.8996 66.8783
13.0792 79.2961
13.2589 158.674
13.4386 312.919
13.6183 140.504
13.7981 230.306
13.9779 74.3506
14.1577 87.6338
14.3376 67.4339
14.5175 65.8546
14.6974 67.5589
14.8774 114.061
15.0574 201.408
15.2374 68.2151
15.4175 63.9513
15.5976 63.5792
15.7778 103.466
15.958 155.854
16.1382 65.229
16.3185 55.5248
16.4988 53.199
16.6792 52.2745
16.8596 52.4156
17.04 54.3191
17.2205 60.2324
17.401 78.6079
17.5815 56.9309
17.7622 60.3236
17.9428 83.345
18.1237 82.746
18.3044 88.9802
18.4852 102.911
18.666 59.6914
18.8469 56.0635
19.0278 54.9081
19.2088 60.2373
19.3898 61.6101
19.5709 58.8262
19.752 51.5793
19.9332 56.2388
20.1144 58.6005
20.2957 58.2705
20.477 62.7157
20.6586 48.1733
20.84 48.2321
21.0215 47.2931
21.203 46.8135
21.3846 49.8559
21.5662 47.2041
21.7479 51.8991
21.9297 53.9093
22.1115 56.2889
22.2933 53.363
22.4753 46.9487
22.6572 47.2514
22.8393 49.3813
23.0214 50.9729
23.2037 49.6739
23.3859 50.3842
23.5682 48.1978
23.7505 56.133
23.9329 44.2537
24.1154 42.8579
24.2979 42.0905
24.4805 41.3887
24.6631 41.5943
24.8458 41.0513
25.0286 41.3346
25.2114 41.7502
25.3943 42.1074
25.5773 41.261
25.7605 39.3733
25.9436 39.4582
26.1268 39.2605
26.31 40.1553
26.4933 39.0522
26.6767 39.2774
26.8601 40.332
27.0437 38.5699
27.2272 37.5608
27.4109 37.1175
27.5946 36.9488
27.7784 37.3307
27.9623 36.6476
28.1462 37.1728
28.3304 36.7414
28.5145 35.2047
28.6987 34.5614
28.8829 34.0156
29.0673 33.9522
29.2517 33.1091
29.4361 32.5927
29.6207 32.537
29.8053 31.784
29.99 31.4841
30.1748 31.2885
30.3597 31.3926
30.5447 30.978
30.7297 30.6993
30.915 30.9317
31.1002 30.4286
31.2855 29.814
31.4708 29.6511
31.6563 29.6504
31.8418 29.1051
32.0275 28.8154
32.2132 28.6659
32.399 28.0709
32.5848 27.5543
32.7708 27.3009
32.9569 27.092
33.143 26.7386
33.3293 26.4954
33.5158 26.2937
33.7022 25.7745
33.8887 25.4404
34.0753 25.1865
34.262 24.7528
34.4488 24.4371
34.6357 24.1077
34.8227 23.8084
35.0098 23.6497
35.1969 23.422
35.3842 23.1001
35.5716 22.9115
35.759 22.778
35.9468 22.3163
36.1345 22.1317
36.3222 21.9307
36.5101 21.6473
36.6981 21.372
36.8861 21.0985
37.0743 20.745
37.2626 20.5505
37.451 20.2735
37.6395 20.0991
37.8281 19.8385
38.0168 19.5358
38.2056 19.2826
38.3945 18.9196
38.5837 18.7555
38.7728 18.5665
38.9621 18.3451
39.1514 17.9984
39.3409 17.868
39.5304 17.6587
39.7201 17.4701
39.9099 17.2258
40.0999 17.0135
40.2899 16.7647
40.48 16.5577
40.6703 16.3206
40.8607 16.204
41.0512 15.9842
41.242 15.7527
41.4327 15.5097
41.6236 15.2829
41.8146 15.0976
42.0057 14.9063
42.1969 14.7479
42.3882 14.5345
42.5797 14.3542
42.7713 14.1676
42.963 13.9419
43.1549 13.7687
43.3468 13.5667
43.5389 13.3821
43.7312 13.185
43.9237 13.0054
44.1162 12.849
44.3088 12.6679
44.5016 12.4827
44.6945 12.3328
44.8875 12.1421
45.0806 11.964
45.2739 11.8127
45.4673 11.6613
45.6609 11.4546
45.8546 11.3771
46.0484 11.1917
46.2424 10.9969
46.4365 10.8597
46.631 10.6687
46.8254 10.5098
47.0199 10.3703
47.2146 10.2445
47.4095 10.0644
47.6044 9.92736
47.7996 9.78221
47.9948 9.63032
48.1902 9.5008
48.3858 9.3494
48.5815 9.20186
48.7774 9.05097
48.9734 8.96686
49.1696 8.83196
49.3661 8.68555
49.5626 8.54217
49.7592 8.45565
49.956 8.3468
50.153 8.2174
50.3501 8.07396
50.5474 7.93338
50.7448 7.87075
50.9424 7.71578
51.1402 7.5753
51.3381 7.47351
51.5362 7.34605
51.7344 7.22587
51.9328 7.0555
52.1316 6.95071
52.3304 6.87378
52.5293 6.76896
52.7284 6.61595
52.9276 6.51
53.1271 6.41194
53.3267 6.28607
53.5265 6.18549
53.7264 6.09921
53.9266 5.98143
54.1269 5.8189
54.3274 5.69133
54.528 5.54615
54.7289 5.41743
54.9301 5.22989
55.1314 5.03213
55.3328 4.76565
55.5344 4.68035
55.7361 4.59012