File: XRD/Ni3Fe_FD0414.xy
TT I
1.27165 7.60986
1.45013 6.28937
1.62863 5.4444
1.80712 5.05664
1.98562 4.56345
2.16411 5.46087
2.34263 5.1605
2.52115 6.29122
2.69965 7.25176
2.87818 8.86472
3.05672 11.0048
3.23527 14.9496
3.4138 19.1786
3.59237 25.3371
3.77094 26.9914
3.9495 30.6062
4.12809 35.9592
4.30669 280.284
4.4853 73.1991
4.6639 56.4631
4.84253 68.5251
5.02118 88.828
5.19981 424.649
5.37848 223.066
5.55716 104.766
5.73586 94.4211
5.91455 97.4788
6.09328 3881.75
6.27201 87.0818
6.45075 69.2698
6.62952 65.0554
6.8083 60.5669
6.98711 57.3881
7.16591 57.2542
7.34475 106.397
7.5236 56.018
7.70247 57.5128
7.88135 59.4081
8.06026 63.5679
8.23919 71.0555
8.41812 87.9487
8.59709 1069.03
8.77609 104.189
8.9551 95.6006
9.13412 83.1673
9.31318 84.1352
9.49226 86.1847
9.67134 103.617
9.85047 101.975
10.0296 358.259
10.2088 515.545
10.388 108.15
10.5672 470.916
10.7465 89.1839
10.9257 80.8668
11.105 73.5673
11.2844 72.9556
11.4637 66.1149
11.6431 65.4386
11.8225 63.9644
12.002 65.038
12.1814 142.224
12.3609 74.9802
12.5405 65.9681
12.72 72.8574
12.8996 72.5286
13.0792 80.3892
13.2589 222.885
13.4386 138.797
13.6183 227.561
13.7981 106.245
13.9779 77.5228
14.1577 74.3895
14.3376 74.0439
14.5175 70.3339
14.6974 72.1604
14.8774 109.735
15.0574 164.354
15.2374 73.6838
15.4175 68.1042
15.5976 67.2743
15.7778 95.297
15.958 170.688
16.1382 65.1116
16.3185 60.436
16.4988 57.0064
16.6792 55.8306
16.8596 56.7141
17.04 57.2558
17.2205 67.0274
17.401 74.6053
17.5815 60.4316
17.7622 62.4836
17.9428 75.3002
18.1237 136.89
18.3044 89.2794
18.4852 82.8275
18.666 61.775
18.8469 59.265
19.0278 58.2206
19.2088 61.0479
19.3898 77.6594
19.5709 55.7647
19.752 54.4843
19.9332 57.6319
20.1144 70.7035
20.2957 63.936
20.477 55.7478
20.6586 50.9273
20.84 49.9759
21.0215 49.7254
21.203 51.7073
21.3846 50.5035
21.5662 50.0207
21.7479 53.3877
21.9297 65.3896
22.1115 56.9594
22.2933 51.3146
22.4753 50.2464
22.6572 50.038
22.8393 52.5965
23.0214 58.941
23.2037 49.9546
23.3859 50.8873
23.5682 57.0398
23.7505 50.0046
23.9329 46.2272
24.1154 45.1517
24.2979 44.464
24.4805 43.8947
24.6631 43.783
24.8458 43.2094
25.0286 43.7083
25.2114 45.6247
25.3943 45.8198
25.5773 41.8944
25.7605 41.3293
25.9436 41.7707
26.1268 42.7552
26.31 41.0353
26.4933 41.5765
26.6767 43.0565
26.8601 41.4179
27.0437 39.7776
27.2272 39.3997
27.4109 39.2506
27.5946 39.2676
27.7784 38.8771
27.9623 39.0926
28.1462 39.7078
28.3304 38.2895
28.5145 36.8623
28.6987 36.5041
28.8829 36.2518
29.0673 35.4346
29.2517 35.1511
29.4361 35.0219
29.6207 33.9242
29.8053 33.6759
29.99 33.3525
30.1748 33.1143
30.3597 32.9773
30.5447 32.8253
30.7297 32.947
30.915 32.4249
31.1002 31.8274
31.2855 31.5408
31.4708 31.4438
31.6563 31.0204
31.8418 30.8156
32.0275 30.6725
32.2132 30.0608
32.399 29.5901
32.5848 29.1614
32.7708 28.8221
32.9569 28.606
33.143 28.3915
33.3293 28.1122
33.5158 27.6478
33.7022 27.173
33.8887 26.9224
34.0753 26.5436
34.262 26.2263
34.4488 25.8682
34.6357 25.5449
34.8227 25.2422
35.0098 25.0975
35.1969 24.7591
35.3842 24.4947
35.5716 24.3677
35.759 23.9325
35.9468 23.6927
36.1345 23.4253
36.3222 23.1478
36.5101 22.9142
36.6981 22.6681
36.8861 22.3606
37.0743 22.0181
37.2626 21.7874
37.451 21.5068
37.6395 21.3457
37.8281 20.9291
38.0168 20.6868
38.2056 20.3705
38.3945 20.1141
38.5837 19.9525
38.7728 19.6269
38.9621 19.3679
39.1514 19.1387
39.3409 18.8846
39.5304 18.6482
39.7201 18.423
39.9099 18.2221
40.0999 17.9905
40.2899 17.7673
40.48 17.5329
40.6703 17.3359
40.8607 17.1033
41.0512 16.9119
41.242 16.6106
41.4327 16.4116
41.6236 16.1727
41.8146 16.0024
42.0057 15.7672
42.1969 15.5552
42.3882 15.4015
42.5797 15.1876
42.7713 14.9615
42.963 14.7783
43.1549 14.567
43.3468 14.3295
43.5389 14.1603
43.7312 13.9769
43.9237 13.724
44.1162 13.5941
44.3088 13.3891
44.5016 13.1739
44.6945 13.0474
44.8875 12.8281
45.0806 12.6565
45.2739 12.4902
45.4673 12.3489
45.6609 12.1105
45.8546 11.9644
46.0484 11.7997
46.2424 11.648
46.4365 11.4631
46.631 11.2618
46.8254 11.0858
47.0199 10.9657
47.2146 10.8354
47.4095 10.6707
47.6044 10.4647
47.7996 10.2837
47.9948 10.1436
48.1902 9.98937
48.3858 9.9068
48.5815 9.76182
48.7774 9.60071
48.9734 9.43131
49.1696 9.30397
49.3661 9.1726
49.5626 9.03251
49.7592 8.91735
49.956 8.76255
50.153 8.65188
50.3501 8.48224
50.5474 8.38079
50.7448 8.26048
50.9424 8.12234
51.1402 7.94826
51.3381 7.85406
51.5362 7.71778
51.7344 7.59694
51.9328 7.47966
52.1316 7.35685
52.3304 7.24835
52.5293 7.14981
52.7284 7.01367
52.9276 6.84846
53.1271 6.78838
53.3267 6.63939
53.5265 6.53455
53.7264 6.40717
53.9266 6.33921
54.1269 6.20102
54.3274 6.06159
54.528 5.92283
54.7289 5.747
54.9301 5.63729
55.1314 5.48597
55.3328 5.23158
55.5344 5.08115
55.7361 4.95028