File: XRD/Ni3Fe_FD1013.xy
TT I
1.27165 7.00344
1.45013 5.77079
1.62863 5.03272
1.80712 4.20527
1.98562 4.23112
2.16411 4.27644
2.34263 5.64585
2.52115 7.44525
2.69965 8.45335
2.87818 9.32817
3.05672 11.4231
3.23527 14.527
3.4138 18.4844
3.59237 21.3156
3.77094 24.6643
3.9495 28.1322
4.12809 32.0207
4.30669 62.0164
4.4853 46.2055
4.6639 51.5654
4.84253 63.1242
5.02118 81.8287
5.19981 222.127
5.37848 252.245
5.55716 96.4801
5.73586 86.5994
5.91455 87.1954
6.09328 4346.5
6.27201 75.1722
6.45075 62.6103
6.62952 57.3183
6.8083 53.9414
6.98711 51.6968
7.16591 51.2747
7.34475 57.25
7.5236 65.1163
7.70247 52.5021
7.88135 53.8631
8.06026 58.3055
8.23919 64.8732
8.41812 76.238
8.59709 1031.96
8.77609 94.3549
8.9551 81.6034
9.13412 78.278
9.31318 98.3428
9.49226 79.9331
9.67134 85.3814
9.85047 92.5225
10.0296 294.582
10.2088 462.052
10.388 96.3059
10.5672 495.877
10.7465 88.1556
10.9257 72.4769
11.105 67.2388
11.2844 63.8275
11.4637 61.17
11.6431 59.6217
11.8225 58.8068
12.002 71.0663
12.1814 140.425
12.3609 63.8025
12.5405 60.4795
12.72 62.8128
12.8996 66.5003
13.0792 76.028
13.2589 213.118
13.4386 126.612
13.6183 224.769
13.7981 99.6107
13.9779 72.2225
14.1577 79.7633
14.3376 66.4108
14.5175 65.2778
14.6974 66.0776
14.8774 102.484
15.0574 159.081
15.2374 65.6929
15.4175 63.1098
15.5976 62.3404
15.7778 87.5294
15.958 172.114
16.1382 59.9287
16.3185 54.787
16.4988 52.6353
16.6792 51.762
16.8596 52.2799
17.04 52.9859
17.2205 62.5791
17.401 70.9317
17.5815 56.3481
17.7622 59.3917
17.9428 69.5054
18.1237 140.828
18.3044 86.6849
18.4852 77.826
18.666 58.2249
18.8469 55.5446
19.0278 54.177
19.2088 56.4425
19.3898 75.9066
19.5709 52.0762
19.752 50.8323
19.9332 53.5181
20.1144 69.4716
20.2957 62.3476
20.477 52.1741
20.6586 47.6364
20.84 47.3269
21.0215 46.4467
21.203 48.5751
21.3846 47.309
21.5662 46.6848
21.7479 50.3749
21.9297 64.4065
22.1115 55.366
22.2933 48.2311
22.4753 46.7584
22.6572 46.8675
22.8393 50.065
23.0214 56.7335
23.2037 46.9867
23.3859 48.3082
23.5682 56.3482
23.7505 47.5235
23.9329 43.6265
24.1154 42.4022
24.2979 41.9089
24.4805 41.3283
24.6631 41.3811
24.8458 40.5847
25.0286 41.2118
25.2114 43.495
25.3943 43.7049
25.5773 39.6359
25.7605 38.9185
25.9436 39.2421
26.1268 40.546
26.31 38.8341
26.4933 39.2342
26.6767 41.3527
26.8601 39.3394
27.0437 37.6847
27.2272 37.253
27.4109 37.1818
27.5946 37.3371
27.7784 36.7083
27.9623 37.3621
28.1462 37.9798
28.3304 36.1628
28.5145 34.9006
28.6987 34.4871
28.8829 34.3737
29.0673 33.5553
29.2517 33.1976
29.4361 33.1867
29.6207 31.9904
29.8053 31.7668
29.99 31.5213
30.1748 31.3124
30.3597 31.3488
30.5447 31.0763
30.7297 31.3477
30.915 30.8026
31.1002 30.2173
31.2855 29.9324
31.4708 29.9358
31.6563 29.4021
31.8418 29.2054
32.0275 29.0487
32.2132 28.4966
32.399 27.948
32.5848 27.6112
32.7708 27.2448
32.9569 27.121
33.143 26.9034
33.3293 26.5663
33.5158 26.1769
33.7022 25.771
33.8887 25.5217
34.0753 25.2184
34.262 24.8712
34.4488 24.4265
34.6357 24.1715
34.8227 23.9264
35.0098 23.7329
35.1969 23.4546
35.3842 23.2854
35.5716 23.092
35.759 22.7451
35.9468 22.3352
36.1345 22.2226
36.3222 21.9742
36.5101 21.7796
36.6981 21.4698
36.8861 21.1551
37.0743 20.8514
37.2626 20.6646
37.451 20.3381
37.6395 20.2146
37.8281 19.8841
38.0168 19.5628
38.2056 19.3067
38.3945 19.0875
38.5837 18.8172
38.7728 18.6216
38.9621 18.3524
39.1514 18.1287
39.3409 17.8514
39.5304 17.7409
39.7201 17.5352
39.9099 17.2878
40.0999 17.0711
40.2899 16.7887
40.48 16.5885
40.6703 16.3595
40.8607 16.2419
41.0512 16.0071
41.242 15.7965
41.4327 15.6152
41.6236 15.3134
41.8146 15.2253
42.0057 14.9769
42.1969 14.7015
42.3882 14.5983
42.5797 14.3667
42.7713 14.194
42.963 13.9949
43.1549 13.7511
43.3468 13.6159
43.5389 13.4096
43.7312 13.285
43.9237 13.0223
44.1162 12.8788
44.3088 12.6756
44.5016 12.5241
44.6945 12.3207
44.8875 12.1884
45.0806 12.0016
45.2739 11.82
45.4673 11.6812
45.6609 11.4646
45.8546 11.3295
46.0484 11.1711
46.2424 11.0053
46.4365 10.8773
46.631 10.688
46.8254 10.5339
47.0199 10.3863
47.2146 10.2563
47.4095 10.0737
47.6044 9.95594
47.7996 9.78877
47.9948 9.62939
48.1902 9.50598
48.3858 9.40303
48.5815 9.22736
48.7774 9.12025
48.9734 8.97701
49.1696 8.84568
49.3661 8.69202
49.5626 8.52397
49.7592 8.42205
49.956 8.32492
50.153 8.19127
50.3501 8.06865
50.5474 7.92483
50.7448 7.79737
50.9424 7.69495
51.1402 7.58379
51.3381 7.43943
51.5362 7.3835
51.7344 7.18755
51.9328 7.05551
52.1316 6.95206
52.3304 6.85536
52.5293 6.74861
52.7284 6.64056
52.9276 6.5137
53.1271 6.38406
53.3267 6.28045
53.5265 6.20014
53.7264 6.09261
53.9266 5.98508
54.1269 5.83279
54.3274 5.78492
54.528 5.63604
54.7289 5.44854
54.9301 5.3419
55.1314 5.17422
55.3328 4.98732
55.5344 4.80555
55.7361 4.68265