File: XRD/Ni3Fe_FD0175.xy
TT I
1.27165 8.05958
1.45013 6.65302
1.62863 5.61023
1.80712 5.48648
1.98562 4.17586
2.16411 4.51348
2.34263 4.79012
2.52115 4.45484
2.69965 5.87588
2.87818 7.95937
3.05672 11.4059
3.23527 14.912
3.4138 18.8317
3.59237 22.1002
3.77094 25.0946
3.9495 28.839
4.12809 33.0931
4.30669 37.7622
4.4853 45.2123
4.6639 53.9914
4.84253 66.7059
5.02118 90.9485
5.19981 521.611
5.37848 414.176
5.55716 107.58
5.73586 95.7852
5.91455 104.707
6.09328 2858.45
6.27201 88.8392
6.45075 66.734
6.62952 60.2041
6.8083 56.2238
6.98711 54.1362
7.16591 52.9331
7.34475 52.4323
7.5236 55.4553
7.70247 54.2684
7.88135 56.5199
8.06026 60.9697
8.23919 68.121
8.41812 83.6466
8.59709 915.641
8.77609 115.234
8.9551 85.6271
9.13412 81.7847
9.31318 86.2209
9.49226 84.3004
9.67134 89.3003
9.85047 98.9644
10.0296 535.333
10.2088 947.022
10.388 104.877
10.5672 343.62
10.7465 90.407
10.9257 76.2739
11.105 70.3899
11.2844 66.7158
11.4637 64.075
11.6431 62.4752
11.8225 61.4824
12.002 65.1765
12.1814 120.913
12.3609 74.3522
12.5405 63.384
12.72 65.537
12.8996 69.9504
13.0792 79.3164
13.2589 209.526
13.4386 203.673
13.6183 198.609
13.7981 150.003
13.9779 76.5282
14.1577 74.2084
14.3376 69.2754
14.5175 68.7185
14.6974 70.131
14.8774 121.299
15.0574 204.923
15.2374 69.3731
15.4175 66.641
15.5976 66.0757
15.7778 107.351
15.958 187.065
16.1382 62.0969
16.3185 57.584
16.4988 55.4879
16.6792 54.3784
16.8596 54.3847
17.04 55.6596
17.2205 65.8418
17.401 81.2586
17.5815 59.3848
17.7622 61.5626
17.9428 83.8196
18.1237 118.04
18.3044 89.0416
18.4852 94.9034
18.666 61.1809
18.8469 58.5279
19.0278 57.058
19.2088 61.9188
19.3898 70.3161
19.5709 56.6198
19.752 53.8121
19.9332 58.4925
20.1144 67.9272
20.2957 61.917
20.477 59.0688
20.6586 50.0654
20.84 49.2407
21.0215 49.1149
21.203 50.1651
21.3846 50.811
21.5662 49.2647
21.7479 54.5013
21.9297 63.1533
22.1115 56.8806
22.2933 52.6142
22.4753 49.2892
22.6572 49.342
22.8393 52.6373
23.0214 57.8108
23.2037 50.1017
23.3859 51.9121
23.5682 54.3328
23.7505 53.4676
23.9329 46.0345
24.1154 44.5777
24.2979 43.996
24.4805 43.1795
24.6631 43.4476
24.8458 42.7631
25.0286 43.3171
25.2114 45.1544
25.3943 45.3095
25.5773 42.0038
25.7605 41.0174
25.9436 41.3117
26.1268 42.0177
26.31 41.2686
26.4933 41.3532
26.6767 42.5494
26.8601 41.57
27.0437 39.8984
27.2272 39.3215
27.4109 38.8792
27.5946 39.0427
27.7784 38.7957
27.9623 38.8586
28.1462 39.7892
28.3304 38.3704
28.5145 36.5305
28.6987 36.2004
28.8829 35.8469
29.0673 35.4624
29.2517 34.7795
29.4361 34.6041
29.6207 33.8468
29.8053 33.3537
29.99 33.0246
30.1748 32.8429
30.3597 32.8361
30.5447 32.7063
30.7297 32.6597
30.915 32.4013
31.1002 31.7788
31.2855 31.344
31.4708 31.2067
31.6563 31.0385
31.8418 30.6141
32.0275 30.4999
32.2132 30.0361
32.399 29.3091
32.5848 28.8982
32.7708 28.5833
32.9569 28.4029
33.143 28.2567
33.3293 27.8447
33.5158 27.5834
33.7022 27.042
33.8887 26.6483
34.0753 26.4299
34.262 26.0972
34.4488 25.7235
34.6357 25.3263
34.8227 24.9464
35.0098 24.9248
35.1969 24.5498
35.3842 24.3587
35.5716 24.1927
35.759 23.9029
35.9468 23.4902
36.1345 23.2616
36.3222 23.0669
36.5101 22.7361
36.6981 22.5784
36.8861 22.2624
37.0743 21.8715
37.2626 21.5723
37.451 21.3333
37.6395 21.2447
37.8281 20.802
38.0168 20.5324
38.2056 20.3042
38.3945 19.9539
38.5837 19.7791
38.7728 19.546
38.9621 19.2086
39.1514 18.9988
39.3409 18.7184
39.5304 18.5652
39.7201 18.339
39.9099 18.085
40.0999 17.8749
40.2899 17.6383
40.48 17.449
40.6703 17.1786
40.8607 16.9688
41.0512 16.7365
41.242 16.4947
41.4327 16.3579
41.6236 16.1339
41.8146 15.8659
42.0057 15.635
42.1969 15.4615
42.3882 15.2979
42.5797 15.0992
42.7713 14.8413
42.963 14.6691
43.1549 14.4505
43.3468 14.2405
43.5389 14.034
43.7312 13.8529
43.9237 13.7009
44.1162 13.4376
44.3088 13.2201
44.5016 13.0694
44.6945 12.9054
44.8875 12.7624
45.0806 12.5446
45.2739 12.3792
45.4673 12.2223
45.6609 12.0468
45.8546 11.8759
46.0484 11.7198
46.2424 11.532
46.4365 11.3641
46.631 11.1881
46.8254 11.0068
47.0199 10.8521
47.2146 10.7415
47.4095 10.5568
47.6044 10.425
47.7996 10.2523
47.9948 10.0664
48.1902 9.96055
48.3858 9.79634
48.5815 9.67656
48.7774 9.50988
48.9734 9.38127
49.1696 9.25522
49.3661 9.09182
49.5626 8.95402
49.7592 8.86127
49.956 8.69461
50.153 8.58808
50.3501 8.40609
50.5474 8.32987
50.7448 8.17974
50.9424 8.07491
51.1402 7.92609
51.3381 7.77227
51.5362 7.67875
51.7344 7.5331
51.9328 7.45789
52.1316 7.23736
52.3304 7.22144
52.5293 7.0549
52.7284 6.93571
52.9276 6.83169
53.1271 6.7465
53.3267 6.61352
53.5265 6.48245
53.7264 6.40589
53.9266 6.29139
54.1269 6.15969
54.3274 6.02669
54.528 5.85082
54.7289 5.65517
54.9301 5.49993
55.1314 5.34706
55.3328 5.15198
55.5344 4.94049
55.7361 4.81905