File: XRD/Ni3Fe_FD0232.xy
TT I
1.27165 7.93612
1.45013 6.32258
1.62863 6.04287
1.80712 5.21737
1.98562 5.2523
2.16411 4.86837
2.34263 4.66265
2.52115 4.92565
2.69965 6.72793
2.87818 8.64499
3.05672 11.363
3.23527 15.1928
3.4138 19.0163
3.59237 22.6527
3.77094 25.6661
3.9495 30.2821
4.12809 34.9086
4.30669 40.6012
4.4853 48.3458
4.6639 58.6367
4.84253 71.5648
5.02118 96.1973
5.19981 886.626
5.37848 276.438
5.55716 112.706
5.73586 101.189
5.91455 110.152
6.09328 3673.62
6.27201 89.2807
6.45075 71.1015
6.62952 64.1303
6.8083 59.8774
6.98711 57.3023
7.16591 56.6341
7.34475 55.973
7.5236 56.1892
7.70247 58.218
7.88135 60.3084
8.06026 65.2483
8.23919 73.0353
8.41812 90.4877
8.59709 1070.06
8.77609 110.621
8.9551 90.7679
9.13412 86.6758
9.31318 88.287
9.49226 89.3057
9.67134 95.611
9.85047 106.555
10.0296 518.096
10.2088 556.679
10.388 115.58
10.5672 447.454
10.7465 92.2292
10.9257 80.9931
11.105 74.9836
11.2844 70.7544
11.4637 67.7321
11.6431 66.4761
11.8225 65.2093
12.002 68.772
12.1814 141.62
12.3609 70.0165
12.5405 67.2553
12.72 69.7324
12.8996 74.6603
13.0792 86.3859
13.2589 229.815
13.4386 149.856
13.6183 227.16
13.7981 111.054
13.9779 80.2383
14.1577 74.9709
14.3376 72.9894
14.5175 72.5692
14.6974 74.5465
14.8774 119.886
15.0574 170.263
15.2374 72.2656
15.4175 70.0471
15.5976 69.986
15.7778 103.608
15.958 174.881
16.1382 63.7935
16.3185 60.2835
16.4988 58.116
16.6792 57.1194
16.8596 57.4174
17.04 59.4685
17.2205 69.0038
17.401 77.2866
17.5815 61.9903
17.7622 64.4895
17.9428 82.6851
18.1237 138.947
18.3044 90.3906
18.4852 83.5598
18.666 63.3614
18.8469 61.0201
19.0278 59.4831
19.2088 62.7322
19.3898 76.3486
19.5709 57.1484
19.752 56.1708
19.9332 59.5834
20.1144 72.7029
20.2957 64.4968
20.477 56.7451
20.6586 51.9984
20.84 51.2312
21.0215 51.2165
21.203 52.5391
21.3846 51.6268
21.5662 51.8596
21.7479 55.7079
21.9297 66.7942
22.1115 57.9221
22.2933 52.5009
22.4753 50.9935
22.6572 51.8724
22.8393 54.3126
23.0214 59.8806
23.2037 51.4838
23.3859 52.7747
23.5682 57.7236
23.7505 51.1515
23.9329 47.4522
24.1154 46.2318
24.2979 45.4759
24.4805 44.9266
24.6631 44.9307
24.8458 44.2865
25.0286 45.1667
25.2114 46.4851
25.3943 46.5894
25.5773 42.8359
25.7605 42.3535
25.9436 42.6901
26.1268 43.5316
26.31 42.1949
26.4933 42.5066
26.6767 43.8373
26.8601 42.3475
27.0437 40.7742
27.2272 40.3462
27.4109 40.107
27.5946 40.2796
27.7784 39.7751
27.9623 40.0279
28.1462 40.6347
28.3304 38.9949
28.5145 37.5975
28.6987 37.1108
28.8829 36.9009
29.0673 36.3916
29.2517 35.9613
29.4361 35.6778
29.6207 34.663
29.8053 34.3681
29.99 34.0312
30.1748 33.8589
30.3597 33.7872
30.5447 33.719
30.7297 33.5845
30.915 33.147
31.1002 32.5607
31.2855 32.2361
31.4708 32.1712
31.6563 31.8635
31.8418 31.4947
32.0275 31.2681
32.2132 30.7416
32.399 30.2812
32.5848 29.8721
32.7708 29.4317
32.9569 29.3675
33.143 29.0432
33.3293 28.6139
33.5158 28.3116
33.7022 27.8432
33.8887 27.5314
34.0753 27.0764
34.262 26.8619
34.4488 26.4414
34.6357 26.1735
34.8227 25.7918
35.0098 25.6078
35.1969 25.3151
35.3842 25.0725
35.5716 24.8347
35.759 24.4624
35.9468 24.1725
36.1345 23.9682
36.3222 23.7309
36.5101 23.4931
36.6981 23.1679
36.8861 22.7744
37.0743 22.4347
37.2626 22.1683
37.451 21.8894
37.6395 21.7603
37.8281 21.3625
38.0168 21.0991
38.2056 20.8863
38.3945 20.5979
38.5837 20.3524
38.7728 20.0844
38.9621 19.8411
39.1514 19.5319
39.3409 19.3164
39.5304 19.0202
39.7201 18.8888
39.9099 18.6115
40.0999 18.3838
40.2899 18.1643
40.48 17.9167
40.6703 17.6916
40.8607 17.4746
41.0512 17.2541
41.242 17.0076
41.4327 16.7777
41.6236 16.5445
41.8146 16.3341
42.0057 16.1101
42.1969 15.862
42.3882 15.7321
42.5797 15.4466
42.7713 15.2418
42.963 15.041
43.1549 14.8935
43.3468 14.6429
43.5389 14.4523
43.7312 14.2807
43.9237 14.044
44.1162 13.8438
44.3088 13.6806
44.5016 13.4261
44.6945 13.2996
44.8875 13.0522
45.0806 12.8958
45.2739 12.7252
45.4673 12.5518
45.6609 12.3564
45.8546 12.209
46.0484 12.0199
46.2424 11.8554
46.4365 11.7045
46.631 11.5234
46.8254 11.3294
47.0199 11.166
47.2146 11.0515
47.4095 10.8184
47.6044 10.6555
47.7996 10.5203
47.9948 10.3332
48.1902 10.2315
48.3858 10.0524
48.5815 9.93058
48.7774 9.8202
48.9734 9.67201
49.1696 9.4767
49.3661 9.31713
49.5626 9.20125
49.7592 9.07817
49.956 8.92521
50.153 8.78663
50.3501 8.65598
50.5474 8.53996
50.7448 8.37136
50.9424 8.27409
51.1402 8.13693
51.3381 8.02272
51.5362 7.87724
51.7344 7.7824
51.9328 7.63057
52.1316 7.4527
52.3304 7.33043
52.5293 7.22967
52.7284 7.13075
52.9276 6.99683
53.1271 6.93175
53.3267 6.78449
53.5265 6.66421
53.7264 6.55815
53.9266 6.43074
54.1269 6.34362
54.3274 6.17742
54.528 5.96419
54.7289 5.85746
54.9301 5.67354
55.1314 5.54252
55.3328 5.33529
55.5344 5.13008
55.7361 5.01292