File: XRD/Ni3Fe_FD0742.xy
TT I
1.27165 7.50167
1.45013 5.72325
1.62863 5.17689
1.80712 4.84459
1.98562 4.78613
2.16411 5.01289
2.34263 6.14126
2.52115 7.3712
2.69965 8.31177
2.87818 8.57631
3.05672 11.3714
3.23527 15.0324
3.4138 18.6467
3.59237 24.0163
3.77094 26.1635
3.9495 30.2636
4.12809 34.8684
4.30669 223.609
4.4853 65.5378
4.6639 55.38
4.84253 67.1391
5.02118 85.953
5.19981 317.629
5.37848 185.247
5.55716 101.193
5.73586 91.7843
5.91455 92.5954
6.09328 4561.01
6.27201 82.4779
6.45075 67.5401
6.62952 62.3892
6.8083 58.5361
6.98711 55.9026
7.16591 54.7672
7.34475 92.0303
7.5236 54.5191
7.70247 55.8436
7.88135 57.4414
8.06026 62.0368
8.23919 69.115
8.41812 84.7871
8.59709 1160.87
8.77609 98.5498
8.9551 91.3412
9.13412 81.4795
9.31318 82.1087
9.49226 84.2395
9.67134 98.315
9.85047 99.1217
10.0296 320.185
10.2088 411.195
10.388 103.687
10.5672 517.369
10.7465 86.1179
10.9257 78.5606
11.105 71.4709
11.2844 70.234
11.4637 64.5945
11.6431 63.5104
11.8225 62.0741
12.002 63.1778
12.1814 151.346
12.3609 70.7029
12.5405 64.1901
12.72 70.0157
12.8996 70.5274
13.0792 78.0138
13.2589 235.031
13.4386 126.185
13.6183 244.8
13.7981 97.9715
13.9779 75.3573
14.1577 72.2097
14.3376 71.4593
14.5175 68.4847
14.6974 69.9363
14.8774 108.262
15.0574 151.605
15.2374 70.9466
15.4175 66.2019
15.5976 65.3196
15.7778 92.8196
15.958 156.423
16.1382 62.5917
16.3185 58.4356
16.4988 55.3001
16.6792 54.3411
16.8596 55.0766
17.04 55.2661
17.2205 66.1314
17.401 70.7704
17.5815 59.0484
17.7622 60.8396
17.9428 72.4897
18.1237 138.727
18.3044 90.1406
18.4852 77.2198
18.666 60.0541
18.8469 57.6772
19.0278 56.536
19.2088 58.9044
19.3898 76.1681
19.5709 54.2226
19.752 53.0716
19.9332 55.8779
20.1144 69.1252
20.2957 63.6709
20.477 53.6148
20.6586 49.4493
20.84 48.645
21.0215 48.3105
21.203 50.6456
21.3846 48.7898
21.5662 48.4662
21.7479 52.1066
21.9297 64.254
22.1115 55.6866
22.2933 49.7477
22.4753 48.733
22.6572 48.529
22.8393 51.8259
23.0214 56.9242
23.2037 48.5448
23.3859 49.3049
23.5682 56.8749
23.7505 48.1664
23.9329 44.9491
24.1154 43.9609
24.2979 43.2334
24.4805 42.6522
24.6631 42.58
24.8458 42.1056
25.0286 42.5441
25.2114 44.4763
25.3943 44.4173
25.5773 40.8108
25.7605 40.2587
25.9436 40.6007
26.1268 41.474
26.31 39.8645
26.4933 40.5075
26.6767 41.8811
26.8601 40.2307
27.0437 38.6442
27.2272 38.2231
27.4109 38.1815
27.5946 38.1342
27.7784 37.7391
27.9623 38.1568
28.1462 38.6043
28.3304 36.9769
28.5145 35.7845
28.6987 35.4053
28.8829 35.403
29.0673 34.4529
29.2517 34.1185
29.4361 33.9575
29.6207 32.9889
29.8053 32.785
29.99 32.4902
30.1748 32.4359
30.3597 32.0472
30.5447 32.0199
30.7297 32.0829
30.915 31.4011
31.1002 30.9046
31.2855 30.6993
31.4708 30.7292
31.6563 30.2247
31.8418 29.9865
32.0275 29.751
32.2132 29.2819
32.399 28.8291
32.5848 28.3712
32.7708 28.0129
32.9569 27.91
33.143 27.6314
33.3293 27.2708
33.5158 26.8647
33.7022 26.4614
33.8887 26.2777
34.0753 25.9195
34.262 25.5106
34.4488 25.1691
34.6357 24.9422
34.8227 24.5357
35.0098 24.3597
35.1969 24.1359
35.3842 23.9223
35.5716 23.6464
35.759 23.2889
35.9468 23.0145
36.1345 22.7713
36.3222 22.5781
36.5101 22.3323
36.6981 21.9975
36.8861 21.665
37.0743 21.3662
37.2626 21.1263
37.451 20.921
37.6395 20.8007
37.8281 20.449
38.0168 20.0713
38.2056 19.8755
38.3945 19.66
38.5837 19.3486
38.7728 19.1281
38.9621 18.8964
39.1514 18.5889
39.3409 18.387
39.5304 18.1508
39.7201 17.9192
39.9099 17.7565
40.0999 17.5434
40.2899 17.2507
40.48 17.1201
40.6703 16.8202
40.8607 16.686
41.0512 16.4295
41.242 16.1928
41.4327 15.9874
41.6236 15.7459
41.8146 15.6115
42.0057 15.3708
42.1969 15.1529
42.3882 14.9644
42.5797 14.7327
42.7713 14.6014
42.963 14.3328
43.1549 14.1466
43.3468 13.9607
43.5389 13.7905
43.7312 13.5575
43.9237 13.3975
44.1162 13.2139
44.3088 13.014
44.5016 12.8589
44.6945 12.6711
44.8875 12.4938
45.0806 12.3319
45.2739 12.1724
45.4673 12.0086
45.6609 11.8047
45.8546 11.6496
46.0484 11.4787
46.2424 11.304
46.4365 11.1903
46.631 10.956
46.8254 10.8172
47.0199 10.6632
47.2146 10.4935
47.4095 10.3261
47.6044 10.237
47.7996 10.044
47.9948 9.90837
48.1902 9.77652
48.3858 9.63298
48.5815 9.4936
48.7774 9.38949
48.9734 9.24256
49.1696 9.04351
49.3661 8.92955
49.5626 8.81005
49.7592 8.69404
49.956 8.56265
50.153 8.41396
50.3501 8.30375
50.5474 8.10995
50.7448 7.99962
50.9424 7.89982
51.1402 7.77784
51.3381 7.65971
51.5362 7.5295
51.7344 7.39172
51.9328 7.27772
52.1316 7.17533
52.3304 7.06509
52.5293 6.90057
52.7284 6.80364
52.9276 6.69888
53.1271 6.60964
53.3267 6.47459
53.5265 6.3637
53.7264 6.24729
53.9266 6.15673
54.1269 6.06687
54.3274 5.96003
54.528 5.77554
54.7289 5.59559
54.9301 5.47518
55.1314 5.34263
55.3328 5.1458
55.5344 4.96664
55.7361 4.8067