File: XRD/Ni3Fe_FD0154.xy
TT I
1.27165 8.04219
1.45013 6.32862
1.62863 5.18941
1.80712 5.50329
1.98562 4.91959
2.16411 4.65414
2.34263 4.39407
2.52115 3.93014
2.69965 5.02697
2.87818 7.89244
3.05672 11.1633
3.23527 15.0438
3.4138 19.0404
3.59237 22.0931
3.77094 25.2738
3.9495 28.6049
4.12809 32.6289
4.30669 38.0786
4.4853 44.8758
4.6639 53.8853
4.84253 65.8236
5.02118 90.4564
5.19981 543.72
5.37848 450.701
5.55716 107.281
5.73586 95.4597
5.91455 105.32
6.09328 2731.6
6.27201 88.5574
6.45075 66.2338
6.62952 59.8729
6.8083 55.6933
6.98711 53.4505
7.16591 52.2923
7.34475 52.0297
7.5236 55.672
7.70247 54.1529
7.88135 56.2031
8.06026 60.8237
8.23919 67.4725
8.41812 83.4642
8.59709 890.912
8.77609 116.086
8.9551 84.8816
9.13412 81.235
9.31318 86.2322
9.49226 83.4603
9.67134 88.6214
9.85047 98.6352
10.0296 543.215
10.2088 981.322
10.388 104.303
10.5672 330.546
10.7465 90.5289
10.9257 75.4625
11.105 70.0979
11.2844 66.0641
11.4637 63.2943
11.6431 61.9646
11.8225 60.781
12.002 65.1374
12.1814 117.762
12.3609 74.6603
12.5405 62.9925
12.72 64.908
12.8996 69.7024
13.0792 79.0003
13.2589 204.916
13.4386 211.131
13.6183 192.948
13.7981 153.601
13.9779 75.998
14.1577 73.9412
14.3376 69.0085
14.5175 68.41
14.6974 69.6218
14.8774 120.828
15.0574 203.556
15.2374 69.1395
15.4175 66.1989
15.5976 65.567
15.7778 107.363
15.958 184.882
16.1382 61.9499
16.3185 57.3213
16.4988 54.9806
16.6792 53.8533
16.8596 54.1626
17.04 55.3624
17.2205 65.3322
17.401 80.7332
17.5815 58.8585
17.7622 61.1579
17.9428 83.7866
18.1237 115.023
18.3044 88.2156
18.4852 94.9952
18.666 60.8991
18.8469 58.2255
19.0278 56.6526
19.2088 61.888
19.3898 69.059
19.5709 56.319
19.752 53.2776
19.9332 58.0559
20.1144 66.8517
20.2957 61.3191
20.477 59.0005
20.6586 49.8337
20.84 49.0838
21.0215 48.926
21.203 49.695
21.3846 50.4188
21.5662 48.8732
21.7479 53.9581
21.9297 62.0444
22.1115 56.0647
22.2933 52.4737
22.4753 48.9396
22.6572 49.0529
22.8393 51.9778
23.0214 57.2213
23.2037 49.9428
23.3859 51.7446
23.5682 53.7293
23.7505 53.1133
23.9329 45.621
24.1154 44.2606
24.2979 43.5494
24.4805 42.9654
24.6631 43.0127
24.8458 42.5222
25.0286 43.0909
25.2114 44.6871
25.3943 44.8237
25.5773 41.7219
25.7605 40.6445
25.9436 41.1008
26.1268 41.5969
26.31 40.9761
26.4933 40.8271
26.6767 42.1823
26.8601 41.2107
27.0437 39.4824
27.2272 38.9306
27.4109 38.6357
27.5946 38.9198
27.7784 38.4836
27.9623 38.512
28.1462 39.4458
28.3304 38.0117
28.5145 36.1832
28.6987 35.895
28.8829 35.4496
29.0673 35.2139
29.2517 34.4455
29.4361 34.2847
29.6207 33.6257
29.8053 33.0872
29.99 32.9058
30.1748 32.5744
30.3597 32.6243
30.5447 32.4521
30.7297 32.3908
30.915 32.0932
31.1002 31.521
31.2855 31.1415
31.4708 30.9602
31.6563 30.8356
31.8418 30.4124
32.0275 30.2688
32.2132 29.6643
32.399 29.1557
32.5848 28.7798
32.7708 28.4975
32.9569 28.2492
33.143 27.9032
33.3293 27.7096
33.5158 27.3045
33.7022 26.7759
33.8887 26.5129
34.0753 26.2844
34.262 25.8575
34.4488 25.4707
34.6357 25.252
34.8227 24.8619
35.0098 24.6272
35.1969 24.4078
35.3842 24.0992
35.5716 24.0322
35.759 23.6279
35.9468 23.2595
36.1345 23.132
36.3222 22.8197
36.5101 22.6061
36.6981 22.2811
36.8861 21.986
37.0743 21.6682
37.2626 21.3862
37.451 21.1198
37.6395 20.9648
37.8281 20.6515
38.0168 20.3488
38.2056 20.1897
38.3945 19.7613
38.5837 19.6002
38.7728 19.3641
38.9621 19.0862
39.1514 18.7436
39.3409 18.576
39.5304 18.4254
39.7201 18.1229
39.9099 17.9307
40.0999 17.7278
40.2899 17.5047
40.48 17.2919
40.6703 17.0483
40.8607 16.868
41.0512 16.6081
41.242 16.4213
41.4327 16.1768
41.6236 15.9277
41.8146 15.7549
42.0057 15.4867
42.1969 15.3322
42.3882 15.1739
42.5797 14.9226
42.7713 14.7287
42.963 14.522
43.1549 14.3115
43.3468 14.1402
43.5389 13.9535
43.7312 13.7494
43.9237 13.5576
44.1162 13.38
44.3088 13.1553
44.5016 12.9672
44.6945 12.8264
44.8875 12.5981
45.0806 12.4542
45.2739 12.2511
45.4673 12.1116
45.6609 11.9089
45.8546 11.7817
46.0484 11.6104
46.2424 11.4382
46.4365 11.2643
46.631 11.0771
46.8254 10.9334
47.0199 10.786
47.2146 10.6596
47.4095 10.472
47.6044 10.305
47.7996 10.1685
47.9948 10.0279
48.1902 9.88412
48.3858 9.74356
48.5815 9.56506
48.7774 9.45773
48.9734 9.32179
49.1696 9.19198
49.3661 9.04519
49.5626 8.88709
49.7592 8.7626
49.956 8.64015
50.153 8.50635
50.3501 8.3917
50.5474 8.25695
50.7448 8.16331
50.9424 8.02182
51.1402 7.87988
51.3381 7.71426
51.5362 7.64898
51.7344 7.4943
51.9328 7.31066
52.1316 7.21896
52.3304 7.1343
52.5293 7.01689
52.7284 6.89818
52.9276 6.78139
53.1271 6.69475
53.3267 6.57352
53.5265 6.44781
53.7264 6.37282
53.9266 6.23048
54.1269 6.06456
54.3274 5.96109
54.528 5.77901
54.7289 5.69095
54.9301 5.43176
55.1314 5.31641
55.3328 5.06211
55.5344 4.9002
55.7361 4.76137