File: XRD/Ni3Fe_FD0246.xy
TT I
1.27165 8.08571
1.45013 6.52355
1.62863 6.03802
1.80712 4.8525
1.98562 5.33367
2.16411 4.83708
2.34263 4.41975
2.52115 5.21164
2.69965 6.02586
2.87818 7.98095
3.05672 11.0701
3.23527 15.2566
3.4138 18.5393
3.59237 22.2305
3.77094 25.7447
3.9495 30.2396
4.12809 35.7216
4.30669 40.3724
4.4853 48.2921
4.6639 57.8659
4.84253 71.6965
5.02118 96.2799
5.19981 892.271
5.37848 266.31
5.55716 112.201
5.73586 100.648
5.91455 109.786
6.09328 3739.14
6.27201 88.4043
6.45075 71.3482
6.62952 64.1852
6.8083 60.091
6.98711 57.334
7.16591 56.3221
7.34475 55.9579
7.5236 56.1026
7.70247 58.1644
7.88135 60.2907
8.06026 65.2853
8.23919 73.3102
8.41812 90.2512
8.59709 1087.07
8.77609 109.937
8.9551 90.9649
9.13412 86.9447
9.31318 88.4517
9.49226 89.1791
9.67134 95.6631
9.85047 106.681
10.0296 512.141
10.2088 533.847
10.388 115.614
10.5672 452.275
10.7465 92.0796
10.9257 80.7544
11.105 74.8268
11.2844 70.6528
11.4637 67.7719
11.6431 66.233
11.8225 65.1737
12.002 68.7915
12.1814 141.733
12.3609 69.7561
12.5405 67.3537
12.72 69.6057
12.8996 74.5137
13.0792 86.4552
13.2589 232.948
13.4386 147.81
13.6183 228.925
13.7981 109.186
13.9779 79.9742
14.1577 75.1427
14.3376 72.8549
14.5175 72.5144
14.6974 74.3846
14.8774 120.167
15.0574 167.081
15.2374 71.9853
15.4175 69.848
15.5976 69.8873
15.7778 103.876
15.958 170.379
16.1382 63.9373
16.3185 60.164
16.4988 57.9937
16.6792 56.8553
16.8596 57.2788
17.04 59.3975
17.2205 69.2008
17.401 76.8795
17.5815 62.0456
17.7622 64.737
17.9428 82.6275
18.1237 139.494
18.3044 90.5324
18.4852 82.7779
18.666 63.4465
18.8469 60.8321
19.0278 59.5238
19.2088 62.58
19.3898 76.3707
19.5709 56.9698
19.752 56.0898
19.9332 59.6203
20.1144 72.6625
20.2957 64.5091
20.477 56.434
20.6586 52.0874
20.84 51.0013
21.0215 51.3422
21.203 52.5962
21.3846 51.4734
21.5662 51.8741
21.7479 55.4187
21.9297 66.8925
22.1115 57.8253
22.2933 52.3606
22.4753 50.7929
22.6572 51.773
22.8393 54.2379
23.0214 59.9983
23.2037 51.355
23.3859 52.3999
23.5682 57.633
23.7505 51.0116
23.9329 47.2976
24.1154 46.0607
24.2979 45.3504
24.4805 44.7795
24.6631 44.7416
24.8458 44.2873
25.0286 44.8199
25.2114 46.4402
25.3943 46.5475
25.5773 42.8433
25.7605 42.4712
25.9436 42.4838
26.1268 43.4967
26.31 42.0718
26.4933 42.4796
26.6767 43.9139
26.8601 42.1135
27.0437 40.6039
27.2272 40.3426
27.4109 39.9942
27.5946 40.1865
27.7784 39.7312
27.9623 39.9604
28.1462 40.6325
28.3304 38.9679
28.5145 37.4898
28.6987 37.1734
28.8829 36.9013
29.0673 36.2885
29.2517 35.7969
29.4361 35.5425
29.6207 34.6346
29.8053 34.3699
29.99 34.0222
30.1748 33.9285
30.3597 33.7145
30.5447 33.6156
30.7297 33.5007
30.915 33.0217
31.1002 32.4659
31.2855 32.1699
31.4708 32.1582
31.6563 31.6201
31.8418 31.4478
32.0275 31.2557
32.2132 30.6829
32.399 30.1705
32.5848 29.7671
32.7708 29.4828
32.9569 29.2542
33.143 28.9861
33.3293 28.5384
33.5158 28.1721
33.7022 27.7812
33.8887 27.4233
34.0753 27.1473
34.262 26.7195
34.4488 26.4868
34.6357 26.0716
34.8227 25.7752
35.0098 25.5908
35.1969 25.2874
35.3842 25.0208
35.5716 24.8017
35.759 24.5444
35.9468 24.0509
36.1345 23.8623
36.3222 23.7015
36.5101 23.3927
36.6981 23.045
36.8861 22.7256
37.0743 22.4695
37.2626 22.1597
37.451 21.831
37.6395 21.7591
37.8281 21.3373
38.0168 21.0407
38.2056 20.8383
38.3945 20.498
38.5837 20.2722
38.7728 20.0034
38.9621 19.8228
39.1514 19.5026
39.3409 19.2491
39.5304 19.0378
39.7201 18.8295
39.9099 18.5979
40.0999 18.388
40.2899 18.1646
40.48 17.8407
40.6703 17.6693
40.8607 17.4477
41.0512 17.1814
41.242 16.9756
41.4327 16.733
41.6236 16.5336
41.8146 16.2887
42.0057 16.1096
42.1969 15.8805
42.3882 15.6825
42.5797 15.4063
42.7713 15.2583
42.963 15.0334
43.1549 14.8536
43.3468 14.6055
43.5389 14.4319
43.7312 14.148
43.9237 14.0594
44.1162 13.8286
44.3088 13.6191
44.5016 13.465
44.6945 13.2834
44.8875 13.0635
45.0806 12.9277
45.2739 12.6956
45.4673 12.5552
45.6609 12.332
45.8546 12.2046
46.0484 11.9827
46.2424 11.845
46.4365 11.6895
46.631 11.4577
46.8254 11.2587
47.0199 11.1707
47.2146 10.962
47.4095 10.7771
47.6044 10.6299
47.7996 10.5099
47.9948 10.3624
48.1902 10.2109
48.3858 10.0829
48.5815 9.9276
48.7774 9.80308
48.9734 9.63103
49.1696 9.45949
49.3661 9.32695
49.5626 9.18547
49.7592 9.03235
49.956 8.90923
50.153 8.81686
50.3501 8.66135
50.5474 8.50684
50.7448 8.3823
50.9424 8.22225
51.1402 8.12077
51.3381 7.97178
51.5362 7.85392
51.7344 7.71651
51.9328 7.58098
52.1316 7.47051
52.3304 7.31151
52.5293 7.19879
52.7284 7.07195
52.9276 6.95812
53.1271 6.8752
53.3267 6.74654
53.5265 6.65488
53.7264 6.50702
53.9266 6.36171
54.1269 6.29818
54.3274 6.1797
54.528 5.98585
54.7289 5.8108
54.9301 5.69008
55.1314 5.5295
55.3328 5.27488
55.5344 5.09299
55.7361 4.97968