File: XRD/Ni3Fe_FD0274.xy
TT I
1.27165 7.75286
1.45013 6.20661
1.62863 5.01207
1.80712 5.09139
1.98562 4.36748
2.16411 4.43121
2.34263 4.54245
2.52115 5.75705
2.69965 6.8162
2.87818 8.29931
3.05672 10.9911
3.23527 15.181
3.4138 19.1787
3.59237 24.3674
3.77094 26.6413
3.9495 30.4124
4.12809 35.7947
4.30669 210.785
4.4853 66.3402
4.6639 57.4972
4.84253 70.4862
5.02118 92.3776
5.19981 527.285
5.37848 267.214
5.55716 108.404
5.73586 97.8666
5.91455 102.752
6.09328 3756.8
6.27201 90.0222
6.45075 70.7162
6.62952 65.3177
6.8083 61.1249
6.98711 57.8146
7.16591 57.5531
7.34475 93.2407
7.5236 56.6285
7.70247 58.5109
7.88135 59.9808
8.06026 64.8412
8.23919 72.6821
8.41812 89.6369
8.59709 1064.77
8.77609 109.524
8.9551 95.638
9.13412 85.6385
9.31318 86.6446
9.49226 88.2779
9.67134 102.29
9.85047 104.915
10.0296 422.332
10.2088 599.926
10.388 111.303
10.5672 453.222
10.7465 91.623
10.9257 81.8806
11.105 75.0834
11.2844 73.4346
11.4637 67.5028
11.6431 66.3118
11.8225 65.4612
12.002 66.5323
12.1814 141.501
12.3609 75.355
12.5405 67.4058
12.72 72.603
12.8996 73.9032
13.0792 82.664
13.2589 223.308
13.4386 152.865
13.6183 226.5
13.7981 114.901
13.9779 79.0691
14.1577 75.447
14.3376 74.52
14.5175 71.5744
14.6974 73.4514
14.8774 114.142
15.0574 174.503
15.2374 74.1356
15.4175 69.2736
15.5976 68.5909
15.7778 99.3395
15.958 175.453
16.1382 65.5444
16.3185 61.0794
16.4988 57.9922
16.6792 56.8389
16.8596 57.4487
17.04 58.2384
17.2205 68.0245
17.401 77.704
17.5815 61.9946
17.7622 63.8456
17.9428 79.1089
18.1237 136.739
18.3044 90.4779
18.4852 86.0128
18.666 63.0884
18.8469 60.6927
19.0278 59.3933
19.2088 62.5319
19.3898 77.8709
19.5709 57.0276
19.752 55.5452
19.9332 58.9404
20.1144 71.586
20.2957 64.6862
20.477 57.2334
20.6586 51.965
20.84 50.9375
21.0215 50.8826
21.203 52.4984
21.3846 51.3075
21.5662 50.9871
21.7479 54.6988
21.9297 66.4218
22.1115 57.9906
22.2933 52.622
22.4753 50.9645
22.6572 51.1032
22.8393 53.5774
23.0214 60.071
23.2037 51.1306
23.3859 51.9364
23.5682 57.7616
23.7505 51.4041
23.9329 47.156
24.1154 45.9927
24.2979 45.3746
24.4805 44.7086
24.6631 44.7865
24.8458 44.0131
25.0286 44.5573
25.2114 46.3798
25.3943 46.5533
25.5773 42.9046
25.7605 42.202
25.9436 42.4108
26.1268 43.4102
26.31 41.9861
26.4933 42.2809
26.6767 43.7298
26.8601 42.1996
27.0437 40.6451
27.2272 40.2609
27.4109 39.9019
27.5946 40.0345
27.7784 39.6069
27.9623 39.8729
28.1462 40.4074
28.3304 38.8576
28.5145 37.4458
28.6987 37.1124
28.8829 36.8253
29.0673 36.2081
29.2517 35.7654
29.4361 35.6047
29.6207 34.5931
29.8053 34.3259
29.99 33.8948
30.1748 33.8419
30.3597 33.7061
30.5447 33.4755
30.7297 33.564
30.915 32.9923
31.1002 32.3539
31.2855 32.0695
31.4708 32.091
31.6563 31.6223
31.8418 31.4577
32.0275 31.1457
32.2132 30.6658
32.399 30.2349
32.5848 29.7251
32.7708 29.346
32.9569 29.2209
33.143 28.9109
33.3293 28.5803
33.5158 28.1752
33.7022 27.8018
33.8887 27.4001
34.0753 27.0685
34.262 26.777
34.4488 26.4138
34.6357 26.001
34.8227 25.7691
35.0098 25.5298
35.1969 25.164
35.3842 24.9422
35.5716 24.8249
35.759 24.3846
35.9468 24.0328
36.1345 23.8455
36.3222 23.6804
36.5101 23.3993
36.6981 23.0046
36.8861 22.7398
37.0743 22.3826
37.2626 22.1317
37.451 21.8823
37.6395 21.6782
37.8281 21.3828
38.0168 21.0935
38.2056 20.805
38.3945 20.5243
38.5837 20.2819
38.7728 20.0345
38.9621 19.8196
39.1514 19.442
39.3409 19.2521
39.5304 19.0266
39.7201 18.8247
39.9099 18.5777
40.0999 18.3668
40.2899 18.1035
40.48 17.8525
40.6703 17.6601
40.8607 17.4736
41.0512 17.225
41.242 16.9233
41.4327 16.7776
41.6236 16.5123
41.8146 16.3405
42.0057 16.0842
42.1969 15.8722
42.3882 15.6429
42.5797 15.4289
42.7713 15.2374
42.963 15.0241
43.1549 14.8001
43.3468 14.5608
43.5389 14.3959
43.7312 14.2018
43.9237 14.0081
44.1162 13.8296
44.3088 13.6237
44.5016 13.4318
44.6945 13.2206
44.8875 13.0724
45.0806 12.8883
45.2739 12.6494
45.4673 12.5379
45.6609 12.3216
45.8546 12.2048
46.0484 12.0028
46.2424 11.791
46.4365 11.693
46.631 11.5338
46.8254 11.3196
47.0199 11.1062
47.2146 10.9355
47.4095 10.8429
47.6044 10.6198
47.7996 10.4945
47.9948 10.343
48.1902 10.2473
48.3858 10.0466
48.5815 9.88654
48.7774 9.74526
48.9734 9.65195
49.1696 9.47507
49.3661 9.31013
49.5626 9.18949
49.7592 9.04577
49.956 8.90462
50.153 8.7739
50.3501 8.59676
50.5474 8.52764
50.7448 8.33959
50.9424 8.25417
51.1402 8.10641
51.3381 7.9985
51.5362 7.86141
51.7344 7.71891
51.9328 7.62734
52.1316 7.47227
52.3304 7.37692
52.5293 7.26341
52.7284 7.10748
52.9276 6.9438
53.1271 6.9081
53.3267 6.78199
53.5265 6.64717
53.7264 6.51946
53.9266 6.42207
54.1269 6.24832
54.3274 6.16217
54.528 6.04304
54.7289 5.87375
54.9301 5.69678
55.1314 5.55476
55.3328 5.3162
55.5344 5.09906
55.7361 4.97086