File: XRD/Ni3Fe_FD0114.xy
TT I
1.27165 8.22297
1.45013 7.19088
1.62863 5.82259
1.80712 5.05174
1.98562 5.60704
2.16411 4.82918
2.34263 3.97309
2.52115 3.88374
2.69965 5.12679
2.87818 7.42079
3.05672 11.1722
3.23527 14.8974
3.4138 17.9216
3.59237 21.3551
3.77094 24.7489
3.9495 28.5825
4.12809 32.0353
4.30669 37.7207
4.4853 44.4355
4.6639 53.3507
4.84253 65.4139
5.02118 91.789
5.19981 608.202
5.37848 566.497
5.55716 109.246
5.73586 95.9687
5.91455 107.937
6.09328 2408.58
6.27201 92.0258
6.45075 66.6267
6.62952 59.5666
6.8083 55.2284
6.98711 52.8694
7.16591 51.7232
7.34475 52.0139
7.5236 56.8088
7.70247 53.3087
7.88135 55.5031
8.06026 59.5337
8.23919 67.4914
8.41812 83.5611
8.59709 814.471
8.77609 122.592
8.9551 84.8507
9.13412 81.0449
9.31318 89.8536
9.49226 82.7256
9.67134 87.691
9.85047 98.3397
10.0296 569.133
10.2088 1104.19
10.388 104.701
10.5672 291.624
10.7465 92.202
10.9257 74.9996
11.105 69.8403
11.2844 65.4258
11.4637 62.8585
11.6431 61.6678
11.8225 60.3424
12.002 66.8813
12.1814 110.114
12.3609 78.7082
12.5405 62.4737
12.72 64.4282
12.8996 68.9801
13.0792 78.8357
13.2589 193.234
13.4386 234.685
13.6183 178.328
13.7981 169.754
13.9779 75.5953
14.1577 75.1594
14.3376 68.2544
14.5175 67.5991
14.6974 68.9513
14.8774 120.442
15.0574 207.674
15.2374 68.4612
15.4175 65.3902
15.5976 64.8411
15.7778 107.696
15.958 182.018
16.1382 61.7611
16.3185 56.6577
16.4988 54.4312
16.6792 53.3832
16.8596 53.7149
17.04 54.7717
17.2205 64.0437
17.401 80.6499
17.5815 58.495
17.7622 60.829
17.9428 84.3129
18.1237 106.638
18.3044 87.4692
18.4852 97.743
18.666 60.54
18.8469 57.6807
19.0278 56.1582
19.2088 61.4021
19.3898 66.7196
19.5709 56.544
19.752 52.7479
19.9332 58.0716
20.1144 64.7355
20.2957 60.2446
20.477 59.6955
20.6586 49.2853
20.84 48.7241
21.0215 48.5906
21.203 49.0059
21.3846 50.3359
21.5662 48.551
21.7479 53.6499
21.9297 60.0696
22.1115 56.0782
22.2933 52.6129
22.4753 48.4818
22.6572 48.6661
22.8393 51.3538
23.0214 55.7388
23.2037 49.7277
23.3859 51.3755
23.5682 52.2337
23.7505 54.0416
23.9329 45.2639
24.1154 44.0324
24.2979 43.0969
24.4805 42.5733
24.6631 42.6986
24.8458 42.2277
25.0286 42.6079
25.2114 43.888
25.3943 44.1121
25.5773 41.6436
25.7605 40.2962
25.9436 40.6215
26.1268 40.969
26.31 40.7861
26.4933 40.5333
26.6767 41.3931
26.8601 41.007
27.0437 39.2946
27.2272 38.5401
27.4109 38.1638
27.5946 38.3618
27.7784 38.1398
27.9623 38.0196
28.1462 38.7993
28.3304 37.8418
28.5145 36.0423
28.6987 35.6276
28.8829 35.1692
29.0673 34.9585
29.2517 34.3098
29.4361 33.965
29.6207 33.2745
29.8053 32.7554
29.99 32.5665
30.1748 32.3331
30.3597 32.338
30.5447 32.0308
30.7297 31.9643
30.915 31.7544
31.1002 31.2092
31.2855 30.8542
31.4708 30.6817
31.6563 30.5746
31.8418 30.0842
32.0275 29.8355
32.2132 29.4019
32.399 28.9427
32.5848 28.431
32.7708 28.1281
32.9569 27.9685
33.143 27.6684
33.3293 27.3025
33.5158 27.0885
33.7022 26.5081
33.8887 26.2059
34.0753 26.0032
34.262 25.6102
34.4488 25.1507
34.6357 24.9685
34.8227 24.6145
35.0098 24.4656
35.1969 24.0967
35.3842 23.8122
35.5716 23.7038
35.759 23.4648
35.9468 23.0157
36.1345 22.7973
36.3222 22.6772
36.5101 22.3542
36.6981 22.1183
36.8861 21.8044
37.0743 21.3669
37.2626 21.1783
37.451 20.9322
37.6395 20.7079
37.8281 20.4196
38.0168 20.1909
38.2056 19.8909
38.3945 19.5843
38.5837 19.3736
38.7728 19.1932
38.9621 18.9536
39.1514 18.6535
39.3409 18.3987
39.5304 18.2403
39.7201 17.988
39.9099 17.8032
40.0999 17.5422
40.2899 17.3283
40.48 17.0723
40.6703 16.8685
40.8607 16.674
41.0512 16.4976
41.242 16.2272
41.4327 15.9991
41.6236 15.7933
41.8146 15.6076
42.0057 15.3354
42.1969 15.1714
42.3882 14.9983
42.5797 14.7899
42.7713 14.6127
42.963 14.4123
43.1549 14.1756
43.3468 13.9732
43.5389 13.757
43.7312 13.6082
43.9237 13.4677
44.1162 13.2042
44.3088 13.0464
44.5016 12.8196
44.6945 12.6733
44.8875 12.5357
45.0806 12.3307
45.2739 12.1601
45.4673 11.9861
45.6609 11.818
45.8546 11.673
46.0484 11.4777
46.2424 11.316
46.4365 11.1772
46.631 10.9733
46.8254 10.8229
47.0199 10.6742
47.2146 10.5425
47.4095 10.3502
47.6044 10.1856
47.7996 10.07
47.9948 9.91761
48.1902 9.76787
48.3858 9.61994
48.5815 9.4915
48.7774 9.38035
48.9734 9.22862
49.1696 9.09252
49.3661 8.95433
49.5626 8.78169
49.7592 8.69883
49.956 8.5439
50.153 8.46638
50.3501 8.27724
50.5474 8.17552
50.7448 8.07092
50.9424 7.9025
51.1402 7.77877
51.3381 7.6427
51.5362 7.56215
51.7344 7.42864
51.9328 7.28975
52.1316 7.16883
52.3304 7.03669
52.5293 6.93774
52.7284 6.82482
52.9276 6.73705
53.1271 6.64479
53.3267 6.52129
53.5265 6.33575
53.7264 6.24933
53.9266 6.14351
54.1269 6.02757
54.3274 5.87856
54.528 5.73285
54.7289 5.52539
54.9301 5.40398
55.1314 5.27157
55.3328 5.04622
55.5344 4.79474
55.7361 4.75404