File: XRD/Ni3Fe_FD0031.xy
TT I
1.27165 33.1965
1.45013 28.4414
1.62863 25.3039
1.80712 22.8481
1.98562 22.0853
2.16411 24.2121
2.34263 24.9262
2.52115 24.11
2.69965 27.4031
2.87818 37.677
3.05672 64.6656
3.23527 73.2735
3.4138 39.4017
3.59237 37.5236
3.77094 37.0387
3.9495 34.2547
4.12809 46.3482
4.30669 89.7258
4.4853 58.0833
4.6639 45.3274
4.84253 52.684
5.02118 89.0874
5.19981 294.248
5.37848 3548.27
5.55716 154.626
5.73586 100.662
5.91455 113.528
6.09328 490.797
6.27201 286.513
6.45075 70.8192
6.62952 55.7241
6.8083 54.7129
6.98711 43.5826
7.16591 46.9678
7.34475 75.8815
7.5236 54.2047
7.70247 44.2069
7.88135 37.5149
8.06026 39.7233
8.23919 45.5058
8.41812 58.2809
8.59709 171.501
8.77609 581.673
8.9551 77.3187
9.13412 60.0647
9.31318 252.791
9.49226 54.3187
9.67134 54.7184
9.85047 62.3528
10.0296 106.515
10.2088 552.097
10.388 122.721
10.5672 93.7184
10.7465 243.63
10.9257 49.5807
11.105 43.9936
11.2844 43.1371
11.4637 38.8489
11.6431 38.4087
11.8225 37.6668
12.002 77.267
12.1814 47.9987
12.3609 95.8051
12.5405 44.5178
12.72 42.4947
12.8996 40.2197
13.0792 43.6367
13.2589 65.8029
13.4386 164.12
13.6183 88.778
13.7981 172.829
13.9779 58.9311
14.1577 49.8882
14.3376 46.5435
14.5175 39.2372
14.6974 39.2445
14.8774 44.7696
15.0574 64.0776
15.2374 80.3801
15.4175 41.6291
15.5976 39.1939
15.7778 42.5033
15.958 56.4297
16.1382 103.531
16.3185 39.5199
16.4988 34.3705
16.6792 32.3933
16.8596 32.5619
17.04 40.2341
17.2205 34.274
17.401 37.593
17.5815 44.9466
17.7622 35.9343
17.9428 40.161
18.1237 44.0299
18.3044 93.0219
18.4852 55.3377
18.666 58.348
18.8469 36.3654
19.0278 34.1409
19.2088 34.5139
19.3898 41.0105
19.5709 47.1466
19.752 34.994
19.9332 32.3639
20.1144 33.0087
20.2957 43.7631
20.477 38.9643
20.6586 36.55
20.84 32.3646
21.0215 29.7489
21.203 29.209
21.3846 29.6922
21.5662 32.0238
21.7479 30.0437
21.9297 31.6491
22.1115 41.9121
22.2933 40.3641
22.4753 34.1153
22.6572 30.411
22.8393 31.0211
23.0214 31.3892
23.2037 39.6716
23.3859 32.7969
23.5682 34.0369
23.7505 34.8303
23.9329 37.8215
24.1154 29.3106
24.2979 27.682
24.4805 26.8341
24.6631 26.8302
24.8458 27.7465
25.0286 26.5312
25.2114 26.5674
25.3943 28.9935
25.5773 30.1666
25.7605 27.8416
25.9436 26.82
26.1268 25.7101
26.31 26.8768
26.4933 27.1584
26.6767 26.0505
26.8601 27.6055
27.0437 29.1528
27.2272 26.3618
27.4109 24.9047
27.5946 24.7294
27.7784 25.1435
27.9623 25.0
28.1462 25.4729
28.3304 26.9481
28.5145 26.4053
28.6987 24.4851
28.8829 23.0974
29.0673 22.8149
29.2517 23.2698
29.4361 22.1202
29.6207 22.1476
29.8053 22.3297
29.99 21.4254
30.1748 21.4597
30.3597 21.1799
30.5447 21.3983
30.7297 21.056
30.915 21.2446
31.1002 22.2406
31.2855 21.2291
31.4708 20.4865
31.6563 20.623
31.8418 21.1353
32.0275 20.2334
32.2132 20.4644
32.399 20.4258
32.5848 19.5048
32.7708 19.0044
32.9569 18.8933
33.143 18.739
33.3293 18.471
33.5158 18.7853
33.7022 18.6846
33.8887 17.9365
34.0753 17.7071
34.262 17.6121
34.4488 17.1807
34.6357 17.0899
34.8227 16.8308
35.0098 16.5576
35.1969 16.3932
35.3842 16.4118
35.5716 16.253
35.759 16.3607
35.9468 16.3722
36.1345 15.9451
36.3222 15.6034
36.5101 15.5072
36.6981 15.3862
36.8861 15.2015
37.0743 15.0043
37.2626 14.694
37.451 14.5109
37.6395 14.4038
37.8281 14.0763
38.0168 14.0388
38.2056 13.8855
38.3945 13.5488
38.5837 13.4853
38.7728 13.3179
38.9621 13.1742
39.1514 13.064
39.3409 12.8298
39.5304 12.6545
39.7201 12.529
39.9099 12.4069
40.0999 12.2966
40.2899 12.2025
40.48 11.9421
40.6703 11.8328
40.8607 11.7588
41.0512 11.6355
41.242 11.4767
41.4327 11.315
41.6236 11.1392
41.8146 11.0003
42.0057 10.9284
42.1969 10.7344
42.3882 10.5733
42.5797 10.484
42.7713 10.3545
42.963 10.1726
43.1549 10.0039
43.3468 9.90567
43.5389 9.7446
43.7312 9.61314
43.9237 9.50089
44.1162 9.39557
44.3088 9.25333
44.5016 9.08694
44.6945 9.04258
44.8875 8.89094
45.0806 8.82682
45.2739 8.66731
45.4673 8.53354
45.6609 8.45164
45.8546 8.40636
46.0484 8.22481
46.2424 8.11999
46.4365 7.99129
46.631 7.89437
46.8254 7.74736
47.0199 7.66756
47.2146 7.57286
47.4095 7.45343
47.6044 7.35859
47.7996 7.22269
47.9948 7.11978
48.1902 7.02691
48.3858 6.93562
48.5815 6.81284
48.7774 6.73852
48.9734 6.62917
49.1696 6.54594
49.3661 6.46963
49.5626 6.35252
49.7592 6.30188
49.956 6.20911
50.153 6.09024
50.3501 6.01054
50.5474 5.94144
50.7448 5.83794
50.9424 5.77815
51.1402 5.66599
51.3381 5.61936
51.5362 5.49619
51.7344 5.41823
51.9328 5.32787
52.1316 5.25396
52.3304 5.19551
52.5293 5.07031
52.7284 5.00014
52.9276 4.89186
53.1271 4.86432
53.3267 4.77148
53.5265 4.67476
53.7264 4.58916
53.9266 4.55282
54.1269 4.43094
54.3274 4.33529
54.528 4.16842
54.7289 4.09557
54.9301 3.93913
55.1314 3.86159
55.3328 3.70916
55.5344 3.55274
55.7361 3.45559