File: XRD/Ni3Fe_FD0247.xy
TT I
1.27165 7.73184
1.45013 6.63269
1.62863 5.59663
1.80712 4.98021
1.98562 4.96716
2.16411 4.8742
2.34263 4.30134
2.52115 5.07901
2.69965 6.19509
2.87818 7.85103
3.05672 11.2818
3.23527 14.9566
3.4138 19.1485
3.59237 22.4564
3.77094 25.9371
3.9495 29.9997
4.12809 34.8864
4.30669 40.5086
4.4853 48.6435
4.6639 58.5019
4.84253 71.5212
5.02118 95.9115
5.19981 894.344
5.37848 264.94
5.55716 111.384
5.73586 100.611
5.91455 109.739
6.09328 3734.51
6.27201 88.5246
6.45075 70.8982
6.62952 64.4444
6.8083 60.2754
6.98711 57.5178
7.16591 57.0241
7.34475 55.9815
7.5236 56.2997
7.70247 58.2407
7.88135 59.8769
8.06026 64.8283
8.23919 73.0205
8.41812 89.9119
8.59709 1086.08
8.77609 109.61
8.9551 91.0272
9.13412 86.9948
9.31318 88.0858
9.49226 89.6724
9.67134 95.4214
9.85047 107.234
10.0296 511.384
10.2088 533.392
10.388 115.491
10.5672 451.064
10.7465 91.644
10.9257 81.0297
11.105 74.5524
11.2844 70.8676
11.4637 67.6367
11.6431 66.5189
11.8225 65.2085
12.002 68.7224
12.1814 141.24
12.3609 69.8767
12.5405 67.4554
12.72 69.6789
12.8996 74.7308
13.0792 86.5491
13.2589 232.296
13.4386 147.665
13.6183 228.445
13.7981 109.311
13.9779 79.6216
14.1577 75.157
14.3376 72.7685
14.5175 72.526
14.6974 74.7395
14.8774 120.116
15.0574 167.484
15.2374 72.1225
15.4175 69.7923
15.5976 69.6975
15.7778 103.82
15.958 170.165
16.1382 63.8039
16.3185 59.9977
16.4988 57.9376
16.6792 56.8086
16.8596 57.2608
17.04 59.3895
17.2205 68.9476
17.401 76.9538
17.5815 61.8311
17.7622 64.501
17.9428 82.624
18.1237 139.598
18.3044 90.5462
18.4852 83.0882
18.666 63.0704
18.8469 60.7927
19.0278 59.4814
19.2088 62.7907
19.3898 76.5304
19.5709 56.9253
19.752 56.233
19.9332 59.4698
20.1144 72.5956
20.2957 64.771
20.477 56.4896
20.6586 51.9569
20.84 51.1673
21.0215 51.1722
21.203 52.6336
21.3846 51.5666
21.5662 51.811
21.7479 55.5277
21.9297 66.7457
22.1115 57.7775
22.2933 52.4563
22.4753 50.8609
22.6572 51.921
22.8393 54.2496
23.0214 59.9259
23.2037 51.2981
23.3859 52.3759
23.5682 57.6989
23.7505 51.0495
23.9329 47.3008
24.1154 46.1722
24.2979 45.3726
24.4805 44.8363
24.6631 44.6821
24.8458 44.317
25.0286 44.9305
25.2114 46.5271
25.3943 46.5295
25.5773 42.8225
25.7605 42.386
25.9436 42.667
26.1268 43.5142
26.31 41.9905
26.4933 42.4916
26.6767 43.9465
26.8601 42.3089
27.0437 40.6084
27.2272 40.3351
27.4109 40.1177
27.5946 40.2252
27.7784 39.6244
27.9623 39.9905
28.1462 40.4221
28.3304 38.8961
28.5145 37.4914
28.6987 37.1857
28.8829 36.8595
29.0673 36.3708
29.2517 35.7999
29.4361 35.6089
29.6207 34.5755
29.8053 34.307
29.99 34.0838
30.1748 33.8436
30.3597 33.7426
30.5447 33.5395
30.7297 33.6487
30.915 33.0195
31.1002 32.474
31.2855 32.2553
31.4708 32.1453
31.6563 31.7539
31.8418 31.397
32.0275 31.1638
32.2132 30.6607
32.399 30.2078
32.5848 29.7286
32.7708 29.4331
32.9569 29.2215
33.143 28.9661
33.3293 28.6071
33.5158 28.2304
33.7022 27.7855
33.8887 27.4655
34.0753 27.1686
34.262 26.7463
34.4488 26.3698
34.6357 26.0231
34.8227 25.7651
35.0098 25.5353
35.1969 25.2657
35.3842 25.0611
35.5716 24.8177
35.759 24.474
35.9468 24.1512
36.1345 23.8648
36.3222 23.6023
36.5101 23.4585
36.6981 23.0206
36.8861 22.7612
37.0743 22.4218
37.2626 22.2214
37.451 21.8961
37.6395 21.7561
37.8281 21.4067
38.0168 21.0209
38.2056 20.8867
38.3945 20.4946
38.5837 20.3115
38.7728 20.0018
38.9621 19.7505
39.1514 19.4847
39.3409 19.3157
39.5304 19.0884
39.7201 18.8535
39.9099 18.5968
40.0999 18.3739
40.2899 18.1239
40.48 17.8429
40.6703 17.6519
40.8607 17.4432
41.0512 17.2234
41.242 16.9076
41.4327 16.7464
41.6236 16.5138
41.8146 16.3049
42.0057 16.0808
42.1969 15.8309
42.3882 15.6871
42.5797 15.4378
42.7713 15.2392
42.963 15.01
43.1549 14.8288
43.3468 14.6212
43.5389 14.4055
43.7312 14.189
43.9237 14.041
44.1162 13.8196
44.3088 13.6266
44.5016 13.4403
44.6945 13.2574
44.8875 13.075
45.0806 12.8546
45.2739 12.7119
45.4673 12.5449
45.6609 12.3038
45.8546 12.175
46.0484 12.0551
46.2424 11.7857
46.4365 11.6631
46.631 11.4497
46.8254 11.3313
47.0199 11.1469
47.2146 11.0049
47.4095 10.7924
47.6044 10.6295
47.7996 10.4784
47.9948 10.3637
48.1902 10.2192
48.3858 10.0181
48.5815 9.941
48.7774 9.77033
48.9734 9.62952
49.1696 9.46314
49.3661 9.31865
49.5626 9.14752
49.7592 9.06613
49.956 8.91213
50.153 8.82165
50.3501 8.61143
50.5474 8.52967
50.7448 8.38215
50.9424 8.2569
51.1402 8.12518
51.3381 7.97011
51.5362 7.83331
51.7344 7.71787
51.9328 7.58116
52.1316 7.45379
52.3304 7.32473
52.5293 7.19281
52.7284 7.15879
52.9276 6.96996
53.1271 6.88655
53.3267 6.75953
53.5265 6.66025
53.7264 6.514
53.9266 6.38662
54.1269 6.25858
54.3274 6.15511
54.528 6.0232
54.7289 5.90602
54.9301 5.69201
55.1314 5.54521
55.3328 5.29297
55.5344 5.14869
55.7361 4.96915