File: XRD/Ni3Fe_FD0424.xy
TT I
1.27165 7.59531
1.45013 6.25977
1.62863 4.98142
1.80712 4.86778
1.98562 4.41088
2.16411 5.26318
2.34263 5.25256
2.52115 5.87363
2.69965 7.43455
2.87818 8.11482
3.05672 11.4048
3.23527 15.2812
3.4138 19.2104
3.59237 25.3239
3.77094 26.7575
3.9495 30.33
4.12809 36.3147
4.30669 302.309
4.4853 75.3075
4.6639 56.2577
4.84253 67.8385
5.02118 88.5748
5.19981 417.456
5.37848 222.853
5.55716 104.272
5.73586 93.8965
5.91455 96.7961
6.09328 3909.09
6.27201 87.0079
6.45075 68.9346
6.62952 65.0904
6.8083 60.3504
6.98711 57.5196
7.16591 57.0927
7.34475 110.967
7.5236 56.3421
7.70247 57.5032
7.88135 59.1348
8.06026 63.5061
8.23919 70.5931
8.41812 87.9163
8.59709 1055.36
8.77609 104.368
8.9551 96.4167
9.13412 82.9684
9.31318 83.7801
9.49226 85.8404
9.67134 104.427
9.85047 101.584
10.0296 348.357
10.2088 501.239
10.388 107.737
10.5672 468.704
10.7465 88.9938
10.9257 81.1394
11.105 73.6425
11.2844 73.0781
11.4637 66.2632
11.6431 65.1207
11.8225 63.8789
12.002 64.7627
12.1814 142.206
12.3609 75.3785
12.5405 66.1354
12.72 73.0463
12.8996 72.3257
13.0792 80.1564
13.2589 219.039
13.4386 139.411
13.6183 224.856
13.7981 106.39
13.9779 77.0955
14.1577 74.462
14.3376 74.1823
14.5175 70.0984
14.6974 72.0388
14.8774 108.523
15.0574 168.486
15.2374 73.7477
15.4175 67.6308
15.5976 67.2363
15.7778 94.3019
15.958 171.238
16.1382 65.266
16.3185 60.4486
16.4988 56.7897
16.6792 55.7118
16.8596 56.6836
17.04 57.1737
17.2205 66.7571
17.401 74.861
17.5815 60.7373
17.7622 62.4968
17.9428 75.0828
18.1237 137.769
18.3044 88.9221
18.4852 83.0139
18.666 61.865
18.8469 59.1348
19.0278 58.2958
19.2088 60.926
19.3898 77.6883
19.5709 55.6449
19.752 54.4662
19.9332 57.3107
20.1144 70.7827
20.2957 63.5441
20.477 55.8268
20.6586 50.7758
20.84 49.9429
21.0215 49.6186
21.203 51.7142
21.3846 50.2964
21.5662 49.9103
21.7479 53.3106
21.9297 65.4712
22.1115 56.7285
22.2933 51.3731
22.4753 50.1102
22.6572 49.9618
22.8393 52.5841
23.0214 59.0953
23.2037 49.9633
23.3859 50.6445
23.5682 56.8805
23.7505 50.1128
23.9329 46.2231
24.1154 45.0188
24.2979 44.4687
24.4805 43.7361
24.6631 43.8503
24.8458 43.226
25.0286 43.6166
25.2114 45.4529
25.3943 45.7956
25.5773 42.0322
25.7605 41.4253
25.9436 41.6064
26.1268 42.6549
26.31 41.081
26.4933 41.6318
26.6767 43.0538
26.8601 41.441
27.0437 39.7708
27.2272 39.3445
27.4109 39.3074
27.5946 39.2143
27.7784 38.6965
27.9623 39.1408
28.1462 39.6432
28.3304 38.198
28.5145 36.8219
28.6987 36.4396
28.8829 36.2587
29.0673 35.4423
29.2517 35.0889
29.4361 34.88
29.6207 33.9045
29.8053 33.5705
29.99 33.299
30.1748 33.1776
30.3597 32.9672
30.5447 32.8579
30.7297 32.8868
30.915 32.349
31.1002 31.8558
31.2855 31.5871
31.4708 31.4378
31.6563 31.0802
31.8418 30.8401
32.0275 30.5032
32.2132 30.0565
32.399 29.5311
32.5848 29.1897
32.7708 28.7891
32.9569 28.644
33.143 28.4504
33.3293 28.0052
33.5158 27.6461
33.7022 27.2154
33.8887 26.9275
34.0753 26.5513
34.262 26.2416
34.4488 25.85
34.6357 25.5648
34.8227 25.2249
35.0098 25.011
35.1969 24.7413
35.3842 24.5711
35.5716 24.2852
35.759 23.9582
35.9468 23.6053
36.1345 23.4528
36.3222 23.1555
36.5101 22.909
36.6981 22.6291
36.8861 22.27
37.0743 22.0088
37.2626 21.7479
37.451 21.4418
37.6395 21.2567
37.8281 20.9617
38.0168 20.6995
38.2056 20.3817
38.3945 20.1043
38.5837 19.8104
38.7728 19.6365
38.9621 19.3748
39.1514 19.129
39.3409 18.8448
39.5304 18.6618
39.7201 18.4527
39.9099 18.2695
40.0999 17.9787
40.2899 17.7114
40.48 17.5023
40.6703 17.2588
40.8607 17.1416
41.0512 16.9518
41.242 16.6057
41.4327 16.3852
41.6236 16.2078
41.8146 16.0041
42.0057 15.8053
42.1969 15.5231
42.3882 15.4182
42.5797 15.1502
42.7713 14.9594
42.963 14.7633
43.1549 14.5367
43.3468 14.324
43.5389 14.1617
43.7312 13.9408
43.9237 13.8136
44.1162 13.5397
44.3088 13.4296
44.5016 13.1603
44.6945 13.0383
44.8875 12.8094
45.0806 12.6442
45.2739 12.4886
45.4673 12.3293
45.6609 12.108
45.8546 11.9607
46.0484 11.7912
46.2424 11.6113
46.4365 11.4798
46.631 11.2725
46.8254 11.0659
47.0199 10.9866
47.2146 10.8136
47.4095 10.6366
47.6044 10.4814
47.7996 10.3293
47.9948 10.1301
48.1902 10.0158
48.3858 9.83646
48.5815 9.74332
48.7774 9.61103
48.9734 9.4786
49.1696 9.34456
49.3661 9.15515
49.5626 9.0195
49.7592 8.91156
49.956 8.73368
50.153 8.61062
50.3501 8.46165
50.5474 8.39137
50.7448 8.25504
50.9424 8.09525
51.1402 7.99864
51.3381 7.8774
51.5362 7.71837
51.7344 7.58978
51.9328 7.45705
52.1316 7.31619
52.3304 7.26755
52.5293 7.13491
52.7284 7.00116
52.9276 6.87714
53.1271 6.80024
53.3267 6.66021
53.5265 6.53149
53.7264 6.40309
53.9266 6.35544
54.1269 6.13987
54.3274 6.10897
54.528 5.94098
54.7289 5.77232
54.9301 5.57422
55.1314 5.50581
55.3328 5.28954
55.5344 5.05853
55.7361 4.94755