File: XRD/Ni3Fe_FD0102.xy
TT I
1.27165 8.30229
1.45013 6.98051
1.62863 6.03996
1.80712 5.6039
1.98562 5.82866
2.16411 4.48991
2.34263 4.03808
2.52115 3.61716
2.69965 5.55981
2.87818 7.42284
3.05672 11.2962
3.23527 14.4016
3.4138 18.6171
3.59237 21.0515
3.77094 24.6318
3.9495 27.9244
4.12809 32.1743
4.30669 36.6343
4.4853 44.4607
4.6639 53.0759
4.84253 66.0037
5.02118 93.1756
5.19981 659.973
5.37848 657.617
5.55716 110.748
5.73586 97.0549
5.91455 110.73
6.09328 2193.72
6.27201 95.0977
6.45075 66.6318
6.62952 59.4594
6.8083 54.8348
6.98711 52.6526
7.16591 51.3826
7.34475 50.9059
7.5236 58.2637
7.70247 53.2431
7.88135 55.4374
8.06026 59.7487
8.23919 66.6519
8.41812 84.159
8.59709 765.165
8.77609 127.52
8.9551 85.0009
9.13412 80.7919
9.31318 93.6619
9.49226 82.587
9.67134 87.4367
9.85047 98.0052
10.0296 586.886
10.2088 1168.45
10.388 104.962
10.5672 267.104
10.7465 93.9471
10.9257 74.9419
11.105 69.1757
11.2844 64.9706
11.4637 62.5406
11.6431 61.2723
11.8225 60.1562
12.002 68.5647
12.1814 104.793
12.3609 80.4503
12.5405 61.8339
12.72 64.145
12.8996 68.657
13.0792 78.6524
13.2589 185.746
13.4386 248.596
13.6183 169.472
13.7981 183.221
13.9779 74.9351
14.1577 76.5038
14.3376 67.7839
14.5175 67.3351
14.6974 68.7079
14.8774 120.031
15.0574 207.68
15.2374 68.544
15.4175 65.0538
15.5976 64.4792
15.7778 107.551
15.958 175.528
16.1382 61.9522
16.3185 56.5563
16.4988 54.2136
16.6792 53.2877
16.8596 53.4096
17.04 54.5295
17.2205 63.0835
17.401 80.7043
17.5815 58.0102
17.7622 60.4448
17.9428 84.7631
18.1237 101.112
18.3044 87.2767
18.4852 99.4907
18.666 60.2551
18.8469 57.1572
19.0278 55.6376
19.2088 61.3165
19.3898 65.0313
19.5709 56.8031
19.752 52.2894
19.9332 57.6373
20.1144 63.6125
20.2957 59.3961
20.477 60.3693
20.6586 49.046
20.84 48.3929
21.0215 48.2414
21.203 48.3708
21.3846 50.0342
21.5662 48.1274
21.7479 53.1516
21.9297 58.6838
22.1115 55.6786
22.2933 52.6987
22.4753 48.029
22.6572 48.2934
22.8393 50.9064
23.0214 54.5534
23.2037 49.3575
23.3859 51.2262
23.5682 50.9752
23.7505 54.4003
23.9329 44.9661
24.1154 43.7899
24.2979 42.8986
24.4805 42.3614
24.6631 42.3911
24.8458 41.7682
25.0286 42.3979
25.2114 43.5149
25.3943 43.6551
25.5773 41.4149
25.7605 40.0808
25.9436 40.2232
26.1268 40.6881
26.31 40.5667
26.4933 40.1604
26.6767 40.9611
26.8601 40.8074
27.0437 39.1191
27.2272 38.2711
27.4109 37.8665
27.5946 37.9929
27.7784 37.9431
27.9623 37.7869
28.1462 38.451
28.3304 37.3834
28.5145 35.8592
28.6987 35.3929
28.8829 34.7992
29.0673 34.71
29.2517 33.9957
29.4361 33.4778
29.6207 33.1349
29.8053 32.5054
29.99 32.237
30.1748 31.9889
30.3597 31.9856
30.5447 31.8716
30.7297 31.7144
30.915 31.5981
31.1002 30.9911
31.2855 30.5308
31.4708 30.4474
31.6563 30.385
31.8418 29.8297
32.0275 29.5409
32.2132 29.1847
32.399 28.6391
32.5848 28.2041
32.7708 27.8484
32.9569 27.7922
33.143 27.4165
33.3293 27.0683
33.5158 26.8386
33.7022 26.2877
33.8887 25.9873
34.0753 25.8024
34.262 25.3022
34.4488 24.9844
34.6357 24.701
34.8227 24.4195
35.0098 24.2016
35.1969 23.9533
35.3842 23.5968
35.5716 23.4592
35.759 23.2764
35.9468 22.7919
36.1345 22.569
36.3222 22.4679
36.5101 22.1312
36.6981 21.8489
36.8861 21.5514
37.0743 21.2333
37.2626 21.06
37.451 20.7451
37.6395 20.6197
37.8281 20.2197
38.0168 19.9297
38.2056 19.6927
38.3945 19.4174
38.5837 19.1938
38.7728 19.0058
38.9621 18.7543
39.1514 18.5219
39.3409 18.2739
39.5304 18.03
39.7201 17.8472
39.9099 17.6365
40.0999 17.3726
40.2899 17.1642
40.48 16.9358
40.6703 16.7676
40.8607 16.5524
41.0512 16.3216
41.242 16.0627
41.4327 15.8461
41.6236 15.6331
41.8146 15.4594
42.0057 15.2575
42.1969 15.0821
42.3882 14.9085
42.5797 14.6853
42.7713 14.4201
42.963 14.2978
43.1549 14.0924
43.3468 13.8795
43.5389 13.6969
43.7312 13.4881
43.9237 13.3003
44.1162 13.1372
44.3088 12.9538
44.5016 12.7751
44.6945 12.6032
44.8875 12.418
45.0806 12.2095
45.2739 12.0753
45.4673 11.8873
45.6609 11.6959
45.8546 11.57
46.0484 11.4066
46.2424 11.2412
46.4365 11.0964
46.631 10.9035
46.8254 10.7371
47.0199 10.5929
47.2146 10.4186
47.4095 10.2676
47.6044 10.1328
47.7996 9.95656
47.9948 9.79252
48.1902 9.68711
48.3858 9.56697
48.5815 9.42632
48.7774 9.28848
48.9734 9.14647
49.1696 8.99867
49.3661 8.85828
49.5626 8.74612
49.7592 8.60086
49.956 8.47267
50.153 8.34526
50.3501 8.23672
50.5474 8.11444
50.7448 7.98664
50.9424 7.88318
51.1402 7.74327
51.3381 7.59909
51.5362 7.46985
51.7344 7.36264
51.9328 7.25818
52.1316 7.09056
52.3304 7.01959
52.5293 6.85109
52.7284 6.82904
52.9276 6.63329
53.1271 6.54256
53.3267 6.46458
53.5265 6.31365
53.7264 6.2105
53.9266 6.10097
54.1269 5.94243
54.3274 5.88761
54.528 5.71445
54.7289 5.54723
54.9301 5.35019
55.1314 5.17498
55.3328 4.94342
55.5344 4.78629
55.7361 4.66246