File: XRD/Ni3Fe_FD0590.xy
TT I
1.27165 7.62109
1.45013 5.89931
1.62863 5.154
1.80712 4.94891
1.98562 4.49569
2.16411 4.7627
2.34263 5.57774
2.52115 6.82337
2.69965 8.1604
2.87818 9.30661
3.05672 11.367
3.23527 14.706
3.4138 18.5324
3.59237 23.1086
3.77094 25.608
3.9495 29.7323
4.12809 34.5799
4.30669 110.984
4.4853 55.3761
4.6639 56.062
4.84253 69.0441
5.02118 89.2304
5.19981 482.638
5.37848 201.574
5.55716 103.375
5.73586 93.812
5.91455 97.8443
6.09328 4383.75
6.27201 82.0544
6.45075 69.4713
6.62952 63.0702
6.8083 59.2822
6.98711 55.9856
7.16591 55.8507
7.34475 69.686
7.5236 54.9644
7.70247 56.941
7.88135 58.1328
8.06026 62.9912
8.23919 70.1231
8.41812 85.5088
8.59709 1254.24
8.77609 99.592
8.9551 89.7218
9.13412 83.5259
9.31318 85.1818
9.49226 85.6955
9.67134 96.2791
9.85047 102.094
10.0296 384.017
10.2088 363.202
10.388 107.046
10.5672 517.548
10.7465 87.1295
10.9257 78.305
11.105 72.1328
11.2844 69.3688
11.4637 65.2059
11.6431 63.945
11.8225 63.3339
12.002 65.2287
12.1814 156.882
12.3609 67.5868
12.5405 65.5885
12.72 68.6338
12.8996 72.1043
13.0792 81.5159
13.2589 254.308
13.4386 121.079
13.6183 257.316
13.7981 96.4992
13.9779 76.6025
14.1577 72.7014
14.3376 70.9396
14.5175 69.8786
14.6974 71.3107
14.8774 117.002
15.0574 144.171
15.2374 70.2403
15.4175 66.7505
15.5976 66.5589
15.7778 99.7481
15.958 149.746
16.1382 62.1449
16.3185 58.3259
16.4988 55.7356
16.6792 54.9679
16.8596 55.2066
17.04 56.7298
17.2205 68.1581
17.401 70.8673
17.5815 59.7405
17.7622 62.2911
17.9428 75.8728
18.1237 141.819
18.3044 92.3302
18.4852 76.4043
18.666 60.851
18.8469 58.4931
19.0278 57.5073
19.2088 60.0892
19.3898 75.8257
19.5709 54.4606
19.752 53.7109
19.9332 57.0922
20.1144 70.1837
20.2957 64.2556
20.477 53.5146
20.6586 50.0442
20.84 49.2276
21.0215 48.9907
21.203 51.3249
21.3846 49.1892
21.5662 49.4829
21.7479 53.5381
21.9297 64.968
22.1115 56.2865
22.2933 49.9411
22.4753 49.0985
22.6572 49.4105
22.8393 52.5851
23.0214 57.3795
23.2037 49.1943
23.3859 50.3343
23.5682 57.3144
23.7505 48.2825
23.9329 45.5354
24.1154 44.4005
24.2979 43.6794
24.4805 43.2067
24.6631 43.08
24.8458 42.6317
25.0286 43.3657
25.2114 44.9327
25.3943 44.8874
25.5773 41.1963
25.7605 40.6898
25.9436 41.2395
26.1268 41.8846
26.31 40.3757
26.4933 41.037
26.6767 42.4585
26.8601 40.6756
27.0437 39.1957
27.2272 38.7999
27.4109 38.6686
27.5946 38.6134
27.7784 38.1207
27.9623 38.572
28.1462 39.0654
28.3304 37.3568
28.5145 36.2436
28.6987 35.8251
28.8829 35.5985
29.0673 34.9147
29.2517 34.5164
29.4361 34.2985
29.6207 33.3316
29.8053 33.0836
29.99 32.8054
30.1748 32.6912
30.3597 32.5104
30.5447 32.3822
30.7297 32.406
30.915 31.8373
31.1002 31.4215
31.2855 31.0803
31.4708 31.0097
31.6563 30.5525
31.8418 30.3192
32.0275 30.2103
32.2132 29.5408
32.399 29.1584
32.5848 28.6278
32.7708 28.3841
32.9569 28.2469
33.143 27.9936
33.3293 27.5282
33.5158 27.1981
33.7022 26.7939
33.8887 26.4783
34.0753 26.1711
34.262 25.8498
34.4488 25.4226
34.6357 25.14
34.8227 24.8034
35.0098 24.6633
35.1969 24.3863
35.3842 24.1814
35.5716 23.946
35.759 23.5782
35.9468 23.2452
36.1345 22.9818
36.3222 22.7899
36.5101 22.5349
36.6981 22.2975
36.8861 21.9624
37.0743 21.6231
37.2626 21.3317
37.451 21.1109
37.6395 20.8965
37.8281 20.5976
38.0168 20.2948
38.2056 20.0419
38.3945 19.8447
38.5837 19.5599
38.7728 19.297
38.9621 19.0886
39.1514 18.8076
39.3409 18.5787
39.5304 18.3869
39.7201 18.104
39.9099 17.8981
40.0999 17.6774
40.2899 17.4586
40.48 17.1901
40.6703 17.0519
40.8607 16.8517
41.0512 16.5925
41.242 16.2815
41.4327 16.1547
41.6236 15.9416
41.8146 15.744
42.0057 15.532
42.1969 15.3015
42.3882 15.1596
42.5797 14.9016
42.7713 14.7518
42.963 14.5536
43.1549 14.2993
43.3468 14.0687
43.5389 13.9318
43.7312 13.697
43.9237 13.5066
44.1162 13.3247
44.3088 13.1041
44.5016 12.9723
44.6945 12.8147
44.8875 12.6173
45.0806 12.388
45.2739 12.2795
45.4673 12.1403
45.6609 11.9153
45.8546 11.7259
46.0484 11.5948
46.2424 11.4124
46.4365 11.2569
46.631 11.0475
46.8254 10.9339
47.0199 10.7804
47.2146 10.6166
47.4095 10.4365
47.6044 10.2774
47.7996 10.1484
47.9948 9.96457
48.1902 9.86158
48.3858 9.71629
48.5815 9.5819
48.7774 9.43018
48.9734 9.28954
49.1696 9.14542
49.3661 8.98418
49.5626 8.84506
49.7592 8.78295
49.956 8.60045
50.153 8.50056
50.3501 8.3361
50.5474 8.21877
50.7448 8.09186
50.9424 7.97642
51.1402 7.83976
51.3381 7.70834
51.5362 7.58652
51.7344 7.44494
51.9328 7.35752
52.1316 7.21044
52.3304 7.10485
52.5293 6.98719
52.7284 6.87603
52.9276 6.74847
53.1271 6.6711
53.3267 6.52391
53.5265 6.41129
53.7264 6.35046
53.9266 6.19634
54.1269 6.07861
54.3274 5.9586
54.528 5.82358
54.7289 5.70437
54.9301 5.48483
55.1314 5.40941
55.3328 5.19133
55.5344 4.98412
55.7361 4.86275