File: XRD/Ni3Fe_FD0886.xy
TT I
1.27165 7.23943
1.45013 5.75959
1.62863 5.05101
1.80712 4.95458
1.98562 5.0857
2.16411 5.10098
2.34263 5.5797
2.52115 7.16368
2.69965 8.14644
2.87818 9.31381
3.05672 11.1904
3.23527 15.3992
3.4138 18.9129
3.59237 24.2528
3.77094 26.2217
3.9495 29.7692
4.12809 34.9776
4.30669 273.993
4.4853 70.89
4.6639 54.505
4.84253 66.2905
5.02118 84.1831
5.19981 287.532
5.37848 181.065
5.55716 100.007
5.73586 90.11
5.91455 90.5227
6.09328 4261.8
6.27201 82.1358
6.45075 66.9001
6.62952 62.4196
6.8083 58.4324
6.98711 55.4688
7.16591 55.1488
7.34475 102.279
7.5236 54.3363
7.70247 55.5751
7.88135 57.2427
8.06026 61.5971
8.23919 68.5192
8.41812 83.9106
8.59709 1078.19
8.77609 97.7581
8.9551 92.327
9.13412 80.7759
9.31318 81.1638
9.49226 83.1898
9.67134 99.3916
9.85047 97.8433
10.0296 290.251
10.2088 412.957
10.388 103.2
10.5672 507.141
10.7465 85.3785
10.9257 77.9019
11.105 71.1546
11.2844 70.4793
11.4637 64.2783
11.6431 63.0055
11.8225 61.7266
12.002 62.6165
12.1814 149.156
12.3609 71.4609
12.5405 63.4729
12.72 70.4374
12.8996 69.712
13.0792 77.1572
13.2589 219.777
13.4386 124.066
13.6183 238.416
13.7981 96.4004
13.9779 74.573
14.1577 71.5386
14.3376 71.2448
14.5175 67.9828
14.6974 69.4319
14.8774 103.572
15.0574 150.36
15.2374 70.9261
15.4175 65.6178
15.5976 64.6163
15.7778 89.0388
15.958 157.167
16.1382 62.5519
16.3185 58.3072
16.4988 54.7494
16.6792 53.7726
16.8596 54.684
17.04 54.9545
17.2205 64.5901
17.401 70.0555
17.5815 58.1004
17.7622 60.0301
17.9428 70.4478
18.1237 137.62
18.3044 87.8303
18.4852 76.8863
18.666 59.559
18.8469 57.2368
19.0278 56.078
19.2088 58.3957
19.3898 76.5003
19.5709 53.4
19.752 52.5205
19.9332 55.0985
20.1144 69.2129
20.2957 63.1797
20.477 53.1543
20.6586 48.9449
20.84 48.0659
21.0215 47.9846
21.203 50.0571
21.3846 48.3277
21.5662 48.0493
21.7479 51.3919
21.9297 64.0437
22.1115 55.5856
22.2933 49.1433
22.4753 48.375
22.6572 47.976
22.8393 50.8699
23.0214 56.8798
23.2037 48.1608
23.3859 48.6553
23.5682 56.3329
23.7505 47.8815
23.9329 44.7445
24.1154 43.5751
24.2979 42.8672
24.4805 42.2925
24.6631 42.0859
24.8458 41.5739
25.0286 42.2012
25.2114 44.1301
25.3943 44.05
25.5773 40.385
25.7605 40.1068
25.9436 40.1903
26.1268 41.2032
26.31 39.4455
26.4933 40.0382
26.6767 41.5726
26.8601 39.918
27.0437 38.4137
27.2272 37.8671
27.4109 37.8524
27.5946 37.8217
27.7784 37.2871
27.9623 37.8257
28.1462 38.32
28.3304 36.8378
28.5145 35.3661
28.6987 35.1195
28.8829 34.9123
29.0673 34.298
29.2517 33.8253
29.4361 33.807
29.6207 32.643
29.8053 32.4773
29.99 32.176
30.1748 31.9324
30.3597 31.8389
30.5447 31.7516
30.7297 31.819
30.915 31.2338
31.1002 30.7156
31.2855 30.4246
31.4708 30.4463
31.6563 29.8701
31.8418 29.8062
32.0275 29.4987
32.2132 28.9938
32.399 28.5338
32.5848 28.0724
32.7708 27.7864
32.9569 27.7261
33.143 27.5007
33.3293 27.0025
33.5158 26.701
33.7022 26.3743
33.8887 26.0255
34.0753 25.656
34.262 25.3493
34.4488 25.0332
34.6357 24.7257
34.8227 24.3659
35.0098 24.2694
35.1969 23.8815
35.3842 23.6632
35.5716 23.4895
35.759 23.2215
35.9468 22.7914
36.1345 22.6137
36.3222 22.4214
36.5101 22.0461
36.6981 21.8098
36.8861 21.5528
37.0743 21.2183
37.2626 21.0452
37.451 20.7618
37.6395 20.5843
37.8281 20.1815
38.0168 20.0195
38.2056 19.7164
38.3945 19.4608
38.5837 19.271
38.7728 19.0005
38.9621 18.7368
39.1514 18.4347
39.3409 18.2627
39.5304 17.9966
39.7201 17.8808
39.9099 17.647
40.0999 17.4124
40.2899 17.1155
40.48 16.912
40.6703 16.7477
40.8607 16.5643
41.0512 16.3138
41.242 16.0407
41.4327 15.8847
41.6236 15.6515
41.8146 15.4891
42.0057 15.2438
42.1969 15.0434
42.3882 14.86
42.5797 14.6849
42.7713 14.4513
42.963 14.2525
43.1549 14.0676
43.3468 13.8785
43.5389 13.6605
43.7312 13.4918
43.9237 13.3482
44.1162 13.1088
44.3088 12.9305
44.5016 12.7564
44.6945 12.5627
44.8875 12.4088
45.0806 12.2591
45.2739 12.0752
45.4673 11.8961
45.6609 11.6905
45.8546 11.538
46.0484 11.4108
46.2424 11.1969
46.4365 11.093
46.631 10.9187
46.8254 10.7287
47.0199 10.6056
47.2146 10.4068
47.4095 10.2478
47.6044 10.0819
47.7996 9.97968
47.9948 9.8048
48.1902 9.68693
48.3858 9.58418
48.5815 9.41982
48.7774 9.28382
48.9734 9.13603
49.1696 8.9955
49.3661 8.89597
49.5626 8.71255
49.7592 8.60768
49.956 8.48301
50.153 8.3886
50.3501 8.19504
50.5474 8.11239
50.7448 7.95866
50.9424 7.82328
51.1402 7.72675
51.3381 7.63242
51.5362 7.48802
51.7344 7.35864
51.9328 7.21346
52.1316 7.10876
52.3304 7.04635
52.5293 6.87176
52.7284 6.76874
52.9276 6.67522
53.1271 6.55199
53.3267 6.44657
53.5265 6.28519
53.7264 6.22884
53.9266 6.07955
54.1269 6.00429
54.3274 5.8349
54.528 5.75041
54.7289 5.61005
54.9301 5.37336
55.1314 5.32914
55.3328 5.13673
55.5344 4.88953
55.7361 4.7809