File: XRD/Ni3Fe_FD0888.xy
TT I
1.27165 6.87042
1.45013 6.51213
1.62863 5.1865
1.80712 4.4771
1.98562 4.14799
2.16411 4.83475
2.34263 5.85721
2.52115 6.97951
2.69965 7.75713
2.87818 8.81707
3.05672 11.2909
3.23527 14.9978
3.4138 18.6418
3.59237 24.2943
3.77094 26.2959
3.9495 29.6931
4.12809 34.4014
4.30669 284.015
4.4853 71.7025
4.6639 54.6924
4.84253 65.7653
5.02118 84.0219
5.19981 282.526
5.37848 182.452
5.55716 99.5189
5.73586 89.6464
5.91455 89.9152
6.09328 4202.53
6.27201 81.6451
6.45075 66.1956
6.62952 62.2672
6.8083 58.4666
6.98711 55.0286
7.16591 55.2568
7.34475 105.297
7.5236 54.302
7.70247 55.5351
7.88135 57.0813
8.06026 61.2501
8.23919 68.3093
8.41812 83.0694
8.59709 1073.56
8.77609 97.527
8.9551 92.2487
9.13412 79.9773
9.31318 80.8571
9.49226 82.724
9.67134 99.4132
9.85047 97.6726
10.0296 286.056
10.2088 435.476
10.388 102.931
10.5672 501.479
10.7465 85.0782
10.9257 77.1389
11.105 70.8354
11.2844 70.4305
11.4637 63.7689
11.6431 62.5996
11.8225 61.3713
12.002 62.2775
12.1814 149.335
12.3609 71.5617
12.5405 63.6563
12.72 70.1273
12.8996 69.4981
13.0792 76.6362
13.2589 217.271
13.4386 126.101
13.6183 234.561
13.7981 97.2037
13.9779 74.4548
14.1577 71.3726
14.3376 71.1547
14.5175 67.779
14.6974 69.1174
14.8774 102.887
15.0574 153.245
15.2374 70.6858
15.4175 65.2919
15.5976 64.4184
15.7778 88.6447
15.958 160.509
16.1382 62.454
16.3185 57.9786
16.4988 54.4539
16.6792 53.6306
16.8596 54.3984
17.04 54.6922
17.2205 64.2199
17.401 70.3534
17.5815 58.1279
17.7622 60.2061
17.9428 70.4015
18.1237 138.0
18.3044 87.7468
18.4852 77.2012
18.666 59.3233
18.8469 57.013
19.0278 56.0712
19.2088 58.1648
19.3898 76.5992
19.5709 53.4233
19.752 52.3983
19.9332 54.9349
20.1144 69.3851
20.2957 63.0096
20.477 53.2843
20.6586 48.9
20.84 48.129
21.0215 47.7653
21.203 50.0858
21.3846 48.1598
21.5662 47.8779
21.7479 51.2047
21.9297 64.1535
22.1115 55.4538
22.2933 49.1913
22.4753 48.304
22.6572 47.7911
22.8393 50.6325
23.0214 57.0972
23.2037 47.9645
23.3859 48.5959
23.5682 56.2501
23.7505 47.8769
23.9329 44.5136
24.1154 43.4132
24.2979 42.7579
24.4805 42.3484
24.6631 42.2262
24.8458 41.7054
25.0286 42.1502
25.2114 44.0798
25.3943 44.0444
25.5773 40.3353
25.7605 39.8275
25.9436 40.2041
26.1268 41.1139
26.31 39.4588
26.4933 40.2068
26.6767 41.7825
26.8601 39.884
27.0437 38.3055
27.2272 37.8337
27.4109 37.8273
27.5946 37.8601
27.7784 37.2329
27.9623 37.9218
28.1462 38.2977
28.3304 36.7241
28.5145 35.4447
28.6987 35.0697
28.8829 34.9406
29.0673 34.1583
29.2517 33.8923
29.4361 33.6331
29.6207 32.6015
29.8053 32.4869
29.99 32.0249
30.1748 32.01
30.3597 31.6914
30.5447 31.7377
30.7297 31.7909
30.915 31.1152
31.1002 30.6217
31.2855 30.4488
31.4708 30.398
31.6563 29.9181
31.8418 29.6549
32.0275 29.5719
32.2132 29.0491
32.399 28.4472
32.5848 28.0611
32.7708 27.7834
32.9569 27.6068
33.143 27.4474
33.3293 27.0508
33.5158 26.6714
33.7022 26.2361
33.8887 25.9976
34.0753 25.5864
34.262 25.3351
34.4488 24.9601
34.6357 24.6396
34.8227 24.3782
35.0098 24.1335
35.1969 23.88
35.3842 23.6861
35.5716 23.5158
35.759 23.1785
35.9468 22.8111
36.1345 22.6497
36.3222 22.3653
36.5101 22.1461
36.6981 21.7611
36.8861 21.5336
37.0743 21.2124
37.2626 21.0371
37.451 20.7199
37.6395 20.5258
37.8281 20.2263
38.0168 19.8995
38.2056 19.6906
38.3945 19.4407
38.5837 19.2008
38.7728 19.0572
38.9621 18.7594
39.1514 18.4997
39.3409 18.2368
39.5304 17.9882
39.7201 17.833
39.9099 17.6265
40.0999 17.3962
40.2899 17.1122
40.48 16.8833
40.6703 16.6965
40.8607 16.5248
41.0512 16.3109
41.242 16.0944
41.4327 15.8414
41.6236 15.6293
41.8146 15.4936
42.0057 15.263
42.1969 15.0185
42.3882 14.8433
42.5797 14.6355
42.7713 14.447
42.963 14.2378
43.1549 14.1091
43.3468 13.8432
43.5389 13.6709
43.7312 13.4775
43.9237 13.2956
44.1162 13.0588
44.3088 12.9106
44.5016 12.747
44.6945 12.5673
44.8875 12.3808
45.0806 12.2053
45.2739 12.0757
45.4673 11.9371
45.6609 11.7046
45.8546 11.527
46.0484 11.4163
46.2424 11.2051
46.4365 11.084
46.631 10.8798
46.8254 10.684
47.0199 10.5629
47.2146 10.4445
47.4095 10.2295
47.6044 10.135
47.7996 9.97512
47.9948 9.78398
48.1902 9.70247
48.3858 9.50916
48.5815 9.40923
48.7774 9.30769
48.9734 9.11768
49.1696 8.9659
49.3661 8.84984
49.5626 8.72823
49.7592 8.57735
49.956 8.45429
50.153 8.33704
50.3501 8.18744
50.5474 8.10656
50.7448 7.98235
50.9424 7.82296
51.1402 7.69948
51.3381 7.57362
51.5362 7.45531
51.7344 7.3699
51.9328 7.24623
52.1316 7.09239
52.3304 6.97623
52.5293 6.86839
52.7284 6.73264
52.9276 6.63676
53.1271 6.56605
53.3267 6.44984
53.5265 6.30196
53.7264 6.17744
53.9266 6.06282
54.1269 5.96306
54.3274 5.89172
54.528 5.75622
54.7289 5.57583
54.9301 5.38845
55.1314 5.28874
55.3328 5.07437
55.5344 4.89329
55.7361 4.72695