File: XRD/Ni3Fe_FD0830.xy
TT I
1.27165 7.12372
1.45013 6.2847
1.62863 5.1497
1.80712 4.9312
1.98562 5.0096
2.16411 4.78342
2.34263 5.92954
2.52115 7.21804
2.69965 8.26768
2.87818 8.78944
3.05672 10.8115
3.23527 14.6782
3.4138 18.7973
3.59237 22.8934
3.77094 25.3214
3.9495 29.0077
4.12809 34.3011
4.30669 91.6424
4.4853 52.9984
4.6639 55.3896
4.84253 68.8403
5.02118 86.7073
5.19981 409.38
5.37848 194.464
5.55716 102.197
5.73586 92.4051
5.91455 94.9971
6.09328 4530.23
6.27201 79.3568
6.45075 70.4694
6.62952 62.3422
6.8083 59.2363
6.98711 54.887
7.16591 55.8635
7.34475 64.2756
7.5236 53.8636
7.70247 57.1324
7.88135 56.9621
8.06026 62.3012
8.23919 68.7196
8.41812 83.0852
8.59709 1224.07
8.77609 96.4611
8.9551 89.2552
9.13412 82.7604
9.31318 84.8437
9.49226 84.7751
9.67134 94.7877
9.85047 101.23
10.0296 348.005
10.2088 343.859
10.388 104.575
10.5672 540.212
10.7465 85.615
10.9257 77.2102
11.105 71.1967
11.2844 67.6667
11.4637 64.1856
11.6431 62.8685
11.8225 62.3098
12.002 64.2464
12.1814 162.69
12.3609 65.7812
12.5405 64.703
12.72 67.0928
12.8996 70.9526
13.0792 80.3636
13.2589 251.367
13.4386 116.22
13.6183 260.716
13.7981 93.0041
13.9779 75.3849
14.1577 71.0967
14.3376 69.3654
14.5175 68.1857
14.6974 70.1255
14.8774 112.642
15.0574 138.706
15.2374 68.6323
15.4175 65.8245
15.5976 65.3274
15.7778 96.0378
15.958 145.695
16.1382 60.7136
16.3185 57.089
16.4988 54.9834
16.6792 54.0363
16.8596 54.3846
17.04 55.6394
17.2205 67.0989
17.401 68.1482
17.5815 58.7168
17.7622 60.8444
17.9428 73.3776
18.1237 141.819
18.3044 91.3698
18.4852 73.6211
18.666 59.6129
18.8469 57.6031
19.0278 56.3469
19.2088 58.8499
19.3898 75.1138
19.5709 53.458
19.752 52.9862
19.9332 55.7513
20.1144 69.7296
20.2957 64.0138
20.477 52.1128
20.6586 49.0804
20.84 48.3638
21.0215 48.0922
21.203 50.6337
21.3846 48.286
21.5662 48.4887
21.7479 52.5401
21.9297 63.7287
22.1115 55.7363
22.2933 49.0285
22.4753 48.1508
22.6572 48.597
22.8393 51.5837
23.0214 56.3591
23.2037 48.2123
23.3859 49.2134
23.5682 56.8489
23.7505 47.29
23.9329 44.702
24.1154 43.4796
24.2979 43.0436
24.4805 42.4734
24.6631 42.3071
24.8458 41.8233
25.0286 42.546
25.2114 44.2491
25.3943 43.9691
25.5773 40.3172
25.7605 40.0004
25.9436 40.5002
26.1268 41.2079
26.31 39.6366
26.4933 40.2913
26.6767 41.6321
26.8601 40.0337
27.0437 38.4401
27.2272 38.0725
27.4109 38.0524
27.5946 37.8625
27.7784 37.4905
27.9623 38.054
28.1462 38.3326
28.3304 36.6629
28.5145 35.6508
28.6987 35.2581
28.8829 35.0719
29.0673 34.2521
29.2517 33.9875
29.4361 33.7774
29.6207 32.7146
29.8053 32.5091
29.99 32.1941
30.1748 32.0487
30.3597 31.8707
30.5447 31.8864
30.7297 31.8911
30.915 31.2922
31.1002 30.8011
31.2855 30.5694
31.4708 30.5161
31.6563 29.9972
31.8418 29.7775
32.0275 29.6055
32.2132 29.085
32.399 28.5792
32.5848 28.1544
32.7708 27.8032
32.9569 27.6465
33.143 27.4839
33.3293 27.059
33.5158 26.7483
33.7022 26.2863
33.8887 26.0471
34.0753 25.6517
34.262 25.3332
34.4488 25.0582
34.6357 24.6341
34.8227 24.4163
35.0098 24.2821
35.1969 23.8833
35.3842 23.6994
35.5716 23.5074
35.759 23.2722
35.9468 22.8183
36.1345 22.6561
36.3222 22.4069
36.5101 22.2135
36.6981 21.8273
36.8861 21.5605
37.0743 21.2504
37.2626 21.0212
37.451 20.7805
37.6395 20.5668
37.8281 20.2326
38.0168 19.9952
38.2056 19.6624
38.3945 19.4867
38.5837 19.1718
38.7728 18.9847
38.9621 18.7683
39.1514 18.4971
39.3409 18.3038
39.5304 18.0814
39.7201 17.7786
39.9099 17.6821
40.0999 17.3799
40.2899 17.139
40.48 16.9298
40.6703 16.689
40.8607 16.5483
41.0512 16.2979
41.242 16.101
41.4327 15.8486
41.6236 15.67
41.8146 15.4973
42.0057 15.2618
42.1969 14.9859
42.3882 14.8336
42.5797 14.6583
42.7713 14.4881
42.963 14.2595
43.1549 14.0556
43.3468 13.8378
43.5389 13.6662
43.7312 13.4942
43.9237 13.2603
44.1162 13.0904
44.3088 12.9234
44.5016 12.7489
44.6945 12.5823
44.8875 12.4191
45.0806 12.248
45.2739 12.0212
45.4673 11.9123
45.6609 11.7201
45.8546 11.5706
46.0484 11.4329
46.2424 11.2369
46.4365 11.0701
46.631 10.9496
46.8254 10.7263
47.0199 10.5761
47.2146 10.4461
47.4095 10.269
47.6044 10.1125
47.7996 9.96359
47.9948 9.81927
48.1902 9.67365
48.3858 9.52798
48.5815 9.44016
48.7774 9.29105
48.9734 9.17846
49.1696 8.99705
49.3661 8.87002
49.5626 8.71147
49.7592 8.60213
49.956 8.45759
50.153 8.35338
50.3501 8.22555
50.5474 8.07735
50.7448 7.98097
50.9424 7.83009
51.1402 7.70226
51.3381 7.58063
51.5362 7.45944
51.7344 7.39338
51.9328 7.2126
52.1316 7.11578
52.3304 7.00223
52.5293 6.85832
52.7284 6.75384
52.9276 6.65543
53.1271 6.5522
53.3267 6.44944
53.5265 6.31294
53.7264 6.18459
53.9266 6.07994
54.1269 5.98213
54.3274 5.83019
54.528 5.73426
54.7289 5.54415
54.9301 5.412
55.1314 5.33045
55.3328 5.06133
55.5344 4.88652
55.7361 4.79437