File: XRD/Ni3Fe_FD0626.xy
TT I
1.27165 7.23967
1.45013 6.47804
1.62863 5.41965
1.80712 4.86919
1.98562 5.01792
2.16411 4.93041
2.34263 5.49557
2.52115 6.54495
2.69965 7.87089
2.87818 8.4178
3.05672 11.1789
3.23527 15.2137
3.4138 18.9536
3.59237 24.2202
3.77094 26.1666
3.9495 29.9243
4.12809 35.138
4.30669 225.573
4.4853 66.9029
4.6639 55.5873
4.84253 67.0294
5.02118 87.083
5.19981 344.674
5.37848 194.473
5.55716 102.666
5.73586 92.0972
5.91455 94.3115
6.09328 4375.63
6.27201 84.3321
6.45075 67.7928
6.62952 63.076
6.8083 59.0553
6.98711 56.2715
7.16591 55.511
7.34475 94.679
7.5236 54.9937
7.70247 56.4079
7.88135 58.2109
8.06026 62.4088
8.23919 69.9532
8.41812 85.5264
8.59709 1154.35
8.77609 100.702
8.9551 92.2662
9.13412 81.9757
9.31318 82.5332
9.49226 84.853
9.67134 99.1469
9.85047 99.9078
10.0296 334.466
10.2088 425.666
10.388 104.812
10.5672 504.7
10.7465 87.0368
10.9257 78.6957
11.105 72.1158
11.2844 70.8002
11.4637 65.3371
11.6431 64.0274
11.8225 62.7172
12.002 63.7784
12.1814 151.402
12.3609 71.6045
12.5405 64.6546
12.72 70.6573
12.8996 71.2413
13.0792 78.8885
13.2589 233.398
13.4386 128.253
13.6183 244.351
13.7981 100.408
13.9779 76.042
14.1577 73.0505
14.3376 71.8936
14.5175 69.3497
14.6974 70.7457
14.8774 109.847
15.0574 151.366
15.2374 71.5931
15.4175 66.6054
15.5976 65.9028
15.7778 94.4134
15.958 157.325
16.1382 63.3571
16.3185 59.1553
16.4988 56.0728
16.6792 54.8128
16.8596 55.4627
17.04 56.1273
17.2205 66.7688
17.401 72.6848
17.5815 59.3733
17.7622 61.4378
17.9428 73.4703
18.1237 138.584
18.3044 90.628
18.4852 79.0672
18.666 60.5974
18.8469 58.1723
19.0278 57.4219
19.2088 59.6675
19.3898 76.5758
19.5709 54.6307
19.752 53.3722
19.9332 56.3745
20.1144 69.6185
20.2957 63.8423
20.477 54.1468
20.6586 49.8271
20.84 49.0933
21.0215 48.5862
21.203 50.7589
21.3846 49.2039
21.5662 48.9213
21.7479 52.5203
21.9297 64.6328
22.1115 56.3037
22.2933 50.1341
22.4753 49.2458
22.6572 49.047
22.8393 52.0844
23.0214 57.6366
23.2037 49.0595
23.3859 49.9376
23.5682 57.138
23.7505 48.6154
23.9329 45.3918
24.1154 44.4169
24.2979 43.5309
24.4805 42.9998
24.6631 43.029
24.8458 42.4815
25.0286 42.9108
25.2114 44.6746
25.3943 44.764
25.5773 41.1482
25.7605 40.7032
25.9436 40.8736
26.1268 41.7189
26.31 40.4212
26.4933 40.9854
26.6767 42.3908
26.8601 40.6039
27.0437 38.9499
27.2272 38.7067
27.4109 38.6519
27.5946 38.5099
27.7784 37.982
27.9623 38.6472
28.1462 38.9278
28.3304 37.3938
28.5145 36.0584
28.6987 35.8259
28.8829 35.6308
29.0673 34.7999
29.2517 34.4047
29.4361 34.3443
29.6207 33.2469
29.8053 32.9141
29.99 32.6723
30.1748 32.5389
30.3597 32.4002
30.5447 32.2743
30.7297 32.4102
30.915 31.7179
31.1002 31.2807
31.2855 31.1354
31.4708 30.891
31.6563 30.5014
31.8418 30.3
32.0275 30.0677
32.2132 29.5505
32.399 29.0138
32.5848 28.6038
32.7708 28.245
32.9569 28.0362
33.143 27.841
33.3293 27.5098
33.5158 27.1257
33.7022 26.7904
33.8887 26.4019
34.0753 26.1451
34.262 25.7958
34.4488 25.4368
34.6357 25.031
34.8227 24.7881
35.0098 24.6763
35.1969 24.2486
35.3842 24.0741
35.5716 23.8963
35.759 23.5784
35.9468 23.186
36.1345 22.9212
36.3222 22.7588
36.5101 22.5812
36.6981 22.1831
36.8861 21.948
37.0743 21.642
37.2626 21.3702
37.451 21.0533
37.6395 20.9185
37.8281 20.6457
38.0168 20.2948
38.2056 20.002
38.3945 19.7725
38.5837 19.5407
38.7728 19.2979
38.9621 19.1364
39.1514 18.7752
39.3409 18.5837
39.5304 18.3291
39.7201 18.1531
39.9099 17.929
40.0999 17.7057
40.2899 17.4093
40.48 17.1933
40.6703 17.0538
40.8607 16.8251
41.0512 16.5672
41.242 16.3463
41.4327 16.1345
41.6236 15.9253
41.8146 15.6871
42.0057 15.4807
42.1969 15.2607
42.3882 15.1631
42.5797 14.8407
42.7713 14.7256
42.963 14.4976
43.1549 14.3138
43.3468 14.0541
43.5389 13.883
43.7312 13.6526
43.9237 13.5467
44.1162 13.3123
44.3088 13.1296
44.5016 12.9451
44.6945 12.823
44.8875 12.6299
45.0806 12.428
45.2739 12.26
45.4673 12.1112
45.6609 11.9482
45.8546 11.7528
46.0484 11.591
46.2424 11.3865
46.4365 11.2698
46.631 11.099
46.8254 10.9348
47.0199 10.7932
47.2146 10.6182
47.4095 10.4221
47.6044 10.2736
47.7996 10.1185
47.9948 9.99617
48.1902 9.87592
48.3858 9.68608
48.5815 9.55743
48.7774 9.45282
48.9734 9.2884
49.1696 9.1381
49.3661 8.99869
49.5626 8.85932
49.7592 8.67924
49.956 8.62322
50.153 8.48621
50.3501 8.35616
50.5474 8.2506
50.7448 8.0921
50.9424 7.97551
51.1402 7.84229
51.3381 7.71889
51.5362 7.62004
51.7344 7.48666
51.9328 7.29038
52.1316 7.19529
52.3304 7.10881
52.5293 7.01807
52.7284 6.85957
52.9276 6.75674
53.1271 6.70433
53.3267 6.52941
53.5265 6.4527
53.7264 6.28394
53.9266 6.19779
54.1269 6.14826
54.3274 5.92273
54.528 5.85133
54.7289 5.62037
54.9301 5.51512
55.1314 5.36495
55.3328 5.2109
55.5344 4.95701
55.7361 4.83382