File: XRD/Ni3Fe_FD0909.xy
TT I
1.27165 7.22698
1.45013 6.41043
1.62863 4.70478
1.80712 4.68498
1.98562 5.19452
2.16411 5.23774
2.34263 6.0003
2.52115 7.08547
2.69965 8.18915
2.87818 9.62503
3.05672 11.4116
3.23527 14.7498
3.4138 19.369
3.59237 23.1946
3.77094 25.5191
3.9495 29.4199
4.12809 34.0117
4.30669 134.682
4.4853 56.8351
4.6639 55.0079
4.84253 67.8007
5.02118 85.9435
5.19981 346.128
5.37848 178.822
5.55716 100.679
5.73586 91.4897
5.91455 93.328
6.09328 4726.29
6.27201 79.7386
6.45075 67.8342
6.62952 61.5101
6.8083 58.3247
6.98711 54.7034
7.16591 55.135
7.34475 73.8813
7.5236 53.8003
7.70247 55.5129
7.88135 56.9517
8.06026 61.6042
8.23919 68.6047
8.41812 83.2625
8.59709 1201.64
8.77609 95.9463
8.9551 88.4073
9.13412 81.0366
9.31318 82.3435
9.49226 83.6443
9.67134 94.5114
9.85047 99.1321
10.0296 329.308
10.2088 324.66
10.388 102.917
10.5672 544.01
10.7465 84.7009
10.9257 76.9081
11.105 70.6494
11.2844 67.9009
11.4637 63.8266
11.6431 62.4001
11.8225 61.6476
12.002 62.9252
12.1814 157.622
12.3609 66.3656
12.5405 63.5757
12.72 67.3525
12.8996 70.1911
13.0792 78.3845
13.2589 243.87
13.4386 113.41
13.6183 258.174
13.7981 91.4715
13.9779 74.5049
14.1577 70.8667
14.3376 69.2705
14.5175 67.6072
14.6974 69.4004
14.8774 109.709
15.0574 138.49
15.2374 68.7663
15.4175 65.1896
15.5976 64.6982
15.7778 93.298
15.958 144.641
16.1382 60.6618
16.3185 57.0846
16.4988 54.2767
16.6792 53.4204
16.8596 53.8522
17.04 54.9633
17.2205 65.9799
17.401 67.568
17.5815 57.8256
17.7622 60.4384
17.9428 72.09
18.1237 139.753
18.3044 90.3911
18.4852 73.0905
18.666 59.1536
18.8469 57.0536
19.0278 55.8277
19.2088 58.2414
19.3898 75.0334
19.5709 52.9969
19.752 52.4317
19.9332 55.2755
20.1144 69.2367
20.2957 64.0681
20.477 51.8371
20.6586 48.655
20.84 47.8955
21.0215 47.704
21.203 49.9198
21.3846 48.0137
21.5662 48.0294
21.7479 51.8236
21.9297 64.2224
22.1115 55.6358
22.2933 48.6984
22.4753 47.9517
22.6572 47.9167
22.8393 51.3197
23.0214 56.1894
23.2037 47.9516
23.3859 48.7782
23.5682 56.8018
23.7505 46.8295
23.9329 44.2597
24.1154 43.3079
24.2979 42.6307
24.4805 42.2599
24.6631 42.0557
24.8458 41.4509
25.0286 42.0796
25.2114 44.0136
25.3943 43.7987
25.5773 40.1132
25.7605 39.7036
25.9436 40.2165
26.1268 41.0753
26.31 39.4172
26.4933 39.9931
26.6767 41.4606
26.8601 39.7261
27.0437 38.1955
27.2272 37.7157
27.4109 37.8814
27.5946 37.6532
27.7784 37.3133
27.9623 37.8451
28.1462 38.1328
28.3304 36.3863
28.5145 35.3549
28.6987 34.9942
28.8829 34.8699
29.0673 34.121
29.2517 33.7343
29.4361 33.586
29.6207 32.5242
29.8053 32.2309
29.99 32.0009
30.1748 31.8775
30.3597 31.6516
30.5447 31.5977
30.7297 31.7147
30.915 31.0623
31.1002 30.5839
31.2855 30.4789
31.4708 30.4107
31.6563 29.8135
31.8418 29.6308
32.0275 29.4775
32.2132 28.883
32.399 28.3716
32.5848 28.0475
32.7708 27.6348
32.9569 27.6126
33.143 27.3614
33.3293 26.9224
33.5158 26.5389
33.7022 26.1676
33.8887 25.8344
34.0753 25.546
34.262 25.192
34.4488 24.8068
34.6357 24.4778
34.8227 24.2599
35.0098 24.084
35.1969 23.7584
35.3842 23.6058
35.5716 23.3117
35.759 23.039
35.9468 22.7834
36.1345 22.5744
36.3222 22.2595
36.5101 22.0789
36.6981 21.7124
36.8861 21.4474
37.0743 21.1553
37.2626 20.9347
37.451 20.6641
37.6395 20.4803
37.8281 20.1488
38.0168 19.9115
38.2056 19.6476
38.3945 19.4232
38.5837 19.1984
38.7728 18.8412
38.9621 18.6606
39.1514 18.369
39.3409 18.1729
39.5304 17.943
39.7201 17.7373
39.9099 17.584
40.0999 17.3502
40.2899 17.0782
40.48 16.8297
40.6703 16.6696
40.8607 16.4894
41.0512 16.2159
41.242 15.9266
41.4327 15.8586
41.6236 15.5974
41.8146 15.4141
42.0057 15.2152
42.1969 14.9713
42.3882 14.7531
42.5797 14.5605
42.7713 14.348
42.963 14.191
43.1549 14.0032
43.3468 13.8189
43.5389 13.5944
43.7312 13.4048
43.9237 13.2714
44.1162 12.993
44.3088 12.8444
44.5016 12.6966
44.6945 12.5414
44.8875 12.3444
45.0806 12.1633
45.2739 11.956
45.4673 11.869
45.6609 11.6566
45.8546 11.5265
46.0484 11.3449
46.2424 11.1581
46.4365 11.0448
46.631 10.841
46.8254 10.6778
47.0199 10.5165
47.2146 10.4155
47.4095 10.2138
47.6044 10.0812
47.7996 9.93876
47.9948 9.78241
48.1902 9.63718
48.3858 9.49175
48.5815 9.39939
48.7774 9.25025
48.9734 9.10684
49.1696 8.97412
49.3661 8.82984
49.5626 8.67496
49.7592 8.55615
49.956 8.44436
50.153 8.30703
50.3501 8.1643
50.5474 8.04026
50.7448 7.91848
50.9424 7.76876
51.1402 7.68481
51.3381 7.53132
51.5362 7.42304
51.7344 7.31202
51.9328 7.18134
52.1316 7.08698
52.3304 6.9275
52.5293 6.798
52.7284 6.7388
52.9276 6.6212
53.1271 6.53445
53.3267 6.37272
53.5265 6.28278
53.7264 6.20187
53.9266 6.07499
54.1269 5.94522
54.3274 5.86291
54.528 5.68889
54.7289 5.51757
54.9301 5.38919
55.1314 5.26307
55.3328 5.10579
55.5344 4.9497
55.7361 4.72149