File: XRD/Ni3Fe_FD0802.xy
TT I
1.27165 7.77776
1.45013 5.93946
1.62863 5.51517
1.80712 4.6737
1.98562 4.76137
2.16411 4.51438
2.34263 5.71052
2.52115 7.07491
2.69965 8.02453
2.87818 8.18832
3.05672 11.2419
3.23527 15.0422
3.4138 18.5618
3.59237 23.1745
3.77094 25.5849
3.9495 29.385
4.12809 33.8015
4.30669 124.625
4.4853 55.6094
4.6639 55.3195
4.84253 67.582
5.02118 86.2157
5.19981 384.096
5.37848 184.656
5.55716 101.478
5.73586 91.64
5.91455 94.1034
6.09328 4536.72
6.27201 80.2342
6.45075 67.9583
6.62952 62.1445
6.8083 58.9823
6.98711 55.1432
7.16591 55.4943
7.34475 72.1144
7.5236 53.9068
7.70247 55.8821
7.88135 56.9439
8.06026 62.1377
8.23919 68.7155
8.41812 83.3328
8.59709 1215.94
8.77609 96.9876
8.9551 88.7292
9.13412 82.0913
9.31318 83.1472
9.49226 83.7944
9.67134 94.5549
9.85047 100.152
10.0296 343.302
10.2088 343.226
10.388 103.909
10.5672 531.73
10.7465 84.988
10.9257 77.4871
11.105 70.8385
11.2844 68.2703
11.4637 64.3338
11.6431 62.4728
11.8225 61.9215
12.002 63.7175
12.1814 157.214
12.3609 66.7312
12.5405 63.784
12.72 67.7305
12.8996 70.6786
13.0792 79.322
13.2589 247.323
13.4386 117.504
13.6183 256.5
13.7981 92.2114
13.9779 75.1012
14.1577 71.2404
14.3376 69.7965
14.5175 68.0865
14.6974 69.825
14.8774 111.415
15.0574 141.06
15.2374 69.0912
15.4175 65.5782
15.5976 65.4005
15.7778 94.9408
15.958 145.802
16.1382 60.7116
16.3185 57.5621
16.4988 54.685
16.6792 54.0587
16.8596 54.2029
17.04 55.4038
17.2205 66.8256
17.401 68.653
17.5815 58.6209
17.7622 60.6927
17.9428 73.0353
18.1237 141.177
18.3044 91.1301
18.4852 74.3557
18.666 59.8435
18.8469 57.3692
19.0278 56.182
19.2088 58.5235
19.3898 75.7283
19.5709 53.3877
19.752 52.712
19.9332 55.7457
20.1144 69.8513
20.2957 63.9071
20.477 52.5975
20.6586 49.0297
20.84 48.224
21.0215 47.9357
21.203 50.5749
21.3846 48.4333
21.5662 48.4229
21.7479 52.2587
21.9297 64.2967
22.1115 55.8763
22.2933 49.2474
22.4753 48.2994
22.6572 48.4793
22.8393 51.7607
23.0214 56.5776
23.2037 48.2258
23.3859 49.2597
23.5682 57.1896
23.7505 47.3774
23.9329 44.731
24.1154 43.6225
24.2979 42.9585
24.4805 42.5111
24.6631 42.4449
24.8458 41.8027
25.0286 42.4706
25.2114 44.0982
25.3943 44.1939
25.5773 40.5479
25.7605 40.015
25.9436 40.4522
26.1268 41.2654
26.31 39.6671
26.4933 40.3247
26.6767 41.7069
26.8601 39.9809
27.0437 38.4954
27.2272 38.0346
27.4109 37.9601
27.5946 38.0005
27.7784 37.544
27.9623 38.0673
28.1462 38.2673
28.3304 36.5985
28.5145 35.4964
28.6987 35.3034
28.8829 35.1418
29.0673 34.278
29.2517 34.059
29.4361 33.8172
29.6207 32.7578
29.8053 32.5629
29.99 32.2527
30.1748 32.1065
30.3597 31.932
30.5447 31.8738
30.7297 31.9822
30.915 31.285
31.1002 30.7541
31.2855 30.6495
31.4708 30.5678
31.6563 30.0376
31.8418 29.8692
32.0275 29.6745
32.2132 29.1129
32.399 28.6478
32.5848 28.2008
32.7708 27.8826
32.9569 27.6741
33.143 27.5256
33.3293 27.0987
33.5158 26.6997
33.7022 26.3202
33.8887 26.1459
34.0753 25.7293
34.262 25.3961
34.4488 25.0791
34.6357 24.6804
34.8227 24.4339
35.0098 24.1939
35.1969 23.9312
35.3842 23.7866
35.5716 23.5596
35.759 23.2629
35.9468 22.8347
36.1345 22.6912
36.3222 22.4019
36.5101 22.1234
36.6981 21.9439
36.8861 21.6282
37.0743 21.3207
37.2626 21.0438
37.451 20.7449
37.6395 20.6227
37.8281 20.3194
38.0168 19.9795
38.2056 19.8029
38.3945 19.4401
38.5837 19.2486
38.7728 19.0525
38.9621 18.7326
39.1514 18.4658
39.3409 18.2716
39.5304 18.0722
39.7201 17.866
39.9099 17.6819
40.0999 17.4325
40.2899 17.175
40.48 16.9461
40.6703 16.7009
40.8607 16.5605
41.0512 16.3574
41.242 16.0973
41.4327 15.9349
41.6236 15.6764
41.8146 15.4862
42.0057 15.2692
42.1969 15.0606
42.3882 14.916
42.5797 14.667
42.7713 14.4866
42.963 14.2631
43.1549 14.0687
43.3468 13.8689
43.5389 13.6944
43.7312 13.5286
43.9237 13.3069
44.1162 13.1399
44.3088 12.9241
44.5016 12.7776
44.6945 12.5891
44.8875 12.4206
45.0806 12.2727
45.2739 12.0467
45.4673 11.9132
45.6609 11.6915
45.8546 11.6186
46.0484 11.4186
46.2424 11.2717
46.4365 11.1048
46.631 10.9168
46.8254 10.7378
47.0199 10.6037
47.2146 10.4647
47.4095 10.2911
47.6044 10.1483
47.7996 10.0053
47.9948 9.82964
48.1902 9.67832
48.3858 9.5809
48.5815 9.42442
48.7774 9.32902
48.9734 9.17377
49.1696 9.00309
49.3661 8.87715
49.5626 8.69177
49.7592 8.6167
49.956 8.46661
50.153 8.34884
50.3501 8.20294
50.5474 8.11017
50.7448 7.98473
50.9424 7.84557
51.1402 7.75667
51.3381 7.61187
51.5362 7.45243
51.7344 7.35373
51.9328 7.21065
52.1316 7.07481
52.3304 6.97213
52.5293 6.88063
52.7284 6.78681
52.9276 6.65093
53.1271 6.54102
53.3267 6.41528
53.5265 6.27335
53.7264 6.21505
53.9266 6.06131
54.1269 6.00729
54.3274 5.90288
54.528 5.7632
54.7289 5.5937
54.9301 5.40685
55.1314 5.33126
55.3328 5.0841
55.5344 4.86545
55.7361 4.78096