File: XRD/Ni3Fe_FD1026.xy
TT I
1.27165 6.70313
1.45013 6.01627
1.62863 5.23146
1.80712 4.79234
1.98562 4.43202
2.16411 4.28214
2.34263 5.05603
2.52115 7.2181
2.69965 8.52315
2.87818 9.0563
3.05672 11.1595
3.23527 14.9516
3.4138 18.2703
3.59237 21.458
3.77094 24.5095
3.9495 28.4972
4.12809 32.1475
4.30669 57.4379
4.4853 46.3262
4.6639 52.68
4.84253 64.2192
5.02118 83.0521
5.19981 229.851
5.37848 226.126
5.55716 97.0144
5.73586 87.3565
5.91455 88.9014
6.09328 4420.41
6.27201 75.1218
6.45075 63.1361
6.62952 57.7617
6.8083 53.8238
6.98711 52.2702
7.16591 51.3607
7.34475 56.4032
7.5236 60.8971
7.70247 53.0092
7.88135 54.7331
8.06026 59.1597
8.23919 65.4413
8.41812 77.3029
8.59709 1066.96
8.77609 94.6811
8.9551 82.1591
9.13412 78.6055
9.31318 92.1811
9.49226 80.5697
9.67134 85.8866
9.85047 93.2487
10.0296 333.807
10.2088 445.436
10.388 97.2329
10.5672 497.898
10.7465 86.4875
10.9257 73.1044
11.105 67.7808
11.2844 64.4936
11.4637 61.5576
11.6431 60.3123
11.8225 59.4698
12.002 68.187
12.1814 144.73
12.3609 64.246
12.5405 60.7274
12.72 63.6522
12.8996 67.4109
13.0792 76.1918
13.2589 222.757
13.4386 126.165
13.6183 232.521
13.7981 99.546
13.9779 73.0864
14.1577 76.7471
14.3376 66.8691
14.5175 66.239
14.6974 67.1994
14.8774 107.086
15.0574 158.385
15.2374 66.0969
15.4175 63.5865
15.5976 63.0062
15.7778 92.1178
15.958 166.89
16.1382 59.7935
16.3185 55.2679
16.4988 53.0139
16.6792 52.2875
16.8596 52.563
17.04 53.5894
17.2205 64.0807
17.401 70.9103
17.5815 56.8807
17.7622 59.5075
17.9428 72.0569
18.1237 140.75
18.3044 87.8066
18.4852 78.5198
18.666 58.6012
18.8469 56.0105
19.0278 54.5703
19.2088 57.5276
19.3898 75.6989
19.5709 52.7413
19.752 51.5536
19.9332 54.3356
20.1144 69.6885
20.2957 62.8193
20.477 52.607
20.6586 47.9811
20.84 47.706
21.0215 47.0599
21.203 49.226
21.3846 47.494
21.5662 47.2403
21.7479 51.3445
21.9297 64.8573
22.1115 55.6651
22.2933 48.7951
22.4753 47.1261
22.6572 47.1313
22.8393 50.7712
23.0214 57.3211
23.2037 47.5756
23.3859 48.919
23.5682 56.877
23.7505 47.7932
23.9329 43.8966
24.1154 42.8126
24.2979 42.1539
24.4805 41.7028
24.6631 41.7106
24.8458 41.0451
25.0286 41.7691
25.2114 43.9541
25.3943 44.1046
25.5773 39.8388
25.7605 39.4592
25.9436 39.8071
26.1268 41.1172
26.31 39.0865
26.4933 39.7491
26.6767 41.6575
26.8601 39.8868
27.0437 38.0901
27.2272 37.5797
27.4109 37.4433
27.5946 37.5477
27.7784 37.0657
27.9623 37.6966
28.1462 38.433
28.3304 36.594
28.5145 35.1697
28.6987 34.727
28.8829 34.7335
29.0673 33.9284
29.2517 33.5176
29.4361 33.4508
29.6207 32.372
29.8053 32.0854
29.99 31.7851
30.1748 31.6282
30.3597 31.5429
30.5447 31.4226
30.7297 31.6854
30.915 30.9312
31.1002 30.4182
31.2855 30.209
31.4708 30.264
31.6563 29.8158
31.8418 29.463
32.0275 29.409
32.2132 28.8194
32.399 28.2662
32.5848 27.9128
32.7708 27.5309
32.9569 27.3042
33.143 27.2122
33.3293 26.9068
33.5158 26.4467
33.7022 25.9573
33.8887 25.7531
34.0753 25.4647
34.262 25.0274
34.4488 24.6904
34.6357 24.313
34.8227 24.0884
35.0098 23.8955
35.1969 23.6651
35.3842 23.4457
35.5716 23.2622
35.759 23.0385
35.9468 22.6184
36.1345 22.3744
36.3222 22.198
36.5101 21.9605
36.6981 21.6703
36.8861 21.4024
37.0743 21.0054
37.2626 20.8099
37.451 20.4958
37.6395 20.3281
37.8281 20.0218
38.0168 19.7093
38.2056 19.5159
38.3945 19.2355
38.5837 19.0297
38.7728 18.7717
38.9621 18.5846
39.1514 18.3285
39.3409 18.0619
39.5304 17.8676
39.7201 17.6499
39.9099 17.4366
40.0999 17.2134
40.2899 16.9487
40.48 16.7553
40.6703 16.5372
40.8607 16.402
41.0512 16.1267
41.242 15.8577
41.4327 15.6984
41.6236 15.4908
41.8146 15.3323
42.0057 15.1377
42.1969 14.8845
42.3882 14.751
42.5797 14.5
42.7713 14.3152
42.963 14.0919
43.1549 13.9313
43.3468 13.6908
43.5389 13.531
43.7312 13.3338
43.9237 13.1678
44.1162 13.0112
44.3088 12.8378
44.5016 12.6052
44.6945 12.4274
44.8875 12.2724
45.0806 12.1127
45.2739 11.9689
45.4673 11.7576
45.6609 11.5834
45.8546 11.4832
46.0484 11.2959
46.2424 11.1364
46.4365 10.9871
46.631 10.8065
46.8254 10.6525
47.0199 10.4964
47.2146 10.2881
47.4095 10.1409
47.6044 10.0143
47.7996 9.82252
47.9948 9.70697
48.1902 9.58373
48.3858 9.44919
48.5815 9.35923
48.7774 9.19555
48.9734 9.03793
49.1696 8.87396
49.3661 8.75289
49.5626 8.6099
49.7592 8.49599
49.956 8.35672
50.153 8.2375
50.3501 8.13789
50.5474 7.98339
50.7448 7.87424
50.9424 7.7854
51.1402 7.63307
51.3381 7.54588
51.5362 7.3952
51.7344 7.25858
51.9328 7.13436
52.1316 7.03452
52.3304 6.88271
52.5293 6.79748
52.7284 6.67231
52.9276 6.57258
53.1271 6.51437
53.3267 6.38623
53.5265 6.23069
53.7264 6.16518
53.9266 6.01929
54.1269 5.91248
54.3274 5.82756
54.528 5.6537
54.7289 5.51858
54.9301 5.37938
55.1314 5.24079
55.3328 5.06822
55.5344 4.84235
55.7361 4.74112