File: XRD/Ni3Fe_FD0974.xy
TT I
1.27165 7.52772
1.45013 5.67233
1.62863 5.07146
1.80712 4.82784
1.98562 4.79459
2.16411 5.18158
2.34263 5.99975
2.52115 7.5327
2.69965 9.02375
2.87818 8.99898
3.05672 11.5606
3.23527 15.1641
3.4138 18.9349
3.59237 24.2501
3.77094 25.7535
3.9495 29.8234
4.12809 34.3537
4.30669 216.075
4.4853 64.8012
4.6639 54.5097
4.84253 65.9551
5.02118 84.3008
5.19981 275.315
5.37848 172.621
5.55716 99.4312
5.73586 89.8505
5.91455 90.5009
6.09328 4601.32
6.27201 80.7981
6.45075 66.2136
6.62952 61.8011
6.8083 57.7448
6.98711 54.9082
7.16591 54.3998
7.34475 89.8717
7.5236 54.0727
7.70247 55.348
7.88135 56.7839
8.06026 60.87
8.23919 68.0516
8.41812 82.9147
8.59709 1130.48
8.77609 96.3373
8.9551 90.0029
9.13412 80.2714
9.31318 81.1091
9.49226 83.0206
9.67134 96.5974
9.85047 97.6754
10.0296 295.019
10.2088 358.945
10.388 101.996
10.5672 527.515
10.7465 84.6349
10.9257 76.9329
11.105 70.5899
11.2844 69.1248
11.4637 63.7786
11.6431 62.5224
11.8225 61.4756
12.002 62.1412
12.1814 153.302
12.3609 69.4265
12.5405 63.3268
12.72 68.7469
12.8996 69.5784
13.0792 76.7306
13.2589 232.594
13.4386 119.192
13.6183 247.124
13.7981 94.7718
13.9779 74.2877
14.1577 71.0398
14.3376 69.9725
14.5175 67.2234
14.6974 69.1305
14.8774 105.484
15.0574 146.556
15.2374 69.5688
15.4175 65.1847
15.5976 64.3486
15.7778 90.2329
15.958 150.849
16.1382 61.325
16.3185 57.52
16.4988 54.556
16.6792 53.5521
16.8596 54.1858
17.04 54.5109
17.2205 65.0827
17.401 69.0758
17.5815 58.0324
17.7622 59.912
17.9428 70.683
18.1237 137.718
18.3044 89.1417
18.4852 75.4321
18.666 59.0916
18.8469 57.0569
19.0278 55.7351
19.2088 58.0772
19.3898 75.2573
19.5709 52.9628
19.752 52.2594
19.9332 54.8415
20.1144 68.6569
20.2957 63.3397
20.477 52.3945
20.6586 48.7453
20.84 47.7537
21.0215 47.5135
21.203 50.1833
21.3846 47.9418
21.5662 47.7832
21.7479 51.2648
21.9297 63.4994
22.1115 55.3169
22.2933 48.8408
22.4753 47.8829
22.6572 47.7931
22.8393 50.8349
23.0214 56.1168
23.2037 47.7143
23.3859 48.3959
23.5682 56.5061
23.7505 47.3233
23.9329 44.2467
24.1154 43.2656
24.2979 42.4957
24.4805 42.0607
24.6631 42.0367
24.8458 41.4828
25.0286 41.9621
25.2114 43.693
25.3943 43.6699
25.5773 40.1148
25.7605 39.7126
25.9436 39.9994
26.1268 40.9407
26.31 39.3176
26.4933 39.9048
26.6767 41.3272
26.8601 39.7009
27.0437 38.0207
27.2272 37.8233
27.4109 37.6485
27.5946 37.4956
27.7784 36.9855
27.9623 37.9005
28.1462 38.0476
28.3304 36.5209
28.5145 35.3251
28.6987 34.9354
28.8829 34.6928
29.0673 34.0224
29.2517 33.6865
29.4361 33.6581
29.6207 32.5211
29.8053 32.247
29.99 31.9756
30.1748 31.8639
30.3597 31.692
30.5447 31.4946
30.7297 31.6791
30.915 30.9949
31.1002 30.5481
31.2855 30.3382
31.4708 30.2664
31.6563 29.8056
31.8418 29.5846
32.0275 29.3438
32.2132 28.7802
32.399 28.3677
32.5848 27.879
32.7708 27.6484
32.9569 27.5139
33.143 27.31
33.3293 26.8675
33.5158 26.4969
33.7022 26.1354
33.8887 25.8012
34.0753 25.4834
34.262 25.1924
34.4488 24.8181
34.6357 24.4355
34.8227 24.2299
35.0098 24.0074
35.1969 23.7649
35.3842 23.631
35.5716 23.393
35.759 23.0423
35.9468 22.7769
36.1345 22.49
36.3222 22.2499
36.5101 22.0445
36.6981 21.7111
36.8861 21.4497
37.0743 21.1281
37.2626 20.8949
37.451 20.627
37.6395 20.4748
37.8281 20.0514
38.0168 19.8353
38.2056 19.6198
38.3945 19.3714
38.5837 19.1072
38.7728 18.9201
38.9621 18.6326
39.1514 18.2891
39.3409 18.1269
39.5304 17.9406
39.7201 17.722
39.9099 17.5522
40.0999 17.2904
40.2899 17.0794
40.48 16.8044
40.6703 16.6143
40.8607 16.486
41.0512 16.239
41.242 16.0228
41.4327 15.7924
41.6236 15.516
41.8146 15.3856
42.0057 15.1477
42.1969 14.9836
42.3882 14.7658
42.5797 14.5494
42.7713 14.4217
42.963 14.1942
43.1549 14.0026
43.3468 13.7537
43.5389 13.5384
43.7312 13.3748
43.9237 13.2131
44.1162 13.088
44.3088 12.853
44.5016 12.6679
44.6945 12.5142
44.8875 12.3614
45.0806 12.172
45.2739 12.0196
45.4673 11.7917
45.6609 11.6392
45.8546 11.4808
46.0484 11.3434
46.2424 11.1912
46.4365 11.0311
46.631 10.8444
46.8254 10.6638
47.0199 10.5154
47.2146 10.3632
47.4095 10.2175
47.6044 10.0557
47.7996 9.91301
47.9948 9.7677
48.1902 9.60671
48.3858 9.49262
48.5815 9.39175
48.7774 9.20259
48.9734 9.09592
49.1696 8.93546
49.3661 8.79539
49.5626 8.63922
49.7592 8.54162
49.956 8.43431
50.153 8.291
50.3501 8.16463
50.5474 8.02503
50.7448 7.90733
50.9424 7.82243
51.1402 7.69658
51.3381 7.51842
51.5362 7.40809
51.7344 7.31033
51.9328 7.16651
52.1316 7.0138
52.3304 6.96494
52.5293 6.8508
52.7284 6.72027
52.9276 6.59767
53.1271 6.53897
53.3267 6.39511
53.5265 6.24962
53.7264 6.18382
53.9266 6.08983
54.1269 5.96166
54.3274 5.83146
54.528 5.73171
54.7289 5.53823
54.9301 5.38383
55.1314 5.17834
55.3328 5.04618
55.5344 4.88722
55.7361 4.76953