File: XRD/Ni3Fe_FD0711.xy
TT I
1.27165 7.13093
1.45013 6.36702
1.62863 5.65014
1.80712 4.9823
1.98562 4.93886
2.16411 4.48069
2.34263 5.41503
2.52115 6.95544
2.69965 8.44843
2.87818 8.72108
3.05672 11.0185
3.23527 15.6079
3.4138 18.517
3.59237 22.6597
3.77094 25.7347
3.9495 29.4516
4.12809 33.8369
4.30669 101.733
4.4853 53.5665
4.6639 55.5478
4.84253 68.6389
5.02118 87.9606
5.19981 431.725
5.37848 198.357
5.55716 101.96
5.73586 93.0871
5.91455 96.0284
6.09328 4612.76
6.27201 80.6951
6.45075 69.551
6.62952 62.9642
6.8083 59.2379
6.98711 55.2205
7.16591 56.0642
7.34475 67.3981
7.5236 53.9875
7.70247 56.5958
7.88135 57.4669
8.06026 62.3979
8.23919 69.2776
8.41812 84.1551
8.59709 1250.25
8.77609 98.1014
8.9551 89.6231
9.13412 83.2138
9.31318 84.5972
9.49226 84.6404
9.67134 95.1571
9.85047 101.638
10.0296 365.688
10.2088 360.654
10.388 106.12
10.5672 517.16
10.7465 86.2004
10.9257 77.6828
11.105 71.3253
11.2844 68.1677
11.4637 64.7327
11.6431 63.1692
11.8225 62.426
12.002 64.4268
12.1814 155.033
12.3609 66.6269
12.5405 65.0027
12.72 68.2077
12.8996 71.4709
13.0792 80.7206
13.2589 250.998
13.4386 120.937
13.6183 260.921
13.7981 94.3715
13.9779 75.7363
14.1577 71.6698
14.3376 70.1112
14.5175 68.6326
14.6974 70.8815
14.8774 114.589
15.0574 139.642
15.2374 69.427
15.4175 66.3287
15.5976 65.7608
15.7778 97.2268
15.958 148.346
16.1382 61.2804
16.3185 57.6645
16.4988 55.4078
16.6792 54.3688
16.8596 54.733
17.04 55.8929
17.2205 67.4113
17.401 69.5679
17.5815 59.1696
17.7622 61.4116
17.9428 74.3195
18.1237 142.264
18.3044 91.6924
18.4852 74.8667
18.666 60.2514
18.8469 58.1432
19.0278 56.494
19.2088 59.2209
19.3898 75.8919
19.5709 53.8688
19.752 53.3333
19.9332 56.3182
20.1144 69.6852
20.2957 64.0957
20.477 52.9253
20.6586 49.5934
20.84 48.8982
21.0215 48.4595
21.203 50.7787
21.3846 48.7978
21.5662 48.9886
21.7479 52.9285
21.9297 64.9287
22.1115 56.0746
22.2933 49.4924
22.4753 48.5274
22.6572 48.8567
22.8393 52.1323
23.0214 56.9662
23.2037 48.8079
23.3859 49.7058
23.5682 57.2696
23.7505 47.6139
23.9329 45.2557
24.1154 43.9514
24.2979 43.2118
24.4805 42.8456
24.6631 42.6199
24.8458 42.1396
25.0286 42.916
25.2114 44.7565
25.3943 44.3377
25.5773 40.606
25.7605 40.3746
25.9436 40.779
26.1268 41.5113
26.31 40.0155
26.4933 40.5416
26.6767 42.1822
26.8601 40.3582
27.0437 38.8687
27.2272 38.3542
27.4109 38.2213
27.5946 38.3423
27.7784 37.8082
27.9623 38.3832
28.1462 38.7415
28.3304 36.9317
28.5145 35.7512
28.6987 35.5657
28.8829 35.3166
29.0673 34.4447
29.2517 34.1956
29.4361 34.0269
29.6207 33.0413
29.8053 32.8036
29.99 32.5205
30.1748 32.3836
30.3597 32.1712
30.5447 32.1518
30.7297 32.2044
30.915 31.4543
31.1002 31.0547
31.2855 30.8208
31.4708 30.7587
31.6563 30.2328
31.8418 30.0209
32.0275 29.8355
32.2132 29.2622
32.399 28.8463
32.5848 28.4053
32.7708 28.1632
32.9569 27.9218
33.143 27.7034
33.3293 27.3153
33.5158 26.9065
33.7022 26.5095
33.8887 26.1877
34.0753 25.8793
34.262 25.5629
34.4488 25.2422
34.6357 24.9853
34.8227 24.6088
35.0098 24.4632
35.1969 24.1705
35.3842 23.9115
35.5716 23.7679
35.759 23.3905
35.9468 23.0374
36.1345 22.7871
36.3222 22.5321
36.5101 22.3266
36.6981 22.067
36.8861 21.7079
37.0743 21.4323
37.2626 21.1718
37.451 20.9094
37.6395 20.7712
37.8281 20.4368
38.0168 20.1733
38.2056 19.9721
38.3945 19.6017
38.5837 19.3971
38.7728 19.1064
38.9621 18.8699
39.1514 18.6276
39.3409 18.4141
39.5304 18.2024
39.7201 18.0413
39.9099 17.7717
40.0999 17.5203
40.2899 17.2811
40.48 17.0575
40.6703 16.8887
40.8607 16.6818
41.0512 16.4717
41.242 16.2297
41.4327 15.9265
41.6236 15.7054
41.8146 15.5707
42.0057 15.3565
42.1969 15.1488
42.3882 14.9731
42.5797 14.7654
42.7713 14.5884
42.963 14.354
43.1549 14.179
43.3468 13.9455
43.5389 13.8256
43.7312 13.5785
43.9237 13.3872
44.1162 13.204
44.3088 13.0037
44.5016 12.8312
44.6945 12.7237
44.8875 12.52
45.0806 12.3133
45.2739 12.1262
45.4673 12.0038
45.6609 11.8011
45.8546 11.6266
46.0484 11.5107
46.2424 11.327
46.4365 11.1672
46.631 10.9679
46.8254 10.8171
47.0199 10.6716
47.2146 10.4913
47.4095 10.3465
47.6044 10.198
47.7996 10.0237
47.9948 9.89614
48.1902 9.77699
48.3858 9.5885
48.5815 9.44181
48.7774 9.34403
48.9734 9.20379
49.1696 9.05589
49.3661 8.90824
49.5626 8.75981
49.7592 8.65286
49.956 8.53895
50.153 8.41689
50.3501 8.28288
50.5474 8.11893
50.7448 8.05363
50.9424 7.89923
51.1402 7.76263
51.3381 7.61377
51.5362 7.5036
51.7344 7.40933
51.9328 7.25736
52.1316 7.15366
52.3304 7.0663
52.5293 6.90417
52.7284 6.83729
52.9276 6.67459
53.1271 6.55554
53.3267 6.45515
53.5265 6.35565
53.7264 6.21197
53.9266 6.11621
54.1269 6.05829
54.3274 5.94529
54.528 5.7673
54.7289 5.62185
54.9301 5.47611
55.1314 5.34201
55.3328 5.11714
55.5344 4.94261
55.7361 4.81307