File: XRD/Ni3Fe_FD0474.xy
TT I
1.27165 7.83885
1.45013 6.65972
1.62863 5.59759
1.80712 5.17307
1.98562 4.63569
2.16411 4.41496
2.34263 5.79076
2.52115 6.4264
2.69965 6.94249
2.87818 8.44894
3.05672 10.9119
3.23527 15.0564
3.4138 18.6978
3.59237 23.3156
3.77094 26.0774
3.9495 29.7805
4.12809 34.5801
4.30669 117.412
4.4853 55.5863
4.6639 56.2245
4.84253 69.7656
5.02118 89.5913
5.19981 536.927
5.37848 206.843
5.55716 105.038
5.73586 95.328
5.91455 98.9847
6.09328 4281.07
6.27201 83.3791
6.45075 69.1048
6.62952 62.9719
6.8083 59.0804
6.98711 56.5838
7.16591 55.9308
7.34475 71.1432
7.5236 54.9275
7.70247 57.0362
7.88135 58.3161
8.06026 63.6698
8.23919 70.9
8.41812 86.3732
8.59709 1243.19
8.77609 101.509
8.9551 90.181
9.13412 84.0156
9.31318 85.489
9.49226 86.1055
9.67134 96.2159
9.85047 102.703
10.0296 412.139
10.2088 402.205
10.388 108.236
10.5672 500.004
10.7465 87.8508
10.9257 78.4202
11.105 72.7654
11.2844 69.8982
11.4637 65.8267
11.6431 64.485
11.8225 63.5867
12.002 65.8188
12.1814 155.798
12.3609 68.7777
12.5405 65.5328
12.72 69.3989
12.8996 72.1673
13.0792 82.1738
13.2589 252.774
13.4386 125.013
13.6183 254.994
13.7981 97.7076
13.9779 77.0944
14.1577 73.2866
14.3376 71.6875
14.5175 70.1598
14.6974 71.9301
14.8774 118.486
15.0574 147.638
15.2374 70.889
15.4175 67.52
15.5976 67.3975
15.7778 101.278
15.958 154.823
16.1382 62.6567
16.3185 58.8959
16.4988 56.5219
16.6792 55.3059
16.8596 55.9036
17.04 57.2913
17.2205 68.6119
17.401 71.7234
17.5815 60.4473
17.7622 62.6107
17.9428 77.4421
18.1237 140.589
18.3044 92.1695
18.4852 78.0097
18.666 61.374
18.8469 58.9733
19.0278 57.8795
19.2088 60.6404
19.3898 76.7713
19.5709 55.1169
19.752 54.2971
19.9332 57.5188
20.1144 70.4528
20.2957 64.23
20.477 53.9718
20.6586 50.4587
20.84 49.6197
21.0215 49.4804
21.203 51.6551
21.3846 49.6737
21.5662 49.8806
21.7479 54.1171
21.9297 65.4992
22.1115 56.6135
22.2933 50.6095
22.4753 49.5129
22.6572 49.9414
22.8393 53.1535
23.0214 57.8952
23.2037 49.738
23.3859 50.9051
23.5682 57.3638
23.7505 48.9948
23.9329 45.9634
24.1154 44.8842
24.2979 44.2108
24.4805 43.5314
24.6631 43.4233
24.8458 42.9018
25.0286 43.6634
25.2114 45.4836
25.3943 45.3516
25.5773 41.4879
25.7605 41.1299
25.9436 41.5474
26.1268 42.2403
26.31 40.8295
26.4933 41.4539
26.6767 42.839
26.8601 41.034
27.0437 39.3695
27.2272 39.1756
27.4109 39.1417
27.5946 39.1108
27.7784 38.4656
27.9623 38.9956
28.1462 39.2371
28.3304 37.6617
28.5145 36.5627
28.6987 36.1708
28.8829 35.8701
29.0673 35.1093
29.2517 34.8033
29.4361 34.6417
29.6207 33.5829
29.8053 33.4468
29.99 33.1333
30.1748 32.9657
30.3597 32.7864
30.5447 32.7016
30.7297 32.7694
30.915 32.0959
31.1002 31.644
31.2855 31.3394
31.4708 31.304
31.6563 30.8326
31.8418 30.6236
32.0275 30.3653
32.2132 29.7859
32.399 29.3004
32.5848 28.9727
32.7708 28.6362
32.9569 28.4424
33.143 28.2293
33.3293 27.7927
33.5158 27.4298
33.7022 26.9842
33.8887 26.7916
34.0753 26.3563
34.262 26.0238
34.4488 25.7041
34.6357 25.3679
34.8227 25.1015
35.0098 24.8446
35.1969 24.606
35.3842 24.3112
35.5716 24.1019
35.759 23.8833
35.9468 23.4921
36.1345 23.3426
36.3222 23.0054
36.5101 22.7797
36.6981 22.4132
36.8861 22.1781
37.0743 21.8523
37.2626 21.608
37.451 21.3702
37.6395 21.1592
37.8281 20.8215
38.0168 20.4985
38.2056 20.2854
38.3945 20.002
38.5837 19.7531
38.7728 19.5383
38.9621 19.255
39.1514 18.95
39.3409 18.7481
39.5304 18.5348
39.7201 18.3193
39.9099 18.1448
40.0999 17.8448
40.2899 17.6312
40.48 17.4222
40.6703 17.2518
40.8607 17.0401
41.0512 16.7708
41.242 16.4984
41.4327 16.2685
41.6236 16.0443
41.8146 15.8867
42.0057 15.6783
42.1969 15.4562
42.3882 15.2682
42.5797 15.0707
42.7713 14.8051
42.963 14.6646
43.1549 14.4203
43.3468 14.2232
43.5389 14.0591
43.7312 13.8168
43.9237 13.6563
44.1162 13.4769
44.3088 13.2994
44.5016 13.0572
44.6945 12.933
44.8875 12.7309
45.0806 12.5486
45.2739 12.3481
45.4673 12.1828
45.6609 12.0217
45.8546 11.8329
46.0484 11.7242
46.2424 11.513
46.4365 11.4035
46.631 11.1931
46.8254 11.0234
47.0199 10.8511
47.2146 10.6869
47.4095 10.5444
47.6044 10.3823
47.7996 10.2133
47.9948 10.0425
48.1902 9.92185
48.3858 9.82121
48.5815 9.66318
48.7774 9.52322
48.9734 9.37539
49.1696 9.24551
49.3661 9.07927
49.5626 8.93721
49.7592 8.80519
49.956 8.71187
50.153 8.55311
50.3501 8.42145
50.5474 8.28631
50.7448 8.16191
50.9424 8.04877
51.1402 7.89154
51.3381 7.78114
51.5362 7.67267
51.7344 7.56164
51.9328 7.42229
52.1316 7.284
52.3304 7.17053
52.5293 7.05598
52.7284 6.92202
52.9276 6.78289
53.1271 6.6941
53.3267 6.56781
53.5265 6.45477
53.7264 6.33639
53.9266 6.29024
54.1269 6.123
54.3274 6.03897
54.528 5.87295
54.7289 5.70346
54.9301 5.54703
55.1314 5.44508
55.3328 5.27255
55.5344 5.01814
55.7361 4.83698