File: XRD/Ni3Fe_FD0452.xy
TT I
1.27165 7.52227
1.45013 6.46433
1.62863 5.5412
1.80712 5.06513
1.98562 4.51137
2.16411 4.12584
2.34263 4.80401
2.52115 6.25958
2.69965 7.79435
2.87818 8.47422
3.05672 10.5537
3.23527 14.7615
3.4138 19.5582
3.59237 23.6063
3.77094 26.2223
3.9495 30.3231
4.12809 35.0511
4.30669 144.689
4.4853 58.6816
4.6639 56.2293
4.84253 68.6388
5.02118 89.8236
5.19981 504.752
5.37848 202.139
5.55716 104.523
5.73586 94.7881
5.91455 98.8156
6.09328 4244.96
6.27201 84.3677
6.45075 68.6923
6.62952 62.9839
6.8083 58.962
6.98711 56.3544
7.16591 55.9469
7.34475 77.6858
7.5236 55.3914
7.70247 57.0438
7.88135 58.5226
8.06026 63.0861
8.23919 70.8073
8.41812 86.8742
8.59709 1231.91
8.77609 102.084
8.9551 90.3673
9.13412 83.1837
9.31318 84.5275
9.49226 86.0895
9.67134 97.1379
9.85047 101.953
10.0296 406.806
10.2088 410.066
10.388 107.717
10.5672 493.223
10.7465 87.9239
10.9257 78.9977
11.105 72.4153
11.2844 70.3941
11.4637 65.8163
11.6431 64.2048
11.8225 63.3663
12.002 65.2346
12.1814 155.455
12.3609 69.4052
12.5405 65.6003
12.72 69.5205
12.8996 72.3645
13.0792 81.7556
13.2589 249.494
13.4386 125.695
13.6183 251.542
13.7981 97.9376
13.9779 77.0607
14.1577 73.4544
14.3376 72.0631
14.5175 70.0712
14.6974 71.7262
14.8774 117.499
15.0574 149.255
15.2374 71.4303
15.4175 67.4241
15.5976 67.0334
15.7778 100.783
15.958 156.768
16.1382 63.0023
16.3185 59.2495
16.4988 56.2448
16.6792 55.3364
16.8596 56.0137
17.04 57.0102
17.2205 68.4917
17.401 71.6819
17.5815 60.3185
17.7622 62.5939
17.9428 76.8735
18.1237 139.783
18.3044 91.6781
18.4852 78.2633
18.666 61.3145
18.8469 59.0239
19.0278 57.8104
19.2088 60.8994
19.3898 76.8101
19.5709 55.0091
19.752 54.2875
19.9332 57.6888
20.1144 70.8387
20.2957 64.2824
20.477 54.4352
20.6586 50.4883
20.84 49.5703
21.0215 49.3806
21.203 51.5926
21.3846 49.9491
21.5662 49.7625
21.7479 53.9607
21.9297 65.3747
22.1115 56.6111
22.2933 50.6563
22.4753 49.4959
22.6572 49.8287
22.8393 53.1706
23.0214 58.1657
23.2037 49.598
23.3859 50.9284
23.5682 57.4044
23.7505 48.9386
23.9329 45.8939
24.1154 44.9251
24.2979 44.1053
24.4805 43.6288
24.6631 43.5856
24.8458 42.8761
25.0286 43.8334
25.2114 45.3925
25.3943 45.2111
25.5773 41.4778
25.7605 41.1123
25.9436 41.5732
26.1268 42.452
26.31 40.7634
26.4933 41.3992
26.6767 42.8839
26.8601 41.1267
27.0437 39.5081
27.2272 39.1187
27.4109 39.1363
27.5946 39.1014
27.7784 38.5252
27.9623 39.1085
28.1462 39.5609
28.3304 37.6318
28.5145 36.5291
28.6987 36.0868
28.8829 35.8583
29.0673 35.3127
29.2517 34.8678
29.4361 34.771
29.6207 33.701
29.8053 33.4681
29.99 33.1298
30.1748 32.8818
30.3597 32.872
30.5447 32.5935
30.7297 32.732
30.915 32.0552
31.1002 31.6609
31.2855 31.2512
31.4708 31.3256
31.6563 30.9115
31.8418 30.6943
32.0275 30.3832
32.2132 29.9167
32.399 29.4361
32.5848 28.899
32.7708 28.7254
32.9569 28.5231
33.143 28.2324
33.3293 27.8231
33.5158 27.5144
33.7022 27.0237
33.8887 26.7438
34.0753 26.4195
34.262 26.0218
34.4488 25.6615
34.6357 25.2808
34.8227 25.0394
35.0098 24.9198
35.1969 24.5574
35.3842 24.2887
35.5716 24.0985
35.759 23.8239
35.9468 23.4111
36.1345 23.2251
36.3222 23.0201
36.5101 22.7358
36.6981 22.533
36.8861 22.1679
37.0743 21.8499
37.2626 21.5464
37.451 21.3356
37.6395 21.1859
37.8281 20.7688
38.0168 20.4604
38.2056 20.265
38.3945 19.9476
38.5837 19.7466
38.7728 19.529
38.9621 19.2786
39.1514 18.969
39.3409 18.7229
39.5304 18.5587
39.7201 18.3637
39.9099 18.0668
40.0999 17.8387
40.2899 17.6446
40.48 17.403
40.6703 17.2223
40.8607 16.9897
41.0512 16.7859
41.242 16.5781
41.4327 16.2848
41.6236 16.1418
41.8146 15.9228
42.0057 15.6515
42.1969 15.4299
42.3882 15.2964
42.5797 15.0774
42.7713 14.8191
42.963 14.694
43.1549 14.4116
43.3468 14.2686
43.5389 14.0298
43.7312 13.8495
43.9237 13.6912
44.1162 13.4397
44.3088 13.268
44.5016 13.0569
44.6945 12.9029
44.8875 12.7385
45.0806 12.5479
45.2739 12.3389
45.4673 12.2151
45.6609 12.0594
45.8546 11.8706
46.0484 11.714
46.2424 11.4944
46.4365 11.3457
46.631 11.182
46.8254 11.0136
47.0199 10.8596
47.2146 10.7314
47.4095 10.5059
47.6044 10.4
47.7996 10.2149
47.9948 10.0994
48.1902 9.93046
48.3858 9.82855
48.5815 9.65932
48.7774 9.543
48.9734 9.35237
49.1696 9.27141
49.3661 9.07889
49.5626 8.92901
49.7592 8.84445
49.956 8.69833
50.153 8.5246
50.3501 8.41207
50.5474 8.28594
50.7448 8.1666
50.9424 8.0654
51.1402 7.95222
51.3381 7.79681
51.5362 7.64583
51.7344 7.50335
51.9328 7.39436
52.1316 7.27816
52.3304 7.17358
52.5293 7.02877
52.7284 6.9457
52.9276 6.78296
53.1271 6.74507
53.3267 6.63121
53.5265 6.47878
53.7264 6.3668
53.9266 6.23992
54.1269 6.10831
54.3274 6.03456
54.528 5.84534
54.7289 5.74466
54.9301 5.59167
55.1314 5.42205
55.3328 5.24141
55.5344 5.01364
55.7361 4.91829