File: XRD/Ni3Fe_FD0915.xy
TT I
1.27165 7.65277
1.45013 5.53984
1.62863 5.13827
1.80712 4.46969
1.98562 4.49302
2.16411 4.26045
2.34263 5.44262
2.52115 6.90226
2.69965 9.08911
2.87818 8.80483
3.05672 11.2284
3.23527 15.1928
3.4138 18.9478
3.59237 23.2123
3.77094 26.1679
3.9495 29.5702
4.12809 33.9484
4.30669 117.528
4.4853 55.2754
4.6639 54.8039
4.84253 67.6853
5.02118 86.2658
5.19981 358.852
5.37848 183.48
5.55716 100.833
5.73586 91.585
5.91455 93.4342
6.09328 4734.72
6.27201 79.376
6.45075 68.5047
6.62952 62.2591
6.8083 58.6382
6.98711 55.114
7.16591 55.1957
7.34475 69.6773
7.5236 53.66
7.70247 56.0347
7.88135 57.2399
8.06026 61.7493
8.23919 68.5783
8.41812 83.1675
8.59709 1214.48
8.77609 96.1482
8.9551 89.0788
9.13412 81.8588
9.31318 83.2033
9.49226 83.6505
9.67134 94.7603
9.85047 99.7503
10.0296 332.942
10.2088 317.115
10.388 103.094
10.5672 553.252
10.7465 84.8415
10.9257 76.8998
11.105 70.1808
11.2844 67.8801
11.4637 63.8993
11.6431 62.7272
11.8225 61.7817
12.002 63.163
12.1814 158.105
12.3609 66.0455
12.5405 63.9167
12.72 67.1031
12.8996 70.3201
13.0792 78.953
13.2589 245.849
13.4386 113.644
13.6183 258.922
13.7981 91.1314
13.9779 74.5922
14.1577 70.9786
14.3376 69.5931
14.5175 67.8338
14.6974 69.6861
14.8774 110.185
15.0574 135.912
15.2374 68.5624
15.4175 65.218
15.5976 65.0163
15.7778 93.8995
15.958 143.643
16.1382 60.7104
16.3185 57.1737
16.4988 54.4622
16.6792 53.7513
16.8596 53.9752
17.04 55.0825
17.2205 66.2123
17.401 67.3594
17.5815 58.1609
17.7622 60.3573
17.9428 72.3596
18.1237 139.664
18.3044 90.8435
18.4852 72.6678
18.666 59.3336
18.8469 57.1071
19.0278 55.7569
19.2088 58.3155
19.3898 74.9965
19.5709 53.1016
19.752 52.3796
19.9332 55.2202
20.1144 69.1201
20.2957 64.2251
20.477 51.9909
20.6586 48.8332
20.84 47.8929
21.0215 47.6985
21.203 50.3027
21.3846 47.9765
21.5662 48.1222
21.7479 51.8834
21.9297 64.0986
22.1115 55.3885
22.2933 48.7547
22.4753 48.0017
22.6572 48.15
22.8393 51.3236
23.0214 56.0466
23.2037 47.9433
23.3859 48.9577
23.5682 56.7575
23.7505 46.8857
23.9329 44.323
24.1154 43.2765
24.2979 42.7446
24.4805 42.3221
24.6631 42.1293
24.8458 41.5211
25.0286 42.108
25.2114 43.9861
25.3943 43.7391
25.5773 40.079
25.7605 39.8368
25.9436 40.0872
26.1268 40.9396
26.31 39.3274
26.4933 40.0473
26.6767 41.5704
26.8601 39.6874
27.0437 38.1945
27.2272 37.9946
27.4109 37.8075
27.5946 37.8156
27.7784 37.3694
27.9623 37.9456
28.1462 38.1059
28.3304 36.4265
28.5145 35.2836
28.6987 35.1231
28.8829 34.7776
29.0673 33.9922
29.2517 33.7752
29.4361 33.6005
29.6207 32.6188
29.8053 32.3258
29.99 32.0514
30.1748 31.9199
30.3597 31.6263
30.5447 31.5836
30.7297 31.6481
30.915 31.0721
31.1002 30.6085
31.2855 30.3406
31.4708 30.3229
31.6563 29.8248
31.8418 29.6935
32.0275 29.4962
32.2132 28.8321
32.399 28.4263
32.5848 27.9877
32.7708 27.7341
32.9569 27.5755
33.143 27.3915
33.3293 26.9451
33.5158 26.5814
33.7022 26.1126
33.8887 25.8582
34.0753 25.497
34.262 25.2116
34.4488 24.8394
34.6357 24.4928
34.8227 24.2472
35.0098 24.0443
35.1969 23.8329
35.3842 23.6082
35.5716 23.3168
35.759 22.9758
35.9468 22.7914
36.1345 22.5052
36.3222 22.3258
36.5101 22.0876
36.6981 21.7546
36.8861 21.4288
37.0743 21.1103
37.2626 20.8961
37.451 20.6197
37.6395 20.4572
37.8281 20.1132
38.0168 19.8549
38.2056 19.6531
38.3945 19.3659
38.5837 19.1136
38.7728 18.8715
38.9621 18.6005
39.1514 18.3472
39.3409 18.18
39.5304 17.9078
39.7201 17.7137
39.9099 17.5204
40.0999 17.2792
40.2899 17.0487
40.48 16.7951
40.6703 16.5826
40.8607 16.4696
41.0512 16.1871
41.242 15.9417
41.4327 15.809
41.6236 15.5822
41.8146 15.341
42.0057 15.1865
42.1969 14.9606
42.3882 14.8072
42.5797 14.5578
42.7713 14.3533
42.963 14.1578
43.1549 13.9993
43.3468 13.7638
43.5389 13.6224
43.7312 13.3847
43.9237 13.2466
44.1162 13.0305
44.3088 12.8824
44.5016 12.6578
44.6945 12.4764
44.8875 12.3403
45.0806 12.1161
45.2739 11.9862
45.4673 11.8611
45.6609 11.6924
45.8546 11.5066
46.0484 11.3001
46.2424 11.1287
46.4365 11.0598
46.631 10.8285
46.8254 10.6489
47.0199 10.5518
47.2146 10.3872
47.4095 10.2247
47.6044 10.0493
47.7996 9.86286
47.9948 9.75154
48.1902 9.63576
48.3858 9.50608
48.5815 9.39391
48.7774 9.22548
48.9734 9.09841
49.1696 8.94596
49.3661 8.79092
49.5626 8.69882
49.7592 8.53622
49.956 8.39322
50.153 8.26095
50.3501 8.16136
50.5474 8.04454
50.7448 7.91369
50.9424 7.79226
51.1402 7.68426
51.3381 7.54253
51.5362 7.43143
51.7344 7.28828
51.9328 7.10234
52.1316 7.01667
52.3304 6.98409
52.5293 6.84466
52.7284 6.75033
52.9276 6.61156
53.1271 6.51449
53.3267 6.40709
53.5265 6.3123
53.7264 6.18351
53.9266 6.10009
54.1269 5.96914
54.3274 5.89966
54.528 5.71846
54.7289 5.57689
54.9301 5.3747
55.1314 5.24722
55.3328 5.09927
55.5344 4.8775
55.7361 4.74524