File: XRD/Ni3Fe_FD0801.xy
TT I
1.27165 6.98895
1.45013 6.1005
1.62863 5.45296
1.80712 5.09951
1.98562 5.00493
2.16411 4.77737
2.34263 6.07222
2.52115 6.84728
2.69965 8.3242
2.87818 9.15434
3.05672 10.7531
3.23527 14.9253
3.4138 18.8629
3.59237 22.9128
3.77094 25.8696
3.9495 29.1972
4.12809 34.2469
4.30669 125.869
4.4853 56.3788
4.6639 54.9579
4.84253 67.8841
5.02118 86.5883
5.19981 382.265
5.37848 183.604
5.55716 101.277
5.73586 91.9459
5.91455 93.9956
6.09328 4545.75
6.27201 79.405
6.45075 68.0038
6.62952 61.9051
6.8083 58.3964
6.98711 54.863
7.16591 55.2593
7.34475 72.0259
7.5236 53.8061
7.70247 55.7607
7.88135 57.1965
8.06026 61.7241
8.23919 68.7748
8.41812 83.8225
8.59709 1215.21
8.77609 96.5679
8.9551 88.4451
9.13412 81.4589
9.31318 83.3597
9.49226 83.7829
9.67134 94.7882
9.85047 99.8252
10.0296 343.785
10.2088 342.125
10.388 103.617
10.5672 535.173
10.7465 85.0881
10.9257 77.0709
11.105 70.5637
11.2844 67.9873
11.4637 64.0262
11.6431 63.062
11.8225 61.8785
12.002 63.5678
12.1814 157.537
12.3609 66.6905
12.5405 63.9158
12.72 67.7015
12.8996 70.6592
13.0792 79.1031
13.2589 247.802
13.4386 117.128
13.6183 256.598
13.7981 92.3414
13.9779 74.9892
14.1577 71.0933
14.3376 69.6278
14.5175 68.0676
14.6974 69.7837
14.8774 111.383
15.0574 141.456
15.2374 69.1417
15.4175 65.5088
15.5976 65.3115
15.7778 94.689
15.958 145.814
16.1382 60.8587
16.3185 57.33
16.4988 54.8244
16.6792 53.8071
16.8596 54.2135
17.04 55.431
17.2205 66.8661
17.401 68.6527
17.5815 58.5552
17.7622 60.6457
17.9428 73.1337
18.1237 141.474
18.3044 90.9313
18.4852 73.9483
18.666 59.4715
18.8469 57.2337
19.0278 56.3666
19.2088 58.7122
19.3898 75.829
19.5709 53.4547
19.752 52.6417
19.9332 55.4585
20.1144 69.6561
20.2957 63.7747
20.477 52.5606
20.6586 49.0692
20.84 48.2829
21.0215 48.0257
21.203 50.4473
21.3846 48.2147
21.5662 48.2559
21.7479 52.3819
21.9297 64.2462
22.1115 55.8189
22.2933 49.2693
22.4753 48.1488
22.6572 48.4123
22.8393 51.4524
23.0214 56.5485
23.2037 48.1513
23.3859 49.3129
23.5682 56.8621
23.7505 47.3791
23.9329 44.72
24.1154 43.7059
24.2979 42.9048
24.4805 42.4261
24.6631 42.2195
24.8458 41.826
25.0286 42.5163
25.2114 44.2308
25.3943 44.1842
25.5773 40.4519
25.7605 39.9805
25.9436 40.4159
26.1268 41.2713
26.31 39.647
26.4933 40.3981
26.6767 41.7687
26.8601 39.9319
27.0437 38.5019
27.2272 38.1628
27.4109 38.0576
27.5946 37.9778
27.7784 37.4693
27.9623 38.0577
28.1462 38.5142
28.3304 36.6691
28.5145 35.5935
28.6987 35.1929
28.8829 35.0994
29.0673 34.1898
29.2517 34.0181
29.4361 33.8656
29.6207 32.7068
29.8053 32.5476
29.99 32.2104
30.1748 32.1273
30.3597 31.92
30.5447 31.7388
30.7297 31.7744
30.915 31.1625
31.1002 30.7662
31.2855 30.6064
31.4708 30.5996
31.6563 29.94
31.8418 29.8051
32.0275 29.4802
32.2132 29.0326
32.399 28.6148
32.5848 28.1289
32.7708 27.817
32.9569 27.6704
33.143 27.5017
33.3293 27.0984
33.5158 26.6403
33.7022 26.3006
33.8887 25.9828
34.0753 25.6426
34.262 25.4695
34.4488 24.998
34.6357 24.6883
34.8227 24.447
35.0098 24.2627
35.1969 24.0102
35.3842 23.6973
35.5716 23.6201
35.759 23.1885
35.9468 22.8102
36.1345 22.6989
36.3222 22.4063
36.5101 22.1909
36.6981 21.8623
36.8861 21.5366
37.0743 21.3196
37.2626 21.0344
37.451 20.7148
37.6395 20.5393
37.8281 20.2627
38.0168 20.0276
38.2056 19.7622
38.3945 19.455
38.5837 19.1691
38.7728 18.9874
38.9621 18.6941
39.1514 18.4689
39.3409 18.1977
39.5304 18.0603
39.7201 17.8478
39.9099 17.6069
40.0999 17.3302
40.2899 17.1799
40.48 16.9309
40.6703 16.6806
40.8607 16.5677
41.0512 16.3507
41.242 16.0944
41.4327 15.8423
41.6236 15.6429
41.8146 15.4651
42.0057 15.2102
42.1969 15.0888
42.3882 14.9067
42.5797 14.6638
42.7713 14.5195
42.963 14.292
43.1549 14.0202
43.3468 13.8337
43.5389 13.6751
43.7312 13.4508
43.9237 13.3472
44.1162 13.0996
44.3088 12.9725
44.5016 12.7689
44.6945 12.564
44.8875 12.4083
45.0806 12.2439
45.2739 12.0461
45.4673 11.9407
45.6609 11.7454
45.8546 11.5717
46.0484 11.3785
46.2424 11.2214
46.4365 11.104
46.631 10.891
46.8254 10.7403
47.0199 10.5721
47.2146 10.4636
47.4095 10.2913
47.6044 10.149
47.7996 9.92803
47.9948 9.78804
48.1902 9.66199
48.3858 9.55248
48.5815 9.43837
48.7774 9.276
48.9734 9.15297
49.1696 9.00326
49.3661 8.85291
49.5626 8.71217
49.7592 8.61106
49.956 8.43547
50.153 8.3562
50.3501 8.18227
50.5474 8.06431
50.7448 7.98796
50.9424 7.82124
51.1402 7.73484
51.3381 7.5705
51.5362 7.48164
51.7344 7.33805
51.9328 7.22223
52.1316 7.09481
52.3304 7.00874
52.5293 6.8997
52.7284 6.74264
52.9276 6.66485
53.1271 6.54589
53.3267 6.45552
53.5265 6.31159
53.7264 6.19382
53.9266 6.11561
54.1269 6.02306
54.3274 5.85477
54.528 5.74127
54.7289 5.56104
54.9301 5.36701
55.1314 5.26911
55.3328 5.10804
55.5344 4.95522
55.7361 4.7681