File: XRD/Ni3Fe_FD0118.xy
TT I
1.27165 7.82461
1.45013 6.57813
1.62863 5.80232
1.80712 5.45771
1.98562 5.29753
2.16411 4.42319
2.34263 3.97141
2.52115 3.6159
2.69965 5.72872
2.87818 7.96599
3.05672 10.8839
3.23527 15.4801
3.4138 18.1892
3.59237 21.3642
3.77094 24.7499
3.9495 28.282
4.12809 32.6046
4.30669 37.1457
4.4853 44.4253
4.6639 53.0169
4.84253 65.8542
5.02118 90.8545
5.19981 596.393
5.37848 550.417
5.55716 108.753
5.73586 95.3478
5.91455 107.085
6.09328 2447.3
6.27201 91.2789
6.45075 66.2422
6.62952 59.4618
6.8083 55.2022
6.98711 53.0833
7.16591 51.7469
7.34475 51.2103
7.5236 56.5632
7.70247 53.4092
7.88135 55.4337
8.06026 59.8829
8.23919 67.147
8.41812 83.4221
8.59709 820.645
8.77609 121.563
8.9551 84.552
9.13412 80.4883
9.31318 88.7855
9.49226 82.3094
9.67134 87.7178
9.85047 97.846
10.0296 563.212
10.2088 1092.84
10.388 104.447
10.5672 296.708
10.7465 91.9687
10.9257 75.27
11.105 69.5633
11.2844 65.3642
11.4637 62.6397
11.6431 61.1533
11.8225 60.527
12.002 66.4773
12.1814 110.47
12.3609 77.5224
12.5405 62.3381
12.72 64.4517
12.8996 68.8177
13.0792 78.7868
13.2589 194.184
13.4386 231.217
13.6183 180.488
13.7981 171.081
13.9779 75.5298
14.1577 74.4648
14.3376 68.1238
14.5175 67.6171
14.6974 68.9499
14.8774 120.369
15.0574 205.725
15.2374 68.5801
15.4175 65.2764
15.5976 64.9189
15.7778 107.232
15.958 181.728
16.1382 61.6055
16.3185 56.6437
16.4988 54.4225
16.6792 53.529
16.8596 53.5895
17.04 54.7094
17.2205 63.8898
17.401 81.1264
17.5815 58.5374
17.7622 60.6728
17.9428 84.012
18.1237 107.65
18.3044 87.5898
18.4852 96.978
18.666 60.4433
18.8469 57.6132
19.0278 56.1288
19.2088 61.2566
19.3898 66.9247
19.5709 56.4817
19.752 52.8013
19.9332 57.9326
20.1144 65.1484
20.2957 60.1469
20.477 59.7266
20.6586 49.2285
20.84 48.4916
21.0215 48.5395
21.203 49.01
21.3846 50.2735
21.5662 48.4963
21.7479 53.5586
21.9297 60.453
22.1115 55.8082
22.2933 52.438
22.4753 48.3165
22.6572 48.5676
22.8393 51.425
23.0214 55.9839
23.2037 49.7262
23.3859 51.449
23.5682 52.1415
23.7505 53.8384
23.9329 45.236
24.1154 43.853
24.2979 43.2193
24.4805 42.4405
24.6631 42.7757
24.8458 42.0329
25.0286 42.4958
25.2114 44.069
25.3943 44.1963
25.5773 41.4306
25.7605 40.3499
25.9436 40.6867
26.1268 41.1668
26.31 40.6228
26.4933 40.487
26.6767 41.3012
26.8601 41.0025
27.0437 39.252
27.2272 38.5326
27.4109 38.2059
27.5946 38.3347
27.7784 38.1952
27.9623 38.0107
28.1462 38.8017
28.3304 37.7418
28.5145 36.0042
28.6987 35.523
28.8829 35.0438
29.0673 34.8704
29.2517 34.0753
29.4361 33.77
29.6207 33.3022
29.8053 32.7686
29.99 32.4561
30.1748 32.1489
30.3597 32.3185
30.5447 32.0033
30.7297 31.9112
30.915 31.7834
31.1002 31.1369
31.2855 30.7731
31.4708 30.6781
31.6563 30.6656
31.8418 29.9577
32.0275 29.762
32.2132 29.4186
32.399 28.8502
32.5848 28.348
32.7708 28.0504
32.9569 27.9644
33.143 27.6112
33.3293 27.3933
33.5158 27.0855
33.7022 26.4636
33.8887 26.225
34.0753 25.9378
34.262 25.5695
34.4488 25.2198
34.6357 24.8585
34.8227 24.606
35.0098 24.3775
35.1969 24.1244
35.3842 23.8523
35.5716 23.7321
35.759 23.4641
35.9468 23.0573
36.1345 22.8629
36.3222 22.6581
36.5101 22.3761
36.6981 22.0619
36.8861 21.7282
37.0743 21.4649
37.2626 21.1751
37.451 20.9216
37.6395 20.6938
37.8281 20.4327
38.0168 20.1236
38.2056 19.9102
38.3945 19.6094
38.5837 19.3497
38.7728 19.1128
38.9621 18.9104
39.1514 18.5775
39.3409 18.4215
39.5304 18.1408
39.7201 18.0412
39.9099 17.7414
40.0999 17.5051
40.2899 17.2548
40.48 17.0053
40.6703 16.8835
40.8607 16.6332
41.0512 16.4661
41.242 16.1859
41.4327 15.9996
41.6236 15.8026
41.8146 15.5819
42.0057 15.3151
42.1969 15.1216
42.3882 14.9777
42.5797 14.7439
42.7713 14.5835
42.963 14.3268
43.1549 14.1594
43.3468 13.946
43.5389 13.7927
43.7312 13.6142
43.9237 13.4511
44.1162 13.2314
44.3088 13.0535
44.5016 12.8517
44.6945 12.7066
44.8875 12.5
45.0806 12.3016
45.2739 12.1452
45.4673 11.9969
45.6609 11.8243
45.8546 11.6546
46.0484 11.4863
46.2424 11.3295
46.4365 11.1924
46.631 10.9834
46.8254 10.7945
47.0199 10.661
47.2146 10.5094
47.4095 10.3528
47.6044 10.2026
47.7996 10.0524
47.9948 9.86787
48.1902 9.74805
48.3858 9.63266
48.5815 9.50028
48.7774 9.35398
48.9734 9.21982
49.1696 9.07659
49.3661 8.9031
49.5626 8.77597
49.7592 8.63342
49.956 8.53983
50.153 8.4359
50.3501 8.30571
50.5474 8.15266
50.7448 8.01432
50.9424 7.94532
51.1402 7.78837
51.3381 7.65393
51.5362 7.57779
51.7344 7.38422
51.9328 7.29581
52.1316 7.13692
52.3304 7.06899
52.5293 6.93469
52.7284 6.85658
52.9276 6.69505
53.1271 6.64611
53.3267 6.45002
53.5265 6.35984
53.7264 6.26155
53.9266 6.17822
54.1269 6.03102
54.3274 5.87497
54.528 5.71832
54.7289 5.5707
54.9301 5.39626
55.1314 5.26421
55.3328 5.04215
55.5344 4.82338
55.7361 4.71526