File: XRD/Ni3Fe_FD0144.xy
TT I
1.27165 8.17492
1.45013 6.79009
1.62863 5.74371
1.80712 5.38359
1.98562 4.78743
2.16411 4.5716
2.34263 4.46428
2.52115 4.01696
2.69965 5.43925
2.87818 7.37871
3.05672 11.156
3.23527 14.9745
3.4138 18.3473
3.59237 21.3472
3.77094 24.8624
3.9495 28.6012
4.12809 32.6968
4.30669 37.681
4.4853 44.4557
4.6639 53.6039
4.84253 65.5398
5.02118 90.5912
5.19981 556.387
5.37848 461.636
5.55716 107.328
5.73586 95.1489
5.91455 105.493
6.09328 2665.86
6.27201 89.3896
6.45075 66.1747
6.62952 59.5859
6.8083 55.596
6.98711 53.2625
7.16591 52.2191
7.34475 51.9386
7.5236 55.9407
7.70247 54.0155
7.88135 56.0174
8.06026 60.2633
8.23919 67.7533
8.41812 83.2251
8.59709 873.778
8.77609 116.214
8.9551 84.7866
9.13412 81.0562
9.31318 86.8619
9.49226 83.4205
9.67134 88.8127
9.85047 98.4236
10.0296 547.331
10.2088 994.919
10.388 104.035
10.5672 325.791
10.7465 90.265
10.9257 75.3516
11.105 70.0165
11.2844 65.9069
11.4637 63.1733
11.6431 62.0352
11.8225 60.7421
12.002 65.4968
12.1814 116.673
12.3609 74.9198
12.5405 62.984
12.72 65.0653
12.8996 69.2975
13.0792 79.0235
13.2589 202.165
13.4386 214.351
13.6183 190.032
13.7981 153.853
13.9779 75.6923
14.1577 74.2058
14.3376 68.6529
14.5175 68.1002
14.6974 69.3886
14.8774 120.807
15.0574 204.705
15.2374 68.8348
15.4175 65.8041
15.5976 65.4888
15.7778 107.189
15.958 184.17
16.1382 61.5032
16.3185 56.8683
16.4988 54.8874
16.6792 53.7664
16.8596 53.9045
17.04 55.1634
17.2205 64.9102
17.401 80.2338
17.5815 58.7043
17.7622 61.0923
17.9428 83.6428
18.1237 113.43
18.3044 87.696
18.4852 95.0055
18.666 60.6592
18.8469 57.9941
19.0278 56.4712
19.2088 61.5637
19.3898 68.6585
19.5709 56.1562
19.752 53.2145
19.9332 57.9064
20.1144 66.4367
20.2957 60.7034
20.477 58.9542
20.6586 49.6235
20.84 48.8843
21.0215 48.8306
21.203 49.5246
21.3846 50.3733
21.5662 48.8505
21.7479 53.9947
21.9297 61.6342
22.1115 56.052
22.2933 52.329
22.4753 48.7906
22.6572 48.8698
22.8393 51.8739
23.0214 56.9537
23.2037 49.7524
23.3859 51.7016
23.5682 53.1602
23.7505 53.2153
23.9329 45.571
24.1154 44.1377
24.2979 43.4101
24.4805 42.8604
24.6631 43.0538
24.8458 42.4307
25.0286 42.9433
25.2114 44.5338
25.3943 44.5915
25.5773 41.6029
25.7605 40.4557
25.9436 40.9415
26.1268 41.5412
26.31 40.8082
26.4933 40.8497
26.6767 41.9027
26.8601 41.2284
27.0437 39.5118
27.2272 38.9755
27.4109 38.5701
27.5946 38.5881
27.7784 38.3221
27.9623 38.4218
28.1462 39.2525
28.3304 37.8913
28.5145 36.28
28.6987 35.8815
28.8829 35.4424
29.0673 35.145
29.2517 34.4878
29.4361 34.2017
29.6207 33.4875
29.8053 33.0658
29.99 32.6942
30.1748 32.5076
30.3597 32.4775
30.5447 32.323
30.7297 32.2379
30.915 32.0312
31.1002 31.2855
31.2855 31.0684
31.4708 30.8658
31.6563 30.7429
31.8418 30.3547
32.0275 30.1485
32.2132 29.7274
32.399 29.0876
32.5848 28.6133
32.7708 28.2945
32.9569 28.1157
33.143 27.8281
33.3293 27.5897
33.5158 27.2246
33.7022 26.7081
33.8887 26.4503
34.0753 26.1664
34.262 25.795
34.4488 25.4006
34.6357 25.0329
34.8227 24.8027
35.0098 24.5912
35.1969 24.2389
35.3842 24.0803
35.5716 23.888
35.759 23.6065
35.9468 23.2187
36.1345 23.0788
36.3222 22.7977
36.5101 22.5912
36.6981 22.3113
36.8861 21.9716
37.0743 21.5637
37.2626 21.3598
37.451 21.1269
37.6395 20.8978
37.8281 20.5645
38.0168 20.3233
38.2056 19.9535
38.3945 19.7636
38.5837 19.5122
38.7728 19.2725
38.9621 19.0946
39.1514 18.8021
39.3409 18.5676
39.5304 18.305
39.7201 18.1466
39.9099 17.9617
40.0999 17.6275
40.2899 17.4892
40.48 17.2058
40.6703 16.988
40.8607 16.8464
41.0512 16.6002
41.242 16.3232
41.4327 16.1377
41.6236 15.9213
41.8146 15.7588
42.0057 15.5063
42.1969 15.2827
42.3882 15.1248
42.5797 14.8799
42.7713 14.6528
42.963 14.4852
43.1549 14.2706
43.3468 14.0738
43.5389 13.872
43.7312 13.6745
43.9237 13.5035
44.1162 13.3143
44.3088 13.1047
44.5016 12.9574
44.6945 12.761
44.8875 12.6012
45.0806 12.4471
45.2739 12.222
45.4673 12.0987
45.6609 11.8613
45.8546 11.7612
46.0484 11.582
46.2424 11.3798
46.4365 11.2375
46.631 11.0443
46.8254 10.9163
47.0199 10.6817
47.2146 10.6089
47.4095 10.4394
47.6044 10.2688
47.7996 10.1077
47.9948 9.98882
48.1902 9.81518
48.3858 9.68958
48.5815 9.58824
48.7774 9.45886
48.9734 9.28996
49.1696 9.1601
49.3661 8.97429
49.5626 8.82946
49.7592 8.70975
49.956 8.61627
50.153 8.45586
50.3501 8.36217
50.5474 8.22043
50.7448 8.07152
50.9424 7.98226
51.1402 7.85736
51.3381 7.69101
51.5362 7.6088
51.7344 7.47204
51.9328 7.35748
52.1316 7.18204
52.3304 7.06049
52.5293 6.97969
52.7284 6.83479
52.9276 6.76086
53.1271 6.70112
53.3267 6.5302
53.5265 6.41133
53.7264 6.28171
53.9266 6.1769
54.1269 6.08375
54.3274 5.95026
54.528 5.82005
54.7289 5.60428
54.9301 5.42926
55.1314 5.29763
55.3328 5.12123
55.5344 4.90433
55.7361 4.75542