File: XRD/Ni3Fe_FD1001.xy
TT I
1.27165 7.47309
1.45013 5.8068
1.62863 5.72869
1.80712 4.80792
1.98562 4.68703
2.16411 4.97263
2.34263 6.12281
2.52115 7.33523
2.69965 8.81401
2.87818 9.15744
3.05672 11.7402
3.23527 15.3255
3.4138 18.6736
3.59237 24.0338
3.77094 25.991
3.9495 29.6731
4.12809 34.8009
4.30669 264.922
4.4853 70.0304
4.6639 54.1876
4.84253 65.7495
5.02118 83.4268
5.19981 267.954
5.37848 173.664
5.55716 98.929
5.73586 89.4216
5.91455 89.9653
6.09328 4562.67
6.27201 81.4417
6.45075 65.9898
6.62952 61.9036
6.8083 58.3464
6.98711 55.3161
7.16591 55.1751
7.34475 102.069
7.5236 54.2153
7.70247 55.1648
7.88135 56.8529
8.06026 61.2974
8.23919 68.1397
8.41812 83.1336
8.59709 1081.11
8.77609 96.7112
8.9551 91.716
9.13412 80.135
9.31318 80.4219
9.49226 82.8371
9.67134 98.5267
9.85047 97.1069
10.0296 278.106
10.2088 370.824
10.388 102.029
10.5672 523.937
10.7465 84.7307
10.9257 77.3594
11.105 70.5005
11.2844 69.8998
11.4637 63.9861
11.6431 62.602
11.8225 61.3314
12.002 61.6471
12.1814 148.183
12.3609 70.5194
12.5405 63.2083
12.72 69.6387
12.8996 69.2378
13.0792 76.4691
13.2589 219.99
13.4386 121.464
13.6183 234.917
13.7981 94.6857
13.9779 74.1463
14.1577 71.307
14.3376 70.6996
14.5175 67.228
14.6974 68.5693
14.8774 101.741
15.0574 151.293
15.2374 70.393
15.4175 64.9525
15.5976 64.0335
15.7778 88.038
15.958 155.475
16.1382 61.854
16.3185 57.8127
16.4988 54.4311
16.6792 53.506
16.8596 54.2412
17.04 54.4351
17.2205 64.2614
17.401 69.1086
17.5815 57.742
17.7622 59.7294
17.9428 69.9421
18.1237 139.665
18.3044 87.5483
18.4852 76.1398
18.666 59.1924
18.8469 56.7242
19.0278 55.5879
19.2088 57.8361
19.3898 75.8409
19.5709 53.1186
19.752 52.3202
19.9332 54.6189
20.1144 68.9736
20.2957 62.8704
20.477 52.4475
20.6586 48.7561
20.84 47.5848
21.0215 47.4404
21.203 49.8333
21.3846 47.9567
21.5662 47.5598
21.7479 50.9706
21.9297 63.7546
22.1115 55.297
22.2933 48.7302
22.4753 47.8062
22.6572 47.619
22.8393 50.4365
23.0214 56.4884
23.2037 47.823
23.3859 48.3814
23.5682 56.4162
23.7505 47.4236
23.9329 44.2442
24.1154 43.1329
24.2979 42.5156
24.4805 42.1326
24.6631 41.926
24.8458 41.3427
25.0286 41.8392
25.2114 43.7218
25.3943 43.7338
25.5773 40.155
25.7605 39.7034
25.9436 39.9794
26.1268 40.9787
26.31 39.2067
26.4933 39.7904
26.6767 41.3916
26.8601 39.6139
27.0437 38.1002
27.2272 37.5897
27.4109 37.5856
27.5946 37.6267
27.7784 37.1338
27.9623 37.5946
28.1462 38.015
28.3304 36.4532
28.5145 35.3148
28.6987 34.8572
28.8829 34.8257
29.0673 34.0159
29.2517 33.6008
29.4361 33.4686
29.6207 32.4485
29.8053 32.2581
29.99 31.9617
30.1748 31.8757
30.3597 31.5707
30.5447 31.4918
30.7297 31.6831
30.915 31.003
31.1002 30.5069
31.2855 30.3418
31.4708 30.2331
31.6563 29.8037
31.8418 29.5752
32.0275 29.3613
32.2132 28.7551
32.399 28.2725
32.5848 27.8834
32.7708 27.6414
32.9569 27.5012
33.143 27.1172
33.3293 26.9813
33.5158 26.3843
33.7022 26.16
33.8887 25.81
34.0753 25.5603
34.262 25.2765
34.4488 24.8228
34.6357 24.5413
34.8227 24.2704
35.0098 24.0337
35.1969 23.7917
35.3842 23.5666
35.5716 23.3296
35.759 23.0805
35.9468 22.7593
36.1345 22.4905
36.3222 22.3002
36.5101 22.0141
36.6981 21.6925
36.8861 21.4143
37.0743 21.1027
37.2626 20.9245
37.451 20.593
37.6395 20.435
37.8281 20.0534
38.0168 19.8144
38.2056 19.5616
38.3945 19.3446
38.5837 19.0652
38.7728 18.877
38.9621 18.6539
39.1514 18.3565
39.3409 18.1877
39.5304 17.8953
39.7201 17.721
39.9099 17.4852
40.0999 17.254
40.2899 17.0583
40.48 16.8219
40.6703 16.6092
40.8607 16.4484
41.0512 16.1609
41.242 15.9566
41.4327 15.7779
41.6236 15.486
41.8146 15.3679
42.0057 15.1391
42.1969 14.9864
42.3882 14.7891
42.5797 14.5496
42.7713 14.3716
42.963 14.1674
43.1549 13.9849
43.3468 13.7877
43.5389 13.5629
43.7312 13.4256
43.9237 13.2466
44.1162 13.0219
44.3088 12.8233
44.5016 12.6169
44.6945 12.5067
44.8875 12.3727
45.0806 12.1676
45.2739 11.951
45.4673 11.8153
45.6609 11.6956
45.8546 11.5035
46.0484 11.3254
46.2424 11.1633
46.4365 11.0218
46.631 10.8373
46.8254 10.7238
47.0199 10.5072
47.2146 10.4008
47.4095 10.2277
47.6044 10.0796
47.7996 9.87285
47.9948 9.78089
48.1902 9.5998
48.3858 9.5049
48.5815 9.40421
48.7774 9.26678
48.9734 9.10176
49.1696 8.95206
49.3661 8.81234
49.5626 8.65441
49.7592 8.54379
49.956 8.429
50.153 8.27771
50.3501 8.15262
50.5474 8.02988
50.7448 7.92105
50.9424 7.80287
51.1402 7.68072
51.3381 7.55223
51.5362 7.42032
51.7344 7.30499
51.9328 7.19319
52.1316 7.05446
52.3304 6.95921
52.5293 6.82708
52.7284 6.72626
52.9276 6.58318
53.1271 6.53729
53.3267 6.39454
53.5265 6.29861
53.7264 6.17919
53.9266 6.0907
54.1269 5.98653
54.3274 5.84173
54.528 5.66707
54.7289 5.53767
54.9301 5.36994
55.1314 5.27034
55.3328 5.04962
55.5344 4.88613
55.7361 4.76347