File: XRD/Ni3Fe_FD0637.xy
TT I
1.27165 7.36144
1.45013 5.96684
1.62863 6.05674
1.80712 4.85559
1.98562 5.07186
2.16411 5.05531
2.34263 5.77198
2.52115 6.35967
2.69965 7.87933
2.87818 8.83211
3.05672 10.9436
3.23527 14.4038
3.4138 18.9445
3.59237 24.215
3.77094 26.575
3.9495 29.9046
4.12809 35.0597
4.30669 250.836
4.4853 69.5375
4.6639 55.6594
4.84253 67.8254
5.02118 86.8042
5.19981 339.664
5.37848 195.309
5.55716 102.036
5.73586 92.717
5.91455 94.0792
6.09328 4406.37
6.27201 84.1164
6.45075 67.7812
6.62952 63.4258
6.8083 58.9929
6.98711 56.3129
7.16591 55.4386
7.34475 99.3713
7.5236 55.3682
7.70247 56.2565
7.88135 58.1939
8.06026 62.3451
8.23919 69.9795
8.41812 86.4367
8.59709 1123.8
8.77609 100.468
8.9551 93.0709
9.13412 82.1138
9.31318 82.4472
9.49226 84.8237
9.67134 100.652
9.85047 100.097
10.0296 328.8
10.2088 431.019
10.388 105.227
10.5672 496.895
10.7465 87.1871
10.9257 79.2775
11.105 72.2367
11.2844 71.419
11.4637 65.404
11.6431 64.2406
11.8225 63.0178
12.002 63.5174
12.1814 148.256
12.3609 72.355
12.5405 64.8684
12.72 70.8331
12.8996 71.1142
13.0792 78.7974
13.2589 231.329
13.4386 127.571
13.6183 241.83
13.7981 100.551
13.9779 75.9424
14.1577 72.8615
14.3376 72.3619
14.5175 68.8481
14.6974 70.5324
14.8774 108.292
15.0574 151.555
15.2374 72.0236
15.4175 66.6021
15.5976 66.1694
15.7778 93.5126
15.958 159.113
16.1382 63.4862
16.3185 59.1842
16.4988 55.758
16.6792 54.6759
16.8596 55.6005
17.04 55.8797
17.2205 66.4308
17.401 72.09
17.5815 59.5152
17.7622 61.2659
17.9428 73.11
18.1237 138.642
18.3044 89.9198
18.4852 79.1326
18.666 60.7498
18.8469 58.2954
19.0278 57.0975
19.2088 59.7126
19.3898 76.7273
19.5709 54.5714
19.752 53.5375
19.9332 56.2647
20.1144 69.8317
20.2957 63.5896
20.477 54.1234
20.6586 49.8598
20.84 49.0692
21.0215 48.6632
21.203 51.0272
21.3846 49.2231
21.5662 48.9195
21.7479 52.6233
21.9297 64.6479
22.1115 56.0751
22.2933 50.0418
22.4753 49.1371
22.6572 48.9908
22.8393 51.7836
23.0214 57.673
23.2037 48.9963
23.3859 49.8661
23.5682 56.8141
23.7505 48.5765
23.9329 45.4095
24.1154 44.1972
24.2979 43.6066
24.4805 43.0168
24.6631 42.9655
24.8458 42.4252
25.0286 42.9765
25.2114 44.6691
25.3943 44.7129
25.5773 41.174
25.7605 40.666
25.9436 40.9002
26.1268 41.8398
26.31 40.278
26.4933 40.8649
26.6767 42.329
26.8601 40.6518
27.0437 39.0285
27.2272 38.6738
27.4109 38.626
27.5946 38.5199
27.7784 37.9123
27.9623 38.5338
28.1462 38.9495
28.3304 37.2824
28.5145 36.0676
28.6987 35.7715
28.8829 35.5776
29.0673 34.7888
29.2517 34.4466
29.4361 34.2373
29.6207 33.3428
29.8053 33.0497
29.99 32.7302
30.1748 32.5436
30.3597 32.4049
30.5447 32.2384
30.7297 32.3435
30.915 31.7237
31.1002 31.2328
31.2855 30.9646
31.4708 30.8488
31.6563 30.5803
31.8418 30.2645
32.0275 30.0777
32.2132 29.4477
32.399 29.0823
32.5848 28.6289
32.7708 28.3381
32.9569 28.1749
33.143 27.9172
33.3293 27.5205
33.5158 27.15
33.7022 26.6837
33.8887 26.3959
34.0753 26.0823
34.262 25.6878
34.4488 25.4158
34.6357 25.0861
34.8227 24.8561
35.0098 24.5309
35.1969 24.3229
35.3842 24.0858
35.5716 23.8659
35.759 23.5992
35.9468 23.2457
36.1345 22.9963
36.3222 22.7726
36.5101 22.4712
36.6981 22.2092
36.8861 21.8996
37.0743 21.6602
37.2626 21.3231
37.451 21.1107
37.6395 20.9407
37.8281 20.5566
38.0168 20.2647
38.2056 20.008
38.3945 19.7436
38.5837 19.5529
38.7728 19.2862
38.9621 19.0816
39.1514 18.824
39.3409 18.541
39.5304 18.3465
39.7201 18.1559
39.9099 17.9789
40.0999 17.6585
40.2899 17.4474
40.48 17.1863
40.6703 16.9988
40.8607 16.8059
41.0512 16.6513
41.242 16.3343
41.4327 16.1162
41.6236 15.9328
41.8146 15.7399
42.0057 15.4585
42.1969 15.2769
42.3882 15.1181
42.5797 14.9025
42.7713 14.6969
42.963 14.5091
43.1549 14.3106
43.3468 14.0896
43.5389 13.883
43.7312 13.6779
43.9237 13.5256
44.1162 13.2955
44.3088 13.1545
44.5016 12.9468
44.6945 12.8261
44.8875 12.6062
45.0806 12.4099
45.2739 12.2314
45.4673 12.107
45.6609 11.8854
45.8546 11.7551
46.0484 11.5766
46.2424 11.439
46.4365 11.2404
46.631 11.0819
46.8254 10.9264
47.0199 10.7354
47.2146 10.5646
47.4095 10.4627
47.6044 10.2865
47.7996 10.1411
47.9948 9.9915
48.1902 9.82251
48.3858 9.71764
48.5815 9.56575
48.7774 9.42849
48.9734 9.28251
49.1696 9.12881
49.3661 9.01878
49.5626 8.85146
49.7592 8.76754
49.956 8.5981
50.153 8.51568
50.3501 8.32247
50.5474 8.22918
50.7448 8.10525
50.9424 7.94109
51.1402 7.82493
51.3381 7.71276
51.5362 7.61875
51.7344 7.48867
51.9328 7.36505
52.1316 7.21954
52.3304 7.09822
52.5293 6.98814
52.7284 6.87591
52.9276 6.74258
53.1271 6.68462
53.3267 6.51579
53.5265 6.44703
53.7264 6.31549
53.9266 6.15434
54.1269 6.09305
54.3274 5.95371
54.528 5.81841
54.7289 5.6989
54.9301 5.55922
55.1314 5.34439
55.3328 5.11279
55.5344 4.99295
55.7361 4.80835