File: XRD/Ni3Fe_FD0490.xy
TT I
1.27165 8.03795
1.45013 6.16586
1.62863 5.62992
1.80712 5.07715
1.98562 4.81494
2.16411 5.12801
2.34263 5.4831
2.52115 6.88713
2.69965 7.4779
2.87818 9.03053
3.05672 10.9611
3.23527 15.0683
3.4138 18.6861
3.59237 24.1694
3.77094 26.22
3.9495 30.1986
4.12809 34.6557
4.30669 163.582
4.4853 60.5484
4.6639 56.2175
4.84253 68.4334
5.02118 89.1368
5.19981 443.226
5.37848 206.313
5.55716 104.418
5.73586 94.203
5.91455 97.7525
6.09328 4199.04
6.27201 84.3347
6.45075 68.5609
6.62952 63.7182
6.8083 59.0664
6.98711 57.0965
7.16591 55.9002
7.34475 82.1392
7.5236 55.4199
7.70247 56.8534
7.88135 58.5845
8.06026 63.551
8.23919 70.6697
8.41812 86.494
8.59709 1213.22
8.77609 102.448
8.9551 91.2395
9.13412 83.2511
9.31318 83.9866
9.49226 85.7605
9.67134 97.7007
9.85047 101.903
10.0296 383.324
10.2088 460.247
10.388 106.589
10.5672 495.211
10.7465 88.0196
10.9257 79.2098
11.105 72.4638
11.2844 70.6347
11.4637 65.9898
11.6431 64.5215
11.8225 63.5394
12.002 64.7378
12.1814 154.78
12.3609 70.5084
12.5405 65.4737
12.72 69.6759
12.8996 72.0742
13.0792 80.7682
13.2589 246.373
13.4386 131.914
13.6183 251.379
13.7981 102.869
13.9779 77.14
14.1577 73.5043
14.3376 72.0734
14.5175 69.8033
14.6974 71.6127
14.8774 115.499
15.0574 156.761
15.2374 71.5248
15.4175 67.4602
15.5976 66.8116
15.7778 99.2394
15.958 158.456
16.1382 63.2174
16.3185 59.3751
16.4988 56.2661
16.6792 55.2977
16.8596 56.0362
17.04 56.8574
17.2205 68.3519
17.401 73.1689
17.5815 60.1548
17.7622 62.2862
17.9428 76.1719
18.1237 136.336
18.3044 92.1133
18.4852 80.4393
18.666 61.101
18.8469 58.8558
19.0278 57.7478
19.2088 60.7462
19.3898 75.8083
19.5709 55.052
19.752 54.1944
19.9332 57.4832
20.1144 69.8549
20.2957 64.1155
20.477 54.815
20.6586 50.3822
20.84 49.5157
21.0215 49.3355
21.203 51.5676
21.3846 49.8437
21.5662 49.6065
21.7479 53.9058
21.9297 64.8774
22.1115 56.5038
22.2933 50.7916
22.4753 49.662
22.6572 49.8461
22.8393 52.8976
23.0214 57.8981
23.2037 49.5291
23.3859 50.6616
23.5682 56.9151
23.7505 49.4226
23.9329 45.9277
24.1154 44.7312
24.2979 43.9987
24.4805 43.5541
24.6631 43.4723
24.8458 42.878
25.0286 43.5353
25.2114 45.4502
25.3943 45.162
25.5773 41.6754
25.7605 41.1092
25.9436 41.3841
26.1268 42.1229
26.31 40.8412
26.4933 41.4664
26.6767 42.6331
26.8601 41.0063
27.0437 39.4981
27.2272 39.1197
27.4109 39.0612
27.5946 39.0797
27.7784 38.5386
27.9623 39.0337
28.1462 39.4951
28.3304 37.8558
28.5145 36.4377
28.6987 36.1592
28.8829 35.8272
29.0673 35.2141
29.2517 34.9814
29.4361 34.6059
29.6207 33.6612
29.8053 33.415
29.99 33.0988
30.1748 32.9553
30.3597 32.716
30.5447 32.7231
30.7297 32.7618
30.915 32.0459
31.1002 31.6526
31.2855 31.4124
31.4708 31.3391
31.6563 30.8825
31.8418 30.5445
32.0275 30.3492
32.2132 29.8816
32.399 29.4045
32.5848 28.9949
32.7708 28.5991
32.9569 28.5077
33.143 28.2629
33.3293 27.7966
33.5158 27.4935
33.7022 27.0183
33.8887 26.6655
34.0753 26.352
34.262 26.0538
34.4488 25.7342
34.6357 25.2603
34.8227 25.0626
35.0098 24.8257
35.1969 24.5338
35.3842 24.3526
35.5716 24.1359
35.759 23.8003
35.9468 23.4723
36.1345 23.2346
36.3222 23.0141
36.5101 22.7156
36.6981 22.4612
36.8861 22.1185
37.0743 21.7859
37.2626 21.5526
37.451 21.2314
37.6395 21.1078
37.8281 20.7698
38.0168 20.5044
38.2056 20.1858
38.3945 19.9399
38.5837 19.7201
38.7728 19.4928
38.9621 19.2443
39.1514 18.942
39.3409 18.7424
39.5304 18.5157
39.7201 18.3763
39.9099 18.1514
40.0999 17.8945
40.2899 17.642
40.48 17.3592
40.6703 17.1893
40.8607 17.0295
41.0512 16.8069
41.242 16.4898
41.4327 16.3229
41.6236 16.1052
41.8146 15.8494
42.0057 15.6175
42.1969 15.4377
42.3882 15.25
42.5797 15.0744
42.7713 14.8419
42.963 14.6637
43.1549 14.4027
43.3468 14.1682
43.5389 14.0274
43.7312 13.841
43.9237 13.627
44.1162 13.4263
44.3088 13.2494
44.5016 13.0683
44.6945 12.9162
44.8875 12.7784
45.0806 12.4875
45.2739 12.3866
45.4673 12.2239
45.6609 12.0496
45.8546 11.8621
46.0484 11.7009
46.2424 11.5417
46.4365 11.3772
46.631 11.2267
46.8254 11.0188
47.0199 10.8958
47.2146 10.7229
47.4095 10.5295
47.6044 10.377
47.7996 10.2479
47.9948 10.0799
48.1902 9.92064
48.3858 9.79414
48.5815 9.6582
48.7774 9.57192
48.9734 9.3986
49.1696 9.19388
49.3661 9.09969
49.5626 8.93474
49.7592 8.80664
49.956 8.70445
50.153 8.54336
50.3501 8.42329
50.5474 8.30411
50.7448 8.18452
50.9424 8.07616
51.1402 7.9275
51.3381 7.78201
51.5362 7.65816
51.7344 7.53875
51.9328 7.45395
52.1316 7.26752
52.3304 7.16321
52.5293 7.02969
52.7284 6.92037
52.9276 6.83482
53.1271 6.72184
53.3267 6.54298
53.5265 6.42571
53.7264 6.38037
53.9266 6.27452
54.1269 6.11823
54.3274 6.03279
54.528 5.90365
54.7289 5.73873
54.9301 5.58513
55.1314 5.43588
55.3328 5.21567
55.5344 5.06501
55.7361 4.94095