File: XRD/Ni3Fe_FD0004.xy
TT I
1.27165 36.0991
1.45013 31.6908
1.62863 28.0491
1.80712 26.3683
1.98562 25.5845
2.16411 25.9784
2.34263 26.5787
2.52115 26.2023
2.69965 30.0969
2.87818 39.4579
3.05672 65.9423
3.23527 81.1068
3.4138 45.9029
3.59237 40.0945
3.77094 42.019
3.9495 43.7911
4.12809 54.0318
4.30669 77.4476
4.4853 69.3939
4.6639 55.4869
4.84253 60.3591
5.02118 90.3631
5.19981 246.056
5.37848 4165.38
5.55716 165.252
5.73586 99.4755
5.91455 105.508
6.09328 391.405
6.27201 390.893
6.45075 73.5791
6.62952 54.2192
6.8083 51.8286
6.98711 47.5354
7.16591 51.5852
7.34475 69.5599
7.5236 63.6411
7.70247 53.6653
7.88135 39.4042
8.06026 39.0817
8.23919 43.3513
8.41812 53.7132
8.59709 136.056
8.77609 790.624
8.9551 82.1348
9.13412 57.7498
9.31318 228.006
9.49226 51.0506
9.67134 48.5795
9.85047 54.0984
10.0296 84.2366
10.2088 347.611
10.388 167.481
10.5672 87.0372
10.7465 305.781
10.9257 48.6459
11.105 40.653
11.2844 39.2276
11.4637 37.751
11.6431 36.7861
11.8225 36.3293
12.002 59.6219
12.1814 45.5636
12.3609 82.8009
12.5405 46.8572
12.72 38.6631
12.8996 38.4238
13.0792 39.9574
13.2589 61.3864
13.4386 111.939
13.6183 109.58
13.7981 120.101
13.9779 76.2551
14.1577 43.4555
14.3376 57.2422
14.5175 35.2425
14.6974 34.8115
14.8774 39.1763
15.0574 52.9647
15.2374 124.79
15.4175 40.9894
15.5976 36.399
15.7778 38.0616
15.958 49.4333
16.1382 140.392
16.3185 41.7835
16.4988 32.1852
16.6792 30.2565
16.8596 29.9524
17.04 36.894
17.2205 31.6925
17.401 33.6534
17.5815 53.0519
17.7622 33.3986
17.9428 41.6449
18.1237 41.5732
18.3044 73.2078
18.4852 64.6084
18.666 80.1712
18.8469 35.9764
19.0278 31.8127
19.2088 31.4805
19.3898 35.945
19.5709 45.8691
19.752 39.7052
19.9332 30.4902
20.1144 31.0591
20.2957 38.0978
20.477 41.9221
20.6586 45.5657
20.84 30.0849
21.0215 30.5261
21.203 27.1489
21.3846 27.2798
21.5662 32.5132
21.7479 28.3949
21.9297 29.8024
22.1115 37.1404
22.2933 50.6531
22.4753 39.8488
22.6572 29.3555
22.8393 28.801
23.0214 31.231
23.2037 35.2546
23.3859 38.9919
23.5682 34.3258
23.7505 32.6376
23.9329 49.1973
24.1154 29.7744
24.2979 26.9333
24.4805 25.2562
24.6631 25.0014
24.8458 27.5412
25.0286 25.3768
25.2114 25.1124
25.3943 27.5023
25.5773 31.0472
25.7605 32.8753
25.9436 26.2883
26.1268 25.2041
26.31 25.3797
26.4933 29.6803
26.6767 25.5668
26.8601 26.294
27.0437 32.9454
27.2272 29.0666
27.4109 24.2716
27.5946 23.712
27.7784 24.2187
27.9623 25.7175
28.1462 25.1119
28.3304 26.4425
28.5145 30.2754
28.6987 26.8882
28.8829 22.873
29.0673 21.8677
29.2517 22.984
29.4361 22.1354
29.6207 21.4313
29.8053 23.0173
29.99 21.1893
30.1748 20.6991
30.3597 21.0326
30.5447 21.0094
30.7297 21.2718
30.915 20.8423
31.1002 23.1798
31.2855 23.26
31.4708 20.6161
31.6563 20.2232
31.8418 21.3432
32.0275 21.3749
32.2132 20.4875
32.399 21.6981
32.5848 20.3396
32.7708 18.8306
32.9569 18.4157
33.143 18.8304
33.3293 18.2097
33.5158 18.553
33.7022 19.5824
33.8887 18.5753
34.0753 17.6695
34.262 17.4351
34.4488 17.5288
34.6357 16.8536
34.8227 17.1037
35.0098 16.5902
35.1969 16.07
35.3842 16.1697
35.5716 16.2272
35.759 16.4458
35.9468 17.3703
36.1345 16.6831
36.3222 15.8211
36.5101 15.6076
36.6981 15.8912
36.8861 15.315
37.0743 15.4959
37.2626 15.135
37.451 14.5597
37.6395 14.4122
37.8281 14.2812
38.0168 13.9932
38.2056 14.103
38.3945 13.7563
38.5837 13.4984
38.7728 13.5461
38.9621 13.3791
39.1514 13.304
39.3409 13.1031
39.5304 12.7132
39.7201 12.5136
39.9099 12.5085
40.0999 12.288
40.2899 12.4067
40.48 12.3471
40.6703 12.054
40.8607 11.9131
41.0512 11.7557
41.242 11.7172
41.4327 11.6029
41.6236 11.2818
41.8146 11.1342
42.0057 11.0092
42.1969 10.9715
42.3882 10.9662
42.5797 10.6472
42.7713 10.3838
42.963 10.3023
43.1549 10.1815
43.3468 9.96907
43.5389 9.80283
43.7312 9.7066
43.9237 9.57143
44.1162 9.5327
44.3088 9.45775
44.5016 9.31034
44.6945 9.16693
44.8875 9.05045
45.0806 8.99031
45.2739 8.87083
45.4673 8.68921
45.6609 8.54876
45.8546 8.51261
46.0484 8.38502
46.2424 8.30769
46.4365 8.1257
46.631 8.04806
46.8254 7.89738
47.0199 7.82753
47.2146 7.69262
47.4095 7.57432
47.6044 7.41078
47.7996 7.33922
47.9948 7.26168
48.1902 7.11865
48.3858 7.02069
48.5815 6.93738
48.7774 6.85296
48.9734 6.75865
49.1696 6.63834
49.3661 6.57246
49.5626 6.43128
49.7592 6.42307
49.956 6.30163
50.153 6.22504
50.3501 6.1354
50.5474 6.05468
50.7448 5.94199
50.9424 5.85252
51.1402 5.79003
51.3381 5.68928
51.5362 5.58748
51.7344 5.49678
51.9328 5.38967
52.1316 5.29335
52.3304 5.23776
52.5293 5.12973
52.7284 5.06349
52.9276 4.99551
53.1271 4.91216
53.3267 4.84193
53.5265 4.75628
53.7264 4.67464
53.9266 4.56107
54.1269 4.49734
54.3274 4.40145
54.528 4.28073
54.7289 4.18246
54.9301 4.04908
55.1314 3.92587
55.3328 3.75552
55.5344 3.63841
55.7361 3.48446