File: XRD/Ni3Fe_FD0650.xy
TT I
1.27165 7.39899
1.45013 6.79246
1.62863 5.34333
1.80712 5.12546
1.98562 5.02337
2.16411 4.97808
2.34263 6.19066
2.52115 7.30089
2.69965 8.21063
2.87818 9.06363
3.05672 11.2561
3.23527 15.1215
3.4138 19.1424
3.59237 24.7674
3.77094 26.5059
3.9495 29.8991
4.12809 35.372
4.30669 281.457
4.4853 72.2573
4.6639 55.4797
4.84253 67.1515
5.02118 85.9991
5.19981 329.685
5.37848 197.165
5.55716 102.156
5.73586 91.9026
5.91455 93.2809
6.09328 4331.18
6.27201 84.256
6.45075 67.7702
6.62952 63.6195
6.8083 59.4322
6.98711 56.387
7.16591 56.014
7.34475 106.17
7.5236 55.4255
7.70247 56.972
7.88135 58.3295
8.06026 62.3803
8.23919 69.4441
8.41812 85.4334
8.59709 1084.53
8.77609 99.7441
8.9551 93.9161
9.13412 81.6683
9.31318 82.7996
9.49226 84.2236
9.67134 101.377
9.85047 99.6621
10.0296 317.322
10.2088 447.866
10.388 105.355
10.5672 494.126
10.7465 86.9739
10.9257 79.3946
11.105 72.3633
11.2844 71.8479
11.4637 65.1886
11.6431 64.1145
11.8225 62.5994
12.002 63.7788
12.1814 145.697
12.3609 73.2599
12.5405 64.7539
12.72 71.7766
12.8996 70.9925
13.0792 78.5978
13.2589 224.559
13.4386 129.959
13.6183 235.58
13.7981 100.451
13.9779 76.0443
14.1577 72.9372
14.3376 72.991
14.5175 68.917
14.6974 70.4525
14.8774 106.573
15.0574 154.33
15.2374 72.2329
15.4175 66.4434
15.5976 65.7475
15.7778 92.0521
15.958 163.607
16.1382 63.8077
16.3185 59.3122
16.4988 55.6044
16.6792 54.8189
16.8596 55.6805
17.04 55.8196
17.2205 65.8444
17.401 72.5377
17.5815 59.289
17.7622 61.4123
17.9428 72.6404
18.1237 138.329
18.3044 89.435
18.4852 79.7932
18.666 60.7831
18.8469 58.2889
19.0278 57.0732
19.2088 59.6565
19.3898 77.1608
19.5709 54.4642
19.752 53.2496
19.9332 56.1949
20.1144 69.8664
20.2957 63.3989
20.477 54.2408
20.6586 49.8454
20.84 49.0323
21.0215 48.6942
21.203 50.7737
21.3846 49.1746
21.5662 48.7279
21.7479 52.4336
21.9297 64.729
22.1115 56.4588
22.2933 50.3257
22.4753 49.1514
22.6572 48.9426
22.8393 51.8233
23.0214 57.92
23.2037 48.9962
23.3859 49.6341
23.5682 56.9158
23.7505 48.7502
23.9329 45.4277
24.1154 44.2213
24.2979 43.6905
24.4805 43.0604
24.6631 43.0598
24.8458 42.4226
25.0286 42.8988
25.2114 44.6457
25.3943 45.0073
25.5773 41.2018
25.7605 40.5577
25.9436 40.9506
26.1268 41.91
26.31 40.2045
26.4933 40.8226
26.6767 42.3352
26.8601 40.6671
27.0437 39.0441
27.2272 38.5883
27.4109 38.5199
27.5946 38.6054
27.7784 37.9337
27.9623 38.4783
28.1462 39.0901
28.3304 37.439
28.5145 36.1415
28.6987 35.7624
28.8829 35.4998
29.0673 34.8259
29.2517 34.398
29.4361 34.2202
29.6207 33.2474
29.8053 33.1479
29.99 32.5903
30.1748 32.5345
30.3597 32.3913
30.5447 32.3652
30.7297 32.3415
30.915 31.6334
31.1002 31.3383
31.2855 30.9665
31.4708 30.8961
31.6563 30.4833
31.8418 30.1532
32.0275 30.0873
32.2132 29.5504
32.399 29.0551
32.5848 28.602
32.7708 28.2242
32.9569 28.1796
33.143 27.9306
33.3293 27.5493
33.5158 27.1505
33.7022 26.7712
33.8887 26.4781
34.0753 26.0767
34.262 25.7512
34.4488 25.413
34.6357 25.0692
34.8227 24.7726
35.0098 24.6072
35.1969 24.3476
35.3842 24.1159
35.5716 23.855
35.759 23.5814
35.9468 23.2639
36.1345 23.0139
36.3222 22.7567
36.5101 22.5451
36.6981 22.2292
36.8861 21.8921
37.0743 21.6064
37.2626 21.3167
37.451 21.075
37.6395 20.9099
37.8281 20.5574
38.0168 20.3095
38.2056 20.0899
38.3945 19.6725
38.5837 19.5714
38.7728 19.2787
38.9621 19.1002
39.1514 18.8066
39.3409 18.5331
39.5304 18.34
39.7201 18.2093
39.9099 17.9192
40.0999 17.6799
40.2899 17.4354
40.48 17.2079
40.6703 17.0124
40.8607 16.7415
41.0512 16.591
41.242 16.3073
41.4327 16.1383
41.6236 15.8635
41.8146 15.7627
42.0057 15.5094
42.1969 15.2843
42.3882 15.118
42.5797 14.8658
42.7713 14.743
42.963 14.5211
43.1549 14.3416
43.3468 14.0743
43.5389 13.9249
43.7312 13.6804
43.9237 13.5334
44.1162 13.2898
44.3088 13.1734
44.5016 12.9535
44.6945 12.8083
44.8875 12.6078
45.0806 12.4104
45.2739 12.2527
45.4673 12.0943
45.6609 11.9387
45.8546 11.7454
46.0484 11.6382
46.2424 11.4175
46.4365 11.2726
46.631 11.0979
46.8254 10.9683
47.0199 10.7552
47.2146 10.5808
47.4095 10.4475
47.6044 10.3009
47.7996 10.1344
47.9948 9.98142
48.1902 9.89234
48.3858 9.74105
48.5815 9.55256
48.7774 9.47016
48.9734 9.28774
49.1696 9.15793
49.3661 9.0164
49.5626 8.8678
49.7592 8.71279
49.956 8.63939
50.153 8.50002
50.3501 8.31028
50.5474 8.21202
50.7448 8.10954
50.9424 7.96645
51.1402 7.87427
51.3381 7.71563
51.5362 7.6066
51.7344 7.41576
51.9328 7.31962
52.1316 7.20263
52.3304 7.08961
52.5293 6.99152
52.7284 6.89216
52.9276 6.73134
53.1271 6.65394
53.3267 6.50244
53.5265 6.40418
53.7264 6.28867
53.9266 6.2398
54.1269 6.0906
54.3274 5.98542
54.528 5.85407
54.7289 5.64264
54.9301 5.51387
55.1314 5.36142
55.3328 5.20373
55.5344 4.98837
55.7361 4.83866