File: XRD/Ni3Fe_FD0333.xy
TT I
1.27165 7.86666
1.45013 6.76792
1.62863 5.71404
1.80712 4.78031
1.98562 5.01478
2.16411 4.60753
2.34263 5.07101
2.52115 6.4351
2.69965 7.57256
2.87818 8.66572
3.05672 11.4235
3.23527 15.658
3.4138 19.1471
3.59237 24.0697
3.77094 26.8296
3.9495 30.1442
4.12809 35.8716
4.30669 165.352
4.4853 61.7756
4.6639 57.1521
4.84253 69.5576
5.02118 91.5079
5.19981 566.384
5.37848 227.496
5.55716 106.642
5.73586 96.0559
5.91455 102.479
6.09328 4071.39
6.27201 86.6306
6.45075 69.4901
6.62952 63.994
6.8083 59.9442
6.98711 57.2865
7.16591 56.9347
7.34475 82.3627
7.5236 55.8831
7.70247 57.7539
7.88135 59.1335
8.06026 64.3818
8.23919 71.8411
8.41812 88.9398
8.59709 1164.65
8.77609 104.83
8.9551 92.7296
9.13412 84.6398
9.31318 85.8932
9.49226 87.2571
9.67134 99.4431
9.85047 103.641
10.0296 427.276
10.2088 491.814
10.388 109.829
10.5672 481.616
10.7465 89.8715
10.9257 80.266
11.105 73.6898
11.2844 71.508
11.4637 66.9157
11.6431 65.6461
11.8225 64.4923
12.002 66.1011
12.1814 148.753
12.3609 71.489
12.5405 66.2485
12.72 71.1062
12.8996 73.3462
13.0792 82.5898
13.2589 243.817
13.4386 133.565
13.6183 240.761
13.7981 103.037
13.9779 78.0686
14.1577 74.3878
14.3376 73.1541
14.5175 71.1951
14.6974 72.842
14.8774 118.43
15.0574 156.596
15.2374 72.7097
15.4175 68.6992
15.5976 68.3328
15.7778 101.793
15.958 165.392
16.1382 64.0346
16.3185 60.1591
16.4988 57.1932
16.6792 56.1037
16.8596 56.7236
17.04 57.86
17.2205 68.8454
17.401 74.3609
17.5815 60.9962
17.7622 63.2842
17.9428 78.8294
18.1237 139.914
18.3044 91.6707
18.4852 80.3951
18.666 62.155
18.8469 59.8499
19.0278 58.6103
19.2088 61.8219
19.3898 77.3099
19.5709 55.9964
19.752 55.0773
19.9332 58.4897
20.1144 71.5865
20.2957 64.7543
20.477 55.5775
20.6586 51.203
20.84 50.09
21.0215 50.2213
21.203 52.0458
21.3846 50.671
21.5662 50.552
21.7479 54.6917
21.9297 66.4115
22.1115 57.4499
22.2933 51.3415
22.4753 50.3604
22.6572 50.6981
22.8393 53.6543
23.0214 59.1408
23.2037 50.5318
23.3859 51.5983
23.5682 57.6436
23.7505 49.9772
23.9329 46.585
24.1154 45.4683
24.2979 44.9252
24.4805 44.0326
24.6631 44.1442
24.8458 43.5581
25.0286 44.3105
25.2114 46.0847
25.3943 46.0491
25.5773 42.2286
25.7605 41.7216
25.9436 42.1907
26.1268 42.9994
26.31 41.4548
26.4933 42.0795
26.6767 43.3908
26.8601 41.7731
27.0437 39.9975
27.2272 39.7717
27.4109 39.465
27.5946 39.5619
27.7784 40.1219
27.9623 39.7421
28.1462 39.9188
28.3304 38.3709
28.5145 36.9941
28.6987 36.734
28.8829 36.669
29.0673 36.3543
29.2517 35.4251
29.4361 35.2286
29.6207 34.2672
29.8053 33.8973
29.99 33.5229
30.1748 33.3365
30.3597 33.1886
30.5447 33.1116
30.7297 33.1355
30.915 32.6136
31.1002 32.1276
31.2855 31.8319
31.4708 31.7603
31.6563 31.3738
31.8418 31.0531
32.0275 30.8268
32.2132 30.2502
32.399 29.8087
32.5848 29.4013
32.7708 29.0796
32.9569 28.7799
33.143 28.5872
33.3293 28.1861
33.5158 27.8094
33.7022 27.4325
33.8887 27.1552
34.0753 26.794
34.262 26.4185
34.4488 26.0306
34.6357 25.7893
34.8227 25.4159
35.0098 25.1573
35.1969 24.9208
35.3842 24.7019
35.5716 24.5222
35.759 24.1747
35.9468 23.8351
36.1345 23.5726
36.3222 23.3591
36.5101 23.0398
36.6981 22.8105
36.8861 22.4358
37.0743 22.1902
37.2626 21.899
37.451 21.5893
37.6395 21.4251
37.8281 21.095
38.0168 20.754
38.2056 20.5767
38.3945 20.1968
38.5837 19.9502
38.7728 19.7756
38.9621 19.5927
39.1514 19.1938
39.3409 19.0109
39.5304 18.7882
39.7201 18.5892
39.9099 18.386
40.0999 18.0408
40.2899 17.8971
40.48 17.6335
40.6703 17.3738
40.8607 17.2386
41.0512 17.0382
41.242 16.7072
41.4327 16.5571
41.6236 16.2877
41.8146 16.1458
42.0057 15.8689
42.1969 15.7127
42.3882 15.4482
42.5797 15.3247
42.7713 15.0177
42.963 14.8559
43.1549 14.6029
43.3468 14.4251
43.5389 14.2877
43.7312 14.037
43.9237 13.8259
44.1162 13.6548
44.3088 13.3934
44.5016 13.2856
44.6945 13.1023
44.8875 12.9201
45.0806 12.7024
45.2739 12.5229
45.4673 12.3851
45.6609 12.1854
45.8546 12.0584
46.0484 11.8944
46.2424 11.6677
46.4365 11.5323
46.631 11.3584
46.8254 11.1851
47.0199 11.0145
47.2146 10.8441
47.4095 10.699
47.6044 10.5068
47.7996 10.371
47.9948 10.1687
48.1902 10.0537
48.3858 9.9366
48.5815 9.77796
48.7774 9.64061
48.9734 9.53674
49.1696 9.35951
49.3661 9.2517
49.5626 9.07039
49.7592 8.9676
49.956 8.84308
50.153 8.69692
50.3501 8.53558
50.5474 8.41966
50.7448 8.28921
50.9424 8.18101
51.1402 8.01481
51.3381 7.8925
51.5362 7.75347
51.7344 7.62415
51.9328 7.51937
52.1316 7.37605
52.3304 7.29376
52.5293 7.12641
52.7284 7.01188
52.9276 6.91735
53.1271 6.81045
53.3267 6.6941
53.5265 6.56601
53.7264 6.46882
53.9266 6.30114
54.1269 6.19697
54.3274 6.12249
54.528 5.94641
54.7289 5.77067
54.9301 5.63315
55.1314 5.51012
55.3328 5.31766
55.5344 5.08861
55.7361 4.92769