File: XRD/Ni3Fe_FD0853.xy
TT I
1.27165 6.93896
1.45013 6.22326
1.62863 4.48299
1.80712 4.31464
1.98562 4.63124
2.16411 4.92476
2.34263 5.8537
2.52115 7.67547
2.69965 8.27333
2.87818 8.95379
3.05672 11.2889
3.23527 15.034
3.4138 19.3301
3.59237 23.4831
3.77094 26.1334
3.9495 29.4513
4.12809 34.5489
4.30669 208.448
4.4853 63.9875
4.6639 54.9181
4.84253 66.3742
5.02118 85.0865
5.19981 296.26
5.37848 176.056
5.55716 100.566
5.73586 90.646
5.91455 91.4858
6.09328 4460.34
6.27201 81.0459
6.45075 66.1069
6.62952 61.9624
6.8083 58.0565
6.98711 55.0376
7.16591 54.3983
7.34475 88.5596
7.5236 54.1501
7.70247 55.3353
7.88135 57.144
8.06026 61.2439
8.23919 68.4046
8.41812 83.315
8.59709 1136.66
8.77609 97.7318
8.9551 90.4654
9.13412 81.0536
9.31318 81.3979
9.49226 83.5486
9.67134 96.999
9.85047 98.1498
10.0296 311.201
10.2088 396.917
10.388 102.667
10.5672 538.04
10.7465 85.3472
10.9257 77.2047
11.105 70.7621
11.2844 69.4518
11.4637 64.1158
11.6431 62.7017
11.8225 61.4515
12.002 62.4908
12.1814 152.591
12.3609 69.1796
12.5405 63.4843
12.72 68.9117
12.8996 69.8472
13.0792 77.2817
13.2589 233.287
13.4386 121.575
13.6183 249.172
13.7981 96.0997
13.9779 74.6321
14.1577 71.4601
14.3376 70.6107
14.5175 67.8646
14.6974 69.5154
14.8774 106.939
15.0574 147.688
15.2374 70.1557
15.4175 65.5189
15.5976 64.6907
15.7778 92.0079
15.958 152.739
16.1382 61.9457
16.3185 57.8078
16.4988 54.8307
16.6792 53.6533
16.8596 54.6071
17.04 54.8646
17.2205 65.5662
17.401 70.1385
17.5815 58.3363
17.7622 60.4078
17.9428 71.6276
18.1237 138.019
18.3044 89.8844
18.4852 76.209
18.666 59.4226
18.8469 57.2781
19.0278 56.256
19.2088 58.4639
19.3898 75.8582
19.5709 53.3526
19.752 52.4674
19.9332 55.4239
20.1144 68.8324
20.2957 63.5897
20.477 52.8512
20.6586 49.0887
20.84 48.2103
21.0215 47.8375
21.203 50.3778
21.3846 48.3056
21.5662 48.0043
21.7479 51.7165
21.9297 63.5412
22.1115 55.3807
22.2933 49.2063
22.4753 48.325
22.6572 48.0703
22.8393 51.1382
23.0214 56.6426
23.2037 48.129
23.3859 49.0312
23.5682 56.6756
23.7505 47.7822
23.9329 44.6215
24.1154 43.6125
24.2979 42.8188
24.4805 42.5878
24.6631 42.109
24.8458 41.6842
25.0286 42.1777
25.2114 44.0231
25.3943 44.0946
25.5773 40.3896
25.7605 39.9019
25.9436 40.183
26.1268 41.1869
26.31 39.5866
26.4933 40.2127
26.6767 41.7079
26.8601 39.8599
27.0437 38.3758
27.2272 38.0476
27.4109 37.8546
27.5946 37.7849
27.7784 37.4565
27.9623 37.9718
28.1462 38.262
28.3304 36.7238
28.5145 35.518
28.6987 35.163
28.8829 35.0598
29.0673 34.2206
29.2517 33.8911
29.4361 33.8277
29.6207 32.7213
29.8053 32.4797
29.99 32.095
30.1748 32.0168
30.3597 31.7644
30.5447 31.8342
30.7297 31.8079
30.915 31.1677
31.1002 30.7311
31.2855 30.4446
31.4708 30.3953
31.6563 30.0873
31.8418 29.7317
32.0275 29.5482
32.2132 29.0165
32.399 28.6044
32.5848 28.1165
32.7708 27.7395
32.9569 27.6542
33.143 27.401
33.3293 26.9744
33.5158 26.6773
33.7022 26.2733
33.8887 26.0288
34.0753 25.7098
34.262 25.3559
34.4488 25.0027
34.6357 24.7157
34.8227 24.4058
35.0098 24.1846
35.1969 23.9399
35.3842 23.7818
35.5716 23.4654
35.759 23.2204
35.9468 22.8348
36.1345 22.6215
36.3222 22.4063
36.5101 22.1778
36.6981 21.7989
36.8861 21.5464
37.0743 21.3044
37.2626 20.9824
37.451 20.7564
37.6395 20.5587
37.8281 20.2443
38.0168 19.9447
38.2056 19.776
38.3945 19.4924
38.5837 19.2527
38.7728 18.9648
38.9621 18.6888
39.1514 18.5297
39.3409 18.2153
39.5304 17.9943
39.7201 17.887
39.9099 17.6031
40.0999 17.3456
40.2899 17.1846
40.48 16.8833
40.6703 16.7548
40.8607 16.528
41.0512 16.3245
41.242 16.0738
41.4327 15.8349
41.6236 15.6341
41.8146 15.4709
42.0057 15.2287
42.1969 15.0096
42.3882 14.8789
42.5797 14.6278
42.7713 14.4566
42.963 14.3112
43.1549 14.0173
43.3468 13.8182
43.5389 13.7179
43.7312 13.4613
43.9237 13.348
44.1162 13.1364
44.3088 12.9206
44.5016 12.7482
44.6945 12.555
44.8875 12.4102
45.0806 12.2433
45.2739 12.1024
45.4673 11.8876
45.6609 11.7043
45.8546 11.5864
46.0484 11.3748
46.2424 11.2009
46.4365 11.093
46.631 10.9122
46.8254 10.7438
47.0199 10.6068
47.2146 10.4781
47.4095 10.2284
47.6044 10.1192
47.7996 9.97245
47.9948 9.82361
48.1902 9.66759
48.3858 9.55913
48.5815 9.42414
48.7774 9.27827
48.9734 9.15335
49.1696 9.01249
49.3661 8.8719
49.5626 8.70276
49.7592 8.60985
49.956 8.44448
50.153 8.33281
50.3501 8.17088
50.5474 8.10763
50.7448 7.9449
50.9424 7.86602
51.1402 7.72124
51.3381 7.57469
51.5362 7.48652
51.7344 7.35817
51.9328 7.20296
52.1316 7.11563
52.3304 7.00891
52.5293 6.87309
52.7284 6.75318
52.9276 6.61355
53.1271 6.54078
53.3267 6.43367
53.5265 6.29366
53.7264 6.19012
53.9266 6.14275
54.1269 6.01299
54.3274 5.85304
54.528 5.71913
54.7289 5.57396
54.9301 5.46035
55.1314 5.30153
55.3328 5.12825
55.5344 4.92286
55.7361 4.79035