File: XRD/Ni3Fe_FD0011.xy
TT I
1.27165 36.5069
1.45013 32.0979
1.62863 28.4681
1.80712 26.414
1.98562 26.0711
2.16411 26.0367
2.34263 26.6931
2.52115 27.1599
2.69965 29.9535
2.87818 40.6883
3.05672 66.1398
3.23527 81.2733
3.4138 45.2255
3.59237 39.4811
3.77094 41.9983
3.9495 43.7937
4.12809 54.3906
4.30669 78.0565
4.4853 68.933
4.6639 55.5432
4.84253 60.4003
5.02118 91.7791
5.19981 254.728
5.37848 4059.47
5.55716 163.469
5.73586 100.259
5.91455 108.038
6.09328 409.157
6.27201 361.25
6.45075 73.5108
6.62952 54.7982
6.8083 52.391
6.98711 48.4289
7.16591 51.5685
7.34475 70.0033
7.5236 64.0221
7.70247 52.1443
7.88135 39.6511
8.06026 40.2286
8.23919 44.4927
8.41812 55.4468
8.59709 142.957
8.77609 750.042
8.9551 81.1318
9.13412 59.2021
9.31318 242.592
9.49226 51.9014
9.67134 50.437
9.85047 55.9047
10.0296 88.1603
10.2088 382.671
10.388 152.828
10.5672 88.8833
10.7465 298.148
10.9257 49.3935
11.105 41.9359
11.2844 40.4206
11.4637 38.6811
11.6431 37.6721
11.8225 37.1789
12.002 64.9486
12.1814 46.1856
12.3609 86.8234
12.5405 46.3646
12.72 39.4065
12.8996 39.3186
13.0792 41.3636
13.2589 61.8704
13.4386 121.168
13.6183 102.358
13.7981 129.968
13.9779 70.3934
14.1577 45.3829
14.3376 52.8655
14.5175 36.6664
14.6974 36.1738
14.8774 40.4664
15.0574 55.1559
15.2374 113.593
15.4175 41.3218
15.5976 37.2317
15.7778 39.4614
15.958 50.6539
16.1382 134.05
16.3185 40.8006
16.4988 32.9224
16.6792 31.0475
16.8596 30.6832
17.04 38.549
17.2205 32.4778
17.401 34.7896
17.5815 51.721
17.7622 34.3597
17.9428 41.1324
18.1237 42.2273
18.3044 78.2334
18.4852 60.39
18.666 75.2545
18.8469 36.1076
19.0278 32.5977
19.2088 32.2408
19.3898 37.4851
19.5709 45.6642
19.752 37.8256
19.9332 31.0721
20.1144 31.704
20.2957 39.5658
20.477 40.319
20.6586 43.0271
20.84 30.9124
21.0215 30.0497
21.203 27.7766
21.3846 27.9725
21.5662 32.6208
21.7479 28.9452
21.9297 30.2508
22.1115 38.2403
22.2933 47.1306
22.4753 38.3138
22.6572 29.5998
22.8393 29.4733
23.0214 31.1045
23.2037 36.3732
23.3859 36.7277
23.5682 34.4262
23.7505 33.0388
23.9329 46.6666
24.1154 29.6288
24.2979 27.1677
24.4805 25.848
24.6631 25.735
24.8458 27.8226
25.0286 25.694
25.2114 25.6692
25.3943 27.9548
25.5773 30.6331
25.7605 31.1113
25.9436 26.6238
26.1268 25.3489
26.31 25.9409
26.4933 29.0192
26.6767 25.7175
26.8601 26.6647
27.0437 32.1297
27.2272 28.0866
27.4109 24.493
27.5946 24.1587
27.7784 24.3955
27.9623 25.6147
28.1462 25.4343
28.3304 26.5977
28.5145 28.8288
28.6987 26.1355
28.8829 23.0043
29.0673 22.2658
29.2517 23.1297
29.4361 22.1619
29.6207 21.6597
29.8053 23.0269
29.99 21.2758
30.1748 20.9664
30.3597 21.0255
30.5447 21.0718
30.7297 21.2886
30.915 20.9481
31.1002 23.1307
31.2855 22.5828
31.4708 20.6408
31.6563 20.372
31.8418 21.4083
32.0275 20.9457
32.2132 20.4797
32.399 21.4045
32.5848 19.9955
32.7708 19.0047
32.9569 18.6025
33.143 18.8483
33.3293 18.3535
33.5158 18.7338
33.7022 19.4168
33.8887 18.2727
34.0753 17.7853
34.262 17.573
34.4488 17.4725
34.6357 16.9463
34.8227 17.0751
35.0098 16.5376
35.1969 16.2713
35.3842 16.2648
35.5716 16.247
35.759 16.5328
35.9468 17.0527
36.1345 16.3781
36.3222 15.7721
36.5101 15.6488
36.6981 15.755
36.8861 15.2714
37.0743 15.3869
37.2626 14.9864
37.451 14.6333
37.6395 14.468
37.8281 14.3107
38.0168 14.081
38.2056 14.06
38.3945 13.729
38.5837 13.4757
38.7728 13.4836
38.9621 13.3367
39.1514 13.2783
39.3409 13.0216
39.5304 12.7531
39.7201 12.5832
39.9099 12.5067
40.0999 12.3586
40.2899 12.4028
40.48 12.2491
40.6703 12.0426
40.8607 11.8554
41.0512 11.7279
41.242 11.7334
41.4327 11.5053
41.6236 11.2134
41.8146 11.1815
42.0057 10.9918
42.1969 10.9509
42.3882 10.8506
42.5797 10.5834
42.7713 10.4245
42.963 10.2521
43.1549 10.1178
43.3468 9.95408
43.5389 9.80513
43.7312 9.69674
43.9237 9.57591
44.1162 9.50229
44.3088 9.48023
44.5016 9.25587
44.6945 9.13208
44.8875 9.06164
45.0806 8.93685
45.2739 8.82899
45.4673 8.62925
45.6609 8.5003
45.8546 8.43779
46.0484 8.36429
46.2424 8.23165
46.4365 8.12483
46.631 8.02355
46.8254 7.86111
47.0199 7.75827
47.2146 7.69021
47.4095 7.547
47.6044 7.41578
47.7996 7.3329
47.9948 7.25731
48.1902 7.13582
48.3858 6.95723
48.5815 6.90347
48.7774 6.8005
48.9734 6.73099
49.1696 6.6096
49.3661 6.53945
49.5626 6.48597
49.7592 6.39181
49.956 6.26504
50.153 6.19508
50.3501 6.11515
50.5474 5.99213
50.7448 5.92059
50.9424 5.84034
51.1402 5.76943
51.3381 5.68815
51.5362 5.61691
51.7344 5.53486
51.9328 5.44198
52.1316 5.30629
52.3304 5.22394
52.5293 5.16198
52.7284 5.06892
52.9276 4.98852
53.1271 4.92774
53.3267 4.81061
53.5265 4.77264
53.7264 4.64446
53.9266 4.59229
54.1269 4.48851
54.3274 4.42282
54.528 4.24181
54.7289 4.16213
54.9301 3.99065
55.1314 3.8827
55.3328 3.68449
55.5344 3.6366
55.7361 3.55636