File: XRD/Ni3Fe_FD0896.xy
TT I
1.27165 6.94553
1.45013 6.56937
1.62863 5.48034
1.80712 4.55295
1.98562 4.26209
2.16411 4.67934
2.34263 5.49943
2.52115 7.42649
2.69965 7.96643
2.87818 9.45491
3.05672 11.1361
3.23527 15.0579
3.4138 18.8017
3.59237 23.4669
3.77094 25.9328
3.9495 29.5688
4.12809 33.9901
4.30669 182.331
4.4853 61.606
4.6639 54.8882
4.84253 66.0764
5.02118 84.9604
5.19981 309.465
5.37848 169.265
5.55716 99.1646
5.73586 90.2254
5.91455 91.9077
6.09328 4485.18
6.27201 79.4391
6.45075 65.9629
6.62952 61.2846
6.8083 57.2425
6.98711 54.8577
7.16591 54.3401
7.34475 82.9956
7.5236 53.8571
7.70247 54.9974
7.88135 56.6289
8.06026 60.8508
8.23919 68.1179
8.41812 82.9179
8.59709 1183.63
8.77609 95.6072
8.9551 88.3905
9.13412 80.384
9.31318 80.7593
9.49226 82.9319
9.67134 94.5378
9.85047 97.4204
10.0296 316.694
10.2088 339.577
10.388 102.149
10.5672 534.399
10.7465 84.2088
10.9257 76.3698
11.105 70.1965
11.2844 68.6017
11.4637 63.7438
11.6431 62.252
11.8225 61.0189
12.002 62.2334
12.1814 157.21
12.3609 67.7757
12.5405 63.0726
12.72 68.0133
12.8996 69.4179
13.0792 77.5637
13.2589 236.875
13.4386 114.984
13.6183 251.799
13.7981 91.4166
13.9779 74.182
14.1577 70.6511
14.3376 69.6754
14.5175 67.4486
14.6974 68.8362
14.8774 107.386
15.0574 137.123
15.2374 68.937
15.4175 64.8811
15.5976 64.401
15.7778 91.668
15.958 149.921
16.1382 60.9881
16.3185 57.1892
16.4988 54.346
16.6792 53.2395
16.8596 54.0555
17.04 54.662
17.2205 65.0775
17.401 68.0848
17.5815 57.9049
17.7622 60.0548
17.9428 71.221
18.1237 140.029
18.3044 89.7462
18.4852 73.6945
18.666 59.0096
18.8469 56.78
19.0278 55.6359
19.2088 58.0846
19.3898 75.8758
19.5709 53.1268
19.752 52.0355
19.9332 55.1813
20.1144 69.1676
20.2957 63.9346
20.477 52.0811
20.6586 48.6879
20.84 47.7488
21.0215 47.5842
21.203 50.2168
21.3846 47.9231
21.5662 47.7777
21.7479 51.5401
21.9297 64.2546
22.1115 55.5119
22.2933 48.5461
22.4753 47.9897
22.6572 47.7691
22.8393 50.9995
23.0214 56.3584
23.2037 47.8382
23.3859 48.8733
23.5682 57.0296
23.7505 47.0709
23.9329 44.4171
24.1154 43.2243
24.2979 42.502
24.4805 41.9055
24.6631 41.8073
24.8458 41.3514
25.0286 41.9784
25.2114 43.9518
25.3943 43.7589
25.5773 40.2427
25.7605 39.6412
25.9436 40.0132
26.1268 41.0688
26.31 39.2741
26.4933 40.1519
26.6767 41.431
26.8601 39.7385
27.0437 38.1459
27.2272 37.7245
27.4109 37.6711
27.5946 37.6216
27.7784 37.2338
27.9623 37.756
28.1462 38.251
28.3304 36.4314
28.5145 35.3114
28.6987 35.0781
28.8829 34.7798
29.0673 34.1599
29.2517 33.6373
29.4361 33.4826
29.6207 32.5656
29.8053 32.2223
29.99 32.051
30.1748 31.8352
30.3597 31.5685
30.5447 31.6212
30.7297 31.6716
30.915 31.0697
31.1002 30.5326
31.2855 30.2699
31.4708 30.2636
31.6563 29.7467
31.8418 29.6305
32.0275 29.3024
32.2132 28.9228
32.399 28.4573
32.5848 28.0018
32.7708 27.7288
32.9569 27.4822
33.143 27.3522
33.3293 26.8935
33.5158 26.5236
33.7022 26.0581
33.8887 25.8662
34.0753 25.4555
34.262 25.1882
34.4488 24.8356
34.6357 24.4928
34.8227 24.2816
35.0098 24.0638
35.1969 23.7823
35.3842 23.5581
35.5716 23.4219
35.759 23.1079
35.9468 22.7715
36.1345 22.4662
36.3222 22.2866
36.5101 22.0624
36.6981 21.7802
36.8861 21.3965
37.0743 21.1222
37.2626 20.8512
37.451 20.6167
37.6395 20.3962
37.8281 20.2316
38.0168 19.8288
38.2056 19.5447
38.3945 19.2663
38.5837 19.1158
38.7728 18.8849
38.9621 18.579
39.1514 18.3908
39.3409 18.1585
39.5304 17.9339
39.7201 17.7828
39.9099 17.5103
40.0999 17.2901
40.2899 17.0646
40.48 16.8333
40.6703 16.5904
40.8607 16.4472
41.0512 16.2005
41.242 15.9392
41.4327 15.8016
41.6236 15.5735
41.8146 15.3665
42.0057 15.1753
42.1969 14.9424
42.3882 14.7603
42.5797 14.5827
42.7713 14.3737
42.963 14.1537
43.1549 13.9838
43.3468 13.7599
43.5389 13.6133
43.7312 13.3577
43.9237 13.2129
44.1162 13.036
44.3088 12.8461
44.5016 12.6738
44.6945 12.475
44.8875 12.3356
45.0806 12.1515
45.2739 11.9628
45.4673 11.8097
45.6609 11.6297
45.8546 11.4909
46.0484 11.3246
46.2424 11.1436
46.4365 10.999
46.631 10.8482
46.8254 10.7058
47.0199 10.5058
47.2146 10.3886
47.4095 10.2197
47.6044 10.0391
47.7996 9.91633
47.9948 9.75778
48.1902 9.64654
48.3858 9.49142
48.5815 9.35722
48.7774 9.26686
48.9734 9.11693
49.1696 8.95331
49.3661 8.80166
49.5626 8.65955
49.7592 8.53924
49.956 8.39081
50.153 8.27983
50.3501 8.16222
50.5474 8.03264
50.7448 7.91834
50.9424 7.80601
51.1402 7.64526
51.3381 7.5277
51.5362 7.42641
51.7344 7.33584
51.9328 7.16924
52.1316 7.09222
52.3304 6.95006
52.5293 6.84623
52.7284 6.73147
52.9276 6.62003
53.1271 6.51668
53.3267 6.39461
53.5265 6.26637
53.7264 6.19098
53.9266 6.02834
54.1269 5.94849
54.3274 5.8628
54.528 5.70703
54.7289 5.55018
54.9301 5.40227
55.1314 5.24805
55.3328 5.05577
55.5344 4.87439
55.7361 4.71404