File: XRD/Ni3Fe_FD0960.xy
TT I
1.27165 7.52716
1.45013 6.44587
1.62863 5.33464
1.80712 4.59073
1.98562 4.74726
2.16411 4.67848
2.34263 5.59683
2.52115 7.30484
2.69965 8.76143
2.87818 9.32724
3.05672 11.2046
3.23527 15.4932
3.4138 18.6337
3.59237 23.7875
3.77094 25.9697
3.9495 29.5922
4.12809 33.923
4.30669 179.698
4.4853 60.6903
4.6639 54.2904
4.84253 66.0141
5.02118 85.0201
5.19981 287.244
5.37848 175.123
5.55716 99.8857
5.73586 90.6249
5.91455 91.2027
6.09328 4564.94
6.27201 80.0552
6.45075 66.5306
6.62952 61.4994
6.8083 57.7619
6.98711 55.003
7.16591 54.7733
7.34475 83.1175
7.5236 54.0577
7.70247 55.5864
7.88135 56.7179
8.06026 61.0891
8.23919 68.2073
8.41812 82.6324
8.59709 1162.87
8.77609 95.9975
8.9551 89.2675
9.13412 80.5875
9.31318 81.5624
9.49226 83.1282
9.67134 95.3813
9.85047 97.8487
10.0296 307.917
10.2088 363.005
10.388 101.695
10.5672 529.739
10.7465 84.7056
10.9257 76.7676
11.105 70.2054
11.2844 68.4621
11.4637 63.5764
11.6431 62.4363
11.8225 61.2689
12.002 62.1718
12.1814 156.233
12.3609 68.3241
12.5405 63.3325
12.72 68.1223
12.8996 69.3616
13.0792 77.3942
13.2589 237.694
13.4386 119.009
13.6183 249.452
13.7981 94.8394
13.9779 74.3773
14.1577 70.9778
14.3376 69.869
14.5175 67.2812
14.6974 69.0142
14.8774 106.952
15.0574 145.146
15.2374 69.2385
15.4175 65.0648
15.5976 64.5336
15.7778 92.0198
15.958 148.785
16.1382 61.1815
16.3185 57.3913
16.4988 54.6322
16.6792 53.4768
16.8596 53.9398
17.04 54.5427
17.2205 65.3978
17.401 69.0136
17.5815 57.8406
17.7622 59.8689
17.9428 71.2751
18.1237 137.393
18.3044 90.0331
18.4852 75.1663
18.666 59.1682
18.8469 56.7503
19.0278 55.7264
19.2088 58.4139
19.3898 74.6207
19.5709 53.2241
19.752 52.3023
19.9332 54.9386
20.1144 68.7028
20.2957 63.7821
20.477 52.5151
20.6586 48.6428
20.84 47.8178
21.0215 47.7492
21.203 49.9942
21.3846 48.0641
21.5662 47.7937
21.7479 51.4562
21.9297 63.2803
22.1115 55.3278
22.2933 48.8717
22.4753 47.9308
22.6572 47.8425
22.8393 51.0054
23.0214 56.1087
23.2037 47.8574
23.3859 48.7035
23.5682 56.5059
23.7505 47.3345
23.9329 44.253
24.1154 43.4448
24.2979 42.6107
24.4805 42.1585
24.6631 42.1572
24.8458 41.4292
25.0286 42.1707
25.2114 43.8398
25.3943 43.7765
25.5773 40.1257
25.7605 39.6308
25.9436 40.1499
26.1268 40.9895
26.31 39.4487
26.4933 40.0606
26.6767 41.4384
26.8601 39.7064
27.0437 38.1238
27.2272 37.8781
27.4109 37.7881
27.5946 37.6181
27.7784 37.272
27.9623 37.879
28.1462 38.0846
28.3304 36.6025
28.5145 35.3739
28.6987 35.022
28.8829 34.7828
29.0673 34.0765
29.2517 33.7795
29.4361 33.5085
29.6207 32.6083
29.8053 32.294
29.99 32.063
30.1748 31.8584
30.3597 31.7049
30.5447 31.6134
30.7297 31.7176
30.915 30.9923
31.1002 30.5251
31.2855 30.3339
31.4708 30.2793
31.6563 29.9306
31.8418 29.6378
32.0275 29.4604
32.2132 28.8705
32.399 28.4854
32.5848 27.8826
32.7708 27.7558
32.9569 27.4733
33.143 27.423
33.3293 26.9743
33.5158 26.5569
33.7022 26.1419
33.8887 25.8631
34.0753 25.5289
34.262 25.1668
34.4488 24.8526
34.6357 24.6164
34.8227 24.2484
35.0098 24.0634
35.1969 23.7952
35.3842 23.5753
35.5716 23.3261
35.759 23.0877
35.9468 22.7276
36.1345 22.5723
36.3222 22.243
36.5101 22.0352
36.6981 21.6952
36.8861 21.4013
37.0743 21.1107
37.2626 20.8606
37.451 20.6275
37.6395 20.434
37.8281 20.1449
38.0168 19.8198
38.2056 19.6055
38.3945 19.3457
38.5837 19.1216
38.7728 18.9024
38.9621 18.6157
39.1514 18.413
39.3409 18.1412
39.5304 17.9175
39.7201 17.767
39.9099 17.5216
40.0999 17.248
40.2899 17.0381
40.48 16.8513
40.6703 16.6923
40.8607 16.4205
41.0512 16.2452
41.242 15.958
41.4327 15.7632
41.6236 15.6134
41.8146 15.3984
42.0057 15.1258
42.1969 14.9556
42.3882 14.8145
42.5797 14.601
42.7713 14.343
42.963 14.1991
43.1549 13.9775
43.3468 13.7668
43.5389 13.633
43.7312 13.4471
43.9237 13.1986
44.1162 13.0707
44.3088 12.8513
44.5016 12.6587
44.6945 12.5012
44.8875 12.3343
45.0806 12.1981
45.2739 12.0202
45.4673 11.8532
45.6609 11.6652
45.8546 11.484
46.0484 11.3264
46.2424 11.196
46.4365 11.0464
46.631 10.8274
46.8254 10.6647
47.0199 10.5266
47.2146 10.3677
47.4095 10.1849
47.6044 10.0529
47.7996 9.91149
47.9948 9.75566
48.1902 9.66035
48.3858 9.52175
48.5815 9.3494
48.7774 9.27362
48.9734 9.08808
49.1696 8.9348
49.3661 8.80637
49.5626 8.66256
49.7592 8.53908
49.956 8.46059
50.153 8.31855
50.3501 8.1787
50.5474 8.07021
50.7448 7.93846
50.9424 7.80635
51.1402 7.65637
51.3381 7.54939
51.5362 7.43694
51.7344 7.31797
51.9328 7.20343
52.1316 7.05884
52.3304 6.97519
52.5293 6.8353
52.7284 6.7281
52.9276 6.62495
53.1271 6.50327
53.3267 6.40162
53.5265 6.27921
53.7264 6.17218
53.9266 6.08902
54.1269 5.9898
54.3274 5.82714
54.528 5.73307
54.7289 5.53285
54.9301 5.38246
55.1314 5.2805
55.3328 5.09163
55.5344 4.894
55.7361 4.70672