File: XRD/Ni3Fe_FD0907.xy
TT I
1.27165 7.15098
1.45013 6.28056
1.62863 5.23964
1.80712 4.75593
1.98562 4.704
2.16411 4.61217
2.34263 5.69457
2.52115 6.96416
2.69965 8.58946
2.87818 9.49058
3.05672 10.9666
3.23527 15.1045
3.4138 18.8796
3.59237 23.1308
3.77094 25.4188
3.9495 28.8046
4.12809 33.7774
4.30669 141.836
4.4853 57.2047
4.6639 54.5537
4.84253 66.9077
5.02118 85.6837
5.19981 342.982
5.37848 175.651
5.55716 100.258
5.73586 91.0062
5.91455 92.8398
6.09328 4570.52
6.27201 79.0754
6.45075 67.0296
6.62952 61.5949
6.8083 57.8401
6.98711 54.7743
7.16591 54.566
7.34475 74.956
7.5236 53.7634
7.70247 55.3251
7.88135 56.8313
8.06026 61.3244
8.23919 68.466
8.41812 83.0713
8.59709 1192.4
8.77609 95.8301
8.9551 88.1202
9.13412 80.9825
9.31318 82.288
9.49226 83.387
9.67134 94.3203
9.85047 98.5668
10.0296 326.404
10.2088 331.316
10.388 102.365
10.5672 542.05
10.7465 84.783
10.9257 76.6214
11.105 70.4083
11.2844 68.0256
11.4637 63.8938
11.6431 62.4864
11.8225 61.5329
12.002 62.8278
12.1814 157.006
12.3609 66.5701
12.5405 63.5868
12.72 67.3638
12.8996 69.8527
13.0792 78.2049
13.2589 242.195
13.4386 113.98
13.6183 257.297
13.7981 91.3893
13.9779 74.4661
14.1577 70.6812
14.3376 69.4134
14.5175 67.6791
14.6974 69.3751
14.8774 109.484
15.0574 138.81
15.2374 68.8785
15.4175 65.1286
15.5976 64.9501
15.7778 92.8731
15.958 146.001
16.1382 60.5779
16.3185 57.1072
16.4988 54.3314
16.6792 53.2194
16.8596 53.9338
17.04 54.8547
17.2205 65.6869
17.401 67.5197
17.5815 58.0788
17.7622 60.1066
17.9428 72.0614
18.1237 139.682
18.3044 90.5417
18.4852 73.2042
18.666 59.3038
18.8469 56.747
19.0278 55.7325
19.2088 58.1089
19.3898 74.7616
19.5709 53.0982
19.752 52.2579
19.9332 55.2133
20.1144 69.4378
20.2957 63.967
20.477 51.8056
20.6586 48.7612
20.84 47.9665
21.0215 47.4667
21.203 50.114
21.3846 47.8192
21.5662 48.0412
21.7479 51.7149
21.9297 64.2186
22.1115 55.7109
22.2933 48.6616
22.4753 47.9246
22.6572 48.0671
22.8393 51.2183
23.0214 56.1062
23.2037 47.8241
23.3859 48.7383
23.5682 56.9221
23.7505 46.8381
23.9329 44.3828
24.1154 43.2443
24.2979 42.688
24.4805 42.2571
24.6631 42.0483
24.8458 41.4564
25.0286 42.2119
25.2114 43.9108
25.3943 43.6641
25.5773 40.1722
25.7605 39.7339
25.9436 40.0801
26.1268 41.0053
26.31 39.3459
26.4933 40.0246
26.6767 41.4881
26.8601 39.6969
27.0437 38.14
27.2272 37.9451
27.4109 37.7248
27.5946 37.7366
27.7784 37.1498
27.9623 37.7881
28.1462 37.9439
28.3304 36.405
28.5145 35.161
28.6987 34.9803
28.8829 34.8525
29.0673 33.9495
29.2517 33.6974
29.4361 33.6531
29.6207 32.5247
29.8053 32.3763
29.99 31.9562
30.1748 31.8648
30.3597 31.5952
30.5447 31.5928
30.7297 31.7205
30.915 30.97
31.1002 30.5819
31.2855 30.3368
31.4708 30.3323
31.6563 29.9251
31.8418 29.6485
32.0275 29.3229
32.2132 28.7919
32.399 28.4013
32.5848 28.0015
32.7708 27.6602
32.9569 27.4873
33.143 27.3567
33.3293 26.9213
33.5158 26.5446
33.7022 26.1876
33.8887 25.881
34.0753 25.4868
34.262 25.2255
34.4488 24.875
34.6357 24.5552
34.8227 24.2773
35.0098 24.0715
35.1969 23.6793
35.3842 23.5184
35.5716 23.4341
35.759 23.0795
35.9468 22.7245
36.1345 22.5345
36.3222 22.2484
36.5101 22.0357
36.6981 21.7793
36.8861 21.3654
37.0743 21.0901
37.2626 20.9004
37.451 20.5963
37.6395 20.5003
37.8281 20.1337
38.0168 19.7727
38.2056 19.5834
38.3945 19.3081
38.5837 19.1317
38.7728 18.8289
38.9621 18.6159
39.1514 18.3032
39.3409 18.202
39.5304 17.9182
39.7201 17.7153
39.9099 17.5313
40.0999 17.3074
40.2899 17.083
40.48 16.8516
40.6703 16.6564
40.8607 16.4754
41.0512 16.1772
41.242 15.9409
41.4327 15.7712
41.6236 15.499
41.8146 15.4022
42.0057 15.1999
42.1969 14.9456
42.3882 14.7939
42.5797 14.5818
42.7713 14.3953
42.963 14.1767
43.1549 13.9933
43.3468 13.788
43.5389 13.6014
43.7312 13.4354
43.9237 13.2177
44.1162 13.0744
44.3088 12.8911
44.5016 12.6858
44.6945 12.4958
44.8875 12.3608
45.0806 12.1325
45.2739 12.0002
45.4673 11.8346
45.6609 11.6026
45.8546 11.4718
46.0484 11.3592
46.2424 11.1851
46.4365 11.0428
46.631 10.8047
46.8254 10.6335
47.0199 10.5208
47.2146 10.3858
47.4095 10.2208
47.6044 10.0646
47.7996 9.93059
47.9948 9.7442
48.1902 9.65139
48.3858 9.49152
48.5815 9.32229
48.7774 9.2296
48.9734 9.08
49.1696 8.95741
49.3661 8.81402
49.5626 8.65043
49.7592 8.55426
49.956 8.43059
50.153 8.29542
50.3501 8.16352
50.5474 8.02544
50.7448 7.88554
50.9424 7.81376
51.1402 7.65173
51.3381 7.52833
51.5362 7.44632
51.7344 7.31691
51.9328 7.20836
52.1316 7.0535
52.3304 6.92503
52.5293 6.82431
52.7284 6.74501
52.9276 6.58949
53.1271 6.50394
53.3267 6.39793
53.5265 6.27565
53.7264 6.16019
53.9266 6.09071
54.1269 5.95658
54.3274 5.88569
54.528 5.71899
54.7289 5.54545
54.9301 5.37958
55.1314 5.25192
55.3328 5.09235
55.5344 4.93082
55.7361 4.76141