File: XRD/Ni3Fe_FD1035.xy
TT I
1.27165 6.96217
1.45013 5.78779
1.62863 4.99329
1.80712 4.36157
1.98562 4.45922
2.16411 4.26929
2.34263 5.23409
2.52115 7.25254
2.69965 8.76664
2.87818 9.33599
3.05672 10.6928
3.23527 14.5096
3.4138 17.8863
3.59237 21.0999
3.77094 24.5937
3.9495 28.0905
4.12809 32.346
4.30669 57.0786
4.4853 46.1896
4.6639 52.771
4.84253 64.0822
5.02118 83.2578
5.19981 231.183
5.37848 218.079
5.55716 97.367
5.73586 87.4015
5.91455 88.7725
6.09328 4602.68
6.27201 75.7704
6.45075 63.1486
6.62952 58.2718
6.8083 54.5674
6.98711 52.6639
7.16591 51.6674
7.34475 56.1885
7.5236 60.1833
7.70247 52.9412
7.88135 54.8613
8.06026 59.2087
8.23919 65.4062
8.41812 77.3903
8.59709 1073.77
8.77609 95.0538
8.9551 82.2886
9.13412 79.2174
9.31318 90.9567
9.49226 81.344
9.67134 86.6625
9.85047 93.7035
10.0296 340.792
10.2088 440.148
10.388 97.5884
10.5672 507.033
10.7465 86.6446
10.9257 73.3676
11.105 68.0696
11.2844 64.9163
11.4637 61.8354
11.6431 60.5446
11.8225 59.3592
12.002 67.4947
12.1814 147.372
12.3609 64.3098
12.5405 61.208
12.72 63.7854
12.8996 67.67
13.0792 76.4383
13.2589 225.695
13.4386 126.863
13.6183 235.203
13.7981 100.253
13.9779 73.4722
14.1577 76.2052
14.3376 67.19
14.5175 66.113
14.6974 67.3001
14.8774 108.776
15.0574 160.507
15.2374 66.2983
15.4175 63.9568
15.5976 63.3024
15.7778 93.2449
15.958 166.616
16.1382 59.984
16.3185 55.4662
16.4988 53.2176
16.6792 52.2385
16.8596 52.7858
17.04 53.7073
17.2205 64.4787
17.401 71.3389
17.5815 57.2184
17.7622 59.6864
17.9428 72.6254
18.1237 141.501
18.3044 88.3144
18.4852 78.8353
18.666 58.7026
18.8469 56.1455
19.0278 54.9997
19.2088 57.739
19.3898 76.2456
19.5709 52.8494
19.752 51.6763
19.9332 54.8833
20.1144 70.0971
20.2957 63.5349
20.477 52.7395
20.6586 48.4278
20.84 47.7351
21.0215 47.2118
21.203 49.4374
21.3846 47.5428
21.5662 47.5534
21.7479 51.6124
21.9297 65.2036
22.1115 55.5728
22.2933 48.7672
22.4753 47.4596
22.6572 47.3555
22.8393 51.0354
23.0214 57.4507
23.2037 47.6733
23.3859 49.1613
23.5682 57.0556
23.7505 48.1131
23.9329 44.1394
24.1154 42.9882
24.2979 42.3078
24.4805 41.8301
24.6631 41.9246
24.8458 41.0965
25.0286 41.8021
25.2114 44.0746
25.3943 44.3329
25.5773 39.9202
25.7605 39.5393
25.9436 39.9183
26.1268 41.1419
26.31 39.3305
26.4933 39.8022
26.6767 41.7505
26.8601 40.0603
27.0437 38.1828
27.2272 37.7194
27.4109 37.6305
27.5946 37.7645
27.7784 37.2453
27.9623 37.8551
28.1462 38.5394
28.3304 36.6939
28.5145 35.2473
28.6987 34.9379
28.8829 34.7426
29.0673 34.048
29.2517 33.5552
29.4361 33.6014
29.6207 32.5173
29.8053 32.1043
29.99 31.8931
30.1748 31.8494
30.3597 31.5534
30.5447 31.6098
30.7297 31.7333
30.915 31.1088
31.1002 30.652
31.2855 30.3379
31.4708 30.3728
31.6563 29.906
31.8418 29.71
32.0275 29.4557
32.2132 28.8507
32.399 28.386
32.5848 27.9735
32.7708 27.6448
32.9569 27.5813
33.143 27.3209
33.3293 27.0162
33.5158 26.5423
33.7022 26.1719
33.8887 25.8502
34.0753 25.5462
34.262 25.2133
34.4488 24.8574
34.6357 24.5032
34.8227 24.1351
35.0098 24.0847
35.1969 23.6807
35.3842 23.5494
35.5716 23.3085
35.759 23.0293
35.9468 22.668
36.1345 22.4023
36.3222 22.2097
36.5101 22.0003
36.6981 21.6807
36.8861 21.4452
37.0743 21.0934
37.2626 20.8752
37.451 20.596
37.6395 20.4409
37.8281 20.1102
38.0168 19.8795
38.2056 19.5954
38.3945 19.323
38.5837 19.0484
38.7728 18.8387
38.9621 18.577
39.1514 18.3481
39.3409 18.1011
39.5304 17.9055
39.7201 17.7352
39.9099 17.4542
40.0999 17.2618
40.2899 17.0248
40.48 16.8111
40.6703 16.6361
40.8607 16.4907
41.0512 16.2201
41.242 15.9399
41.4327 15.7737
41.6236 15.5667
41.8146 15.3637
42.0057 15.1649
42.1969 14.903
42.3882 14.7839
42.5797 14.5661
42.7713 14.3128
42.963 14.1452
43.1549 13.954
43.3468 13.7853
43.5389 13.5966
43.7312 13.4235
43.9237 13.2278
44.1162 12.9925
44.3088 12.8438
44.5016 12.6706
44.6945 12.5068
44.8875 12.3056
45.0806 12.1207
45.2739 11.9541
45.4673 11.8149
45.6609 11.6307
45.8546 11.506
46.0484 11.275
46.2424 11.1981
46.4365 10.9911
46.631 10.7975
46.8254 10.6449
47.0199 10.4834
47.2146 10.3751
47.4095 10.1947
47.6044 10.0062
47.7996 9.92462
47.9948 9.76013
48.1902 9.57982
48.3858 9.47807
48.5815 9.33012
48.7774 9.2238
48.9734 9.08368
49.1696 8.97114
49.3661 8.79652
49.5626 8.66899
49.7592 8.52266
49.956 8.41091
50.153 8.26446
50.3501 8.12941
50.5474 8.03552
50.7448 7.90522
50.9424 7.80088
51.1402 7.66126
51.3381 7.53031
51.5362 7.40148
51.7344 7.31354
51.9328 7.16304
52.1316 7.06659
52.3304 6.95496
52.5293 6.81152
52.7284 6.73078
52.9276 6.59917
53.1271 6.51031
53.3267 6.38511
53.5265 6.29212
53.7264 6.1544
53.9266 6.06046
54.1269 5.90865
54.3274 5.84565
54.528 5.70728
54.7289 5.56197
54.9301 5.35899
55.1314 5.28057
55.3328 5.02383
55.5344 4.86304
55.7361 4.73652