File: XRD/Ni3Fe_FD0193.xy
TT I
1.27165 8.08681
1.45013 7.01443
1.62863 6.04867
1.80712 5.05752
1.98562 5.42362
2.16411 4.46282
2.34263 4.73179
2.52115 3.91236
2.69965 5.6228
2.87818 7.70852
3.05672 11.211
3.23527 15.2671
3.4138 19.0628
3.59237 22.2211
3.77094 26.0243
3.9495 30.0082
4.12809 34.4483
4.30669 40.0953
4.4853 48.0116
4.6639 57.6011
4.84253 70.8281
5.02118 96.7581
5.19981 647.427
5.37848 336.29
5.55716 113.008
5.73586 101.289
5.91455 110.483
6.09328 3243.31
6.27201 90.9343
6.45075 70.5875
6.62952 63.5395
6.8083 59.4695
6.98711 56.9295
7.16591 55.9548
7.34475 55.5077
7.5236 59.0074
7.70247 57.4325
7.88135 59.5722
8.06026 64.4704
8.23919 72.0536
8.41812 89.5841
8.59709 1003.68
8.77609 114.849
8.9551 90.4712
9.13412 86.3603
9.31318 89.2069
9.49226 89.3663
9.67134 94.7386
9.85047 105.507
10.0296 566.134
10.2088 725.874
10.388 110.347
10.5672 392.121
10.7465 93.5107
10.9257 80.0193
11.105 74.3019
11.2844 70.0851
11.4637 67.3293
11.6431 66.0077
11.8225 64.8192
12.002 68.0283
12.1814 132.05
12.3609 72.4711
12.5405 66.8716
12.72 69.0554
12.8996 74.0866
13.0792 84.2247
13.2589 221.407
13.4386 166.45
13.6183 212.119
13.7981 126.397
13.9779 79.8262
14.1577 76.6103
14.3376 72.7188
14.5175 72.1713
14.6974 73.8512
14.8774 123.084
15.0574 186.441
15.2374 72.275
15.4175 69.7199
15.5976 69.0913
15.7778 108.402
15.958 178.651
16.1382 64.1262
16.3185 60.0042
16.4988 57.7171
16.6792 56.714
16.8596 57.0365
17.04 58.1177
17.2205 68.0304
17.401 79.4778
17.5815 61.8559
17.7622 64.1482
17.9428 85.8162
18.1237 126.203
18.3044 89.0016
18.4852 88.6546
18.666 63.1407
18.8469 60.7395
19.0278 59.3973
19.2088 63.6984
19.3898 73.2849
19.5709 57.2625
19.752 55.752
19.9332 59.8821
20.1144 70.5644
20.2957 63.1517
20.477 58.0924
20.6586 51.8614
20.84 50.968
21.0215 51.0728
21.203 51.8239
21.3846 51.6957
21.5662 50.9816
21.7479 55.4583
21.9297 64.6829
22.1115 57.0254
22.2933 52.7861
22.4753 50.6647
22.6572 51.1967
22.8393 53.8879
23.0214 58.8327
23.2037 51.0723
23.3859 52.9041
23.5682 55.7695
23.7505 52.3799
23.9329 47.3745
24.1154 45.9606
24.2979 45.2405
24.4805 44.8046
24.6631 44.6591
24.8458 44.203
25.0286 44.6922
25.2114 46.1317
25.3943 46.0328
25.5773 42.7439
25.7605 42.1361
25.9436 42.4858
26.1268 43.0088
26.31 42.0261
26.4933 42.2463
26.6767 43.3169
26.8601 42.1101
27.0437 40.5238
27.2272 40.1632
27.4109 39.8029
27.5946 39.8308
27.7784 39.6066
27.9623 39.7223
28.1462 40.2582
28.3304 38.8356
28.5145 37.4163
28.6987 37.107
28.8829 36.6426
29.0673 36.1438
29.2517 35.5882
29.4361 35.4806
29.6207 34.4605
29.8053 34.1573
29.99 33.8365
30.1748 33.6423
30.3597 33.6179
30.5447 33.3234
30.7297 33.3651
30.915 32.948
31.1002 32.3141
31.2855 32.0311
31.4708 31.884
31.6563 31.6309
31.8418 31.2676
32.0275 31.0177
32.2132 30.479
32.399 30.053
32.5848 29.5722
32.7708 29.241
32.9569 29.0522
33.143 28.7246
33.3293 28.4346
33.5158 28.0557
33.7022 27.7127
33.8887 27.3791
34.0753 26.9842
34.262 26.6183
34.4488 26.3119
34.6357 25.8571
34.8227 25.6216
35.0098 25.4425
35.1969 25.0409
35.3842 24.8071
35.5716 24.5724
35.759 24.3599
35.9468 23.9494
36.1345 23.7465
36.3222 23.5219
36.5101 23.2581
36.6981 22.9437
36.8861 22.6143
37.0743 22.2841
37.2626 22.0086
37.451 21.781
37.6395 21.6254
37.8281 21.2427
38.0168 20.8519
38.2056 20.6458
38.3945 20.454
38.5837 20.1729
38.7728 19.8819
38.9621 19.6383
39.1514 19.42
39.3409 19.0898
39.5304 18.9019
39.7201 18.7071
39.9099 18.4677
40.0999 18.1876
40.2899 18.037
40.48 17.7808
40.6703 17.5029
40.8607 17.2864
41.0512 17.1258
41.242 16.8622
41.4327 16.6797
41.6236 16.3646
41.8146 16.2328
42.0057 15.9596
42.1969 15.7938
42.3882 15.5796
42.5797 15.3535
42.7713 15.2166
42.963 14.9043
43.1549 14.6941
43.3468 14.5337
43.5389 14.333
43.7312 14.0948
43.9237 14.0139
44.1162 13.7438
44.3088 13.567
44.5016 13.3459
44.6945 13.2088
44.8875 12.9629
45.0806 12.7838
45.2739 12.6518
45.4673 12.456
45.6609 12.2604
45.8546 12.1182
46.0484 11.9431
46.2424 11.7515
46.4365 11.6282
46.631 11.42
46.8254 11.1999
47.0199 11.1125
47.2146 10.9545
47.4095 10.7468
47.6044 10.5601
47.7996 10.423
47.9948 10.3149
48.1902 10.1265
48.3858 10.0165
48.5815 9.84244
48.7774 9.75719
48.9734 9.61024
49.1696 9.42754
49.3661 9.26586
49.5626 9.14577
49.7592 9.04469
49.956 8.87904
50.153 8.718
50.3501 8.55386
50.5474 8.4839
50.7448 8.32826
50.9424 8.19191
51.1402 8.08837
51.3381 7.943
51.5362 7.85713
51.7344 7.68965
51.9328 7.54256
52.1316 7.42747
52.3304 7.34447
52.5293 7.20149
52.7284 7.05778
52.9276 6.94359
53.1271 6.86242
53.3267 6.78822
53.5265 6.62814
53.7264 6.49492
53.9266 6.37794
54.1269 6.26708
54.3274 6.12177
54.528 5.94489
54.7289 5.79933
54.9301 5.64359
55.1314 5.52946
55.3328 5.19613
55.5344 5.05689
55.7361 4.91352