File: XRD/Ni3Fe_FD0078.xy
TT I
1.27165 11.2789
1.45013 8.86396
1.62863 7.41135
1.80712 7.36777
1.98562 6.73147
2.16411 5.89851
2.34263 5.52302
2.52115 5.13607
2.69965 6.045
2.87818 8.85747
3.05672 12.0806
3.23527 15.509
3.4138 18.9058
3.59237 21.7355
3.77094 24.3473
3.9495 27.7686
4.12809 31.4247
4.30669 36.3936
4.4853 42.9983
4.6639 52.305
4.84253 65.3578
5.02118 99.861
5.19981 734.097
5.37848 1537.07
5.55716 121.925
5.73586 101.374
5.91455 123.609
6.09328 1289.43
6.27201 114.354
6.45075 66.3218
6.62952 57.6413
6.8083 52.886
6.98711 50.5566
7.16591 49.3471
7.34475 49.7431
7.5236 76.8642
7.70247 52.2803
7.88135 52.9198
8.06026 56.7614
8.23919 64.2693
8.41812 82.8423
8.59709 506.33
8.77609 167.751
8.9551 83.4836
9.13412 80.5167
9.31318 164.377
9.49226 79.7109
9.67134 83.3908
9.85047 94.4731
10.0296 519.897
10.2088 1463.05
10.388 104.811
10.5672 159.702
10.7465 120.453
10.9257 71.3332
11.105 65.587
11.2844 61.574
11.4637 59.2442
11.6431 58.0202
11.8225 57.608
12.002 96.5177
12.1814 81.3723
12.3609 95.9749
12.5405 58.8735
12.72 60.2299
12.8996 64.2212
13.0792 77.2251
13.2589 142.307
13.4386 321.777
13.6183 126.489
13.7981 242.316
13.9779 72.3069
14.1577 93.1827
14.3376 65.096
14.5175 63.5793
14.6974 64.8198
14.8774 105.167
15.0574 188.446
15.2374 66.288
15.4175 61.3229
15.5976 60.9932
15.7778 96.0086
15.958 142.137
16.1382 66.1807
16.3185 53.6773
16.4988 51.2617
16.6792 50.1266
16.8596 50.3223
17.04 52.964
17.2205 57.0854
17.401 74.9576
17.5815 54.709
17.7622 58.6436
17.9428 78.4757
18.1237 75.2422
18.3044 88.0949
18.4852 99.8012
18.666 58.1446
18.8469 54.1662
19.0278 52.7176
19.2088 57.4004
19.3898 59.7903
19.5709 57.8814
19.752 49.3403
19.9332 53.7094
20.1144 54.8507
20.2957 56.2696
20.477 60.9302
20.6586 46.4124
20.84 47.1008
21.0215 45.436
21.203 44.7733
21.3846 47.8163
21.5662 45.2911
21.7479 49.2263
21.9297 50.3286
22.1115 54.9794
22.2933 51.779
22.4753 45.2021
22.6572 45.3685
22.8393 47.3781
23.0214 48.07
23.2037 48.2703
23.3859 48.3299
23.5682 45.6132
23.7505 54.5623
23.9329 42.5919
24.1154 41.1997
24.2979 40.3666
24.4805 39.7466
24.6631 40.1152
24.8458 39.3874
25.0286 39.4193
25.2114 39.8372
25.3943 40.2463
25.5773 39.8848
25.7605 37.7749
25.9436 37.9444
26.1268 37.5645
26.31 38.6549
26.4933 37.4011
26.6767 37.5793
26.8601 38.7948
27.0437 37.2305
27.2272 36.0205
27.4109 35.5805
27.5946 35.5077
27.7784 35.912
27.9623 35.0774
28.1462 35.6398
28.3304 35.3474
28.5145 33.8848
28.6987 33.2405
28.8829 32.6434
29.0673 32.6977
29.2517 31.7619
29.4361 31.4873
29.6207 31.357
29.8053 30.5214
29.99 30.212
30.1748 29.8978
30.3597 30.0296
30.5447 29.7043
30.7297 29.4513
30.915 29.7562
31.1002 29.1459
31.2855 28.6586
31.4708 28.3661
31.6563 28.5659
31.8418 27.9346
32.0275 27.6452
32.2132 27.496
32.399 26.9142
32.5848 26.3715
32.7708 26.1983
32.9569 26.047
33.143 25.6447
33.3293 25.3213
33.5158 25.297
33.7022 24.5933
33.8887 24.3731
34.0753 24.1259
34.262 23.7412
34.4488 23.3661
34.6357 23.0894
34.8227 22.8632
35.0098 22.6327
35.1969 22.3872
35.3842 22.194
35.5716 21.9779
35.759 21.7928
35.9468 21.4132
36.1345 21.1349
36.3222 20.9532
36.5101 20.7652
36.6981 20.4515
36.8861 20.2661
37.0743 19.9662
37.2626 19.6157
37.451 19.4446
37.6395 19.276
37.8281 19.035
38.0168 18.7612
38.2056 18.5188
38.3945 18.2412
38.5837 18.045
38.7728 17.7842
38.9621 17.5474
39.1514 17.3947
39.3409 17.1731
39.5304 16.9001
39.7201 16.7308
39.9099 16.5479
40.0999 16.3448
40.2899 16.1009
40.48 15.8913
40.6703 15.6799
40.8607 15.5449
41.0512 15.2891
41.242 15.1238
41.4327 14.9373
41.6236 14.6596
41.8146 14.5773
42.0057 14.3306
42.1969 14.109
42.3882 13.9305
42.5797 13.7648
42.7713 13.5461
42.963 13.3547
43.1549 13.1909
43.3468 12.9805
43.5389 12.8486
43.7312 12.6626
43.9237 12.5263
44.1162 12.3424
44.3088 12.1447
44.5016 11.939
44.6945 11.781
44.8875 11.6851
45.0806 11.4661
45.2739 11.3057
45.4673 11.2234
45.6609 11.0411
45.8546 10.8936
46.0484 10.7418
46.2424 10.5506
46.4365 10.4369
46.631 10.258
46.8254 10.1171
47.0199 9.92088
47.2146 9.78244
47.4095 9.64718
47.6044 9.51266
47.7996 9.39091
47.9948 9.26669
48.1902 9.13036
48.3858 8.97661
48.5815 8.84978
48.7774 8.73684
48.9734 8.61058
49.1696 8.48898
49.3661 8.36304
49.5626 8.21488
49.7592 8.13521
49.956 8.02086
50.153 7.86146
50.3501 7.73298
50.5474 7.64124
50.7448 7.53547
50.9424 7.38697
51.1402 7.30386
51.3381 7.19008
51.5362 7.06301
51.7344 6.96575
51.9328 6.84362
52.1316 6.68986
52.3304 6.61254
52.5293 6.48108
52.7284 6.37968
52.9276 6.28614
53.1271 6.20762
53.3267 6.07263
53.5265 5.93744
53.7264 5.86719
53.9266 5.74621
54.1269 5.60855
54.3274 5.50705
54.528 5.34157
54.7289 5.14736
54.9301 4.96443
55.1314 4.82389
55.3328 4.63809
55.5344 4.46526
55.7361 4.44136