File: XRD/Ni3Fe_FD0018.xy
TT I
1.27165 35.5443
1.45013 31.2377
1.62863 27.2357
1.80712 25.5768
1.98562 24.7531
2.16411 25.2933
2.34263 25.8439
2.52115 26.1713
2.69965 28.3121
2.87818 39.2967
3.05672 65.6162
3.23527 78.0774
3.4138 42.8449
3.59237 38.9627
3.77094 40.4271
3.9495 41.8148
4.12809 52.9338
4.30669 80.6257
4.4853 63.7429
4.6639 49.8588
4.84253 55.7252
5.02118 87.8744
5.19981 260.721
5.37848 3933.61
5.55716 159.113
5.73586 100.089
5.91455 109.233
6.09328 434.69
6.27201 332.953
6.45075 73.0498
6.62952 55.1815
6.8083 52.3964
6.98711 46.4472
7.16591 49.0743
7.34475 68.9802
7.5236 60.9685
7.70247 48.5932
7.88135 38.4792
8.06026 39.7185
8.23919 44.4125
8.41812 55.6768
8.59709 150.456
8.77609 704.304
8.9551 78.6791
9.13412 58.683
9.31318 249.572
9.49226 52.6058
9.67134 51.6621
9.85047 57.897
10.0296 94.0082
10.2088 440.843
10.388 139.6
10.5672 90.0776
10.7465 285.09
10.9257 48.7615
11.105 42.1755
11.2844 40.5444
11.4637 38.4206
11.6431 37.368
11.8225 36.9434
12.002 70.049
12.1814 46.4719
12.3609 91.7887
12.5405 45.1431
12.72 39.6851
12.8996 39.5684
13.0792 42.0126
13.2589 62.3192
13.4386 136.053
13.6183 95.9236
13.7981 145.85
13.9779 64.7328
14.1577 46.7538
14.3376 49.1379
14.5175 37.2993
14.6974 37.342
14.8774 42.168
15.0574 57.6848
15.2374 100.985
15.4175 41.0496
15.5976 37.8322
15.7778 40.4516
15.958 52.3852
16.1382 125.992
16.3185 39.9266
16.4988 33.2401
16.6792 31.4413
16.8596 31.3829
17.04 39.3349
17.2205 33.1049
17.401 35.6034
17.5815 49.7011
17.7622 34.7229
17.9428 40.4869
18.1237 42.4079
18.3044 85.1614
18.4852 57.4249
18.666 69.1951
18.8469 36.1386
19.0278 33.1168
19.2088 33.0276
19.3898 38.706
19.5709 45.9911
19.752 36.57
19.9332 31.5023
20.1144 32.1801
20.2957 41.1876
20.477 39.1872
20.6586 40.5667
20.84 31.3273
21.0215 29.6778
21.203 28.3118
21.3846 28.5807
21.5662 32.3645
21.7479 29.2698
21.9297 30.6192
22.1115 39.5596
22.2933 44.218
22.4753 36.6044
22.6572 29.9517
22.8393 30.0894
23.0214 30.9862
23.2037 37.8315
23.3859 34.5999
23.5682 34.3204
23.7505 33.5242
23.9329 43.8061
24.1154 29.2973
24.2979 27.2157
24.4805 26.1203
24.6631 25.9978
24.8458 27.7027
25.0286 25.7799
25.2114 26.0523
25.3943 28.3498
25.5773 30.3652
25.7605 29.5393
25.9436 26.7004
26.1268 25.3351
26.31 26.2519
26.4933 28.2001
26.6767 25.6598
26.8601 27.0458
27.0437 31.1164
27.2272 27.3584
27.4109 24.6252
27.5946 24.3574
27.7784 24.7415
27.9623 25.3067
28.1462 25.5532
28.3304 26.8192
28.5145 27.7132
28.6987 25.3045
28.8829 22.9805
29.0673 22.501
29.2517 23.3401
29.4361 22.1404
29.6207 21.7887
29.8053 22.84
29.99 21.2446
30.1748 21.1854
30.3597 21.0314
30.5447 21.2304
30.7297 21.0729
30.915 21.0734
31.1002 23.0393
31.2855 22.0519
31.4708 20.5844
31.6563 20.4655
31.8418 21.3336
32.0275 20.5295
32.2132 20.3963
32.399 21.0542
32.5848 19.8157
32.7708 18.95
32.9569 18.7306
33.143 18.789
33.3293 18.2571
33.5158 18.7769
33.7022 19.1065
33.8887 18.0798
34.0753 17.6684
34.262 17.5812
34.4488 17.264
34.6357 16.9856
34.8227 17.0204
35.0098 16.4836
35.1969 16.2912
35.3842 16.2717
35.5716 16.2009
35.759 16.513
35.9468 16.8006
36.1345 16.1271
36.3222 15.6825
36.5101 15.6229
36.6981 15.523
36.8861 15.1559
37.0743 15.1815
37.2626 14.8511
37.451 14.5544
37.6395 14.4855
37.8281 14.2627
38.0168 14.0767
38.2056 13.9519
38.3945 13.6665
38.5837 13.4492
38.7728 13.4604
38.9621 13.195
39.1514 13.1303
39.3409 12.8605
39.5304 12.7181
39.7201 12.6034
39.9099 12.4459
40.0999 12.3004
40.2899 12.3085
40.48 12.0748
40.6703 11.9995
40.8607 11.8535
41.0512 11.694
41.242 11.6044
41.4327 11.3865
41.6236 11.21
41.8146 11.0385
42.0057 10.9739
42.1969 10.8816
42.3882 10.7695
42.5797 10.4929
42.7713 10.3637
42.963 10.2844
43.1549 10.0915
43.3468 9.94278
43.5389 9.80367
43.7312 9.6215
43.9237 9.55167
44.1162 9.44673
44.3088 9.35089
44.5016 9.15348
44.6945 9.11257
44.8875 8.97015
45.0806 8.87633
45.2739 8.74209
45.4673 8.64333
45.6609 8.5265
45.8546 8.45209
46.0484 8.27758
46.2424 8.1777
46.4365 8.09768
46.631 7.98282
46.8254 7.81566
47.0199 7.71516
47.2146 7.63763
47.4095 7.51319
47.6044 7.38695
47.7996 7.30146
47.9948 7.20978
48.1902 7.10312
48.3858 6.99018
48.5815 6.87941
48.7774 6.79997
48.9734 6.69004
49.1696 6.62749
49.3661 6.53336
49.5626 6.40713
49.7592 6.3447
49.956 6.24209
50.153 6.1658
50.3501 6.04391
50.5474 5.96609
50.7448 5.87815
50.9424 5.83707
51.1402 5.73473
51.3381 5.61619
51.5362 5.59246
51.7344 5.44052
51.9328 5.3842
52.1316 5.27271
52.3304 5.22089
52.5293 5.10188
52.7284 5.04071
52.9276 4.96505
53.1271 4.88592
53.3267 4.78347
53.5265 4.66555
53.7264 4.63184
53.9266 4.57457
54.1269 4.4907
54.3274 4.37449
54.528 4.2394
54.7289 4.1181
54.9301 4.01615
55.1314 3.9056
55.3328 3.73641
55.5344 3.56782
55.7361 3.50396