File: XRD/Ni3Fe_FD0537.xy
TT I
1.27165 7.52009
1.45013 6.48204
1.62863 5.69773
1.80712 5.11179
1.98562 5.02918
2.16411 4.81022
2.34263 5.49112
2.52115 6.84206
2.69965 8.08749
2.87818 8.50196
3.05672 11.28
3.23527 14.9419
3.4138 19.1163
3.59237 24.9415
3.77094 26.5565
3.9495 29.9369
4.12809 35.5358
4.30669 287.595
4.4853 73.0359
4.6639 55.9697
4.84253 67.4374
5.02118 87.1643
5.19981 369.444
5.37848 207.443
5.55716 103.095
5.73586 93.0538
5.91455 95.1726
6.09328 4091.17
6.27201 86.007
6.45075 67.9694
6.62952 64.2316
6.8083 59.9061
6.98711 56.7945
7.16591 56.4151
7.34475 107.416
7.5236 55.7809
7.70247 57.0237
7.88135 58.9008
8.06026 62.9376
8.23919 70.2555
8.41812 86.7393
8.59709 1088.51
8.77609 102.362
8.9551 94.756
9.13412 82.5037
9.31318 83.3088
9.49226 85.0531
9.67134 102.798
9.85047 100.74
10.0296 329.434
10.2088 469.342
10.388 106.764
10.5672 497.332
10.7465 87.6695
10.9257 80.1087
11.105 72.8711
11.2844 72.385
11.4637 65.7359
11.6431 64.5479
11.8225 63.253
12.002 63.9854
12.1814 147.244
12.3609 73.9193
12.5405 65.2937
12.72 72.0672
12.8996 71.6324
13.0792 79.1474
13.2589 224.276
13.4386 132.554
13.6183 231.312
13.7981 103.103
13.9779 76.7792
14.1577 73.5874
14.3376 73.0459
14.5175 69.6285
14.6974 71.3031
14.8774 107.757
15.0574 162.378
15.2374 73.1006
15.4175 67.3743
15.5976 66.2482
15.7778 93.5454
15.958 166.306
16.1382 64.4285
16.3185 60.0341
16.4988 56.1773
16.6792 55.2607
16.8596 56.0018
17.04 56.4143
17.2205 66.1307
17.401 74.2635
17.5815 59.9
17.7622 62.1239
17.9428 73.933
18.1237 138.179
18.3044 89.3174
18.4852 81.4245
18.666 61.3199
18.8469 58.6688
19.0278 57.8865
19.2088 60.1697
19.3898 77.1604
19.5709 55.0468
19.752 53.798
19.9332 56.8365
20.1144 70.4023
20.2957 63.6358
20.477 54.9159
20.6586 50.1865
20.84 49.3946
21.0215 49.1748
21.203 51.2141
21.3846 49.7822
21.5662 49.3938
21.7479 52.7495
21.9297 65.1245
22.1115 56.506
22.2933 50.7951
22.4753 49.5666
22.6572 49.3617
22.8393 52.2797
23.0214 58.3554
23.2037 49.451
23.3859 50.1129
23.5682 56.9206
23.7505 49.2955
23.9329 45.8706
24.1154 44.6721
24.2979 43.9144
24.4805 43.3883
24.6631 43.4599
24.8458 42.7623
25.0286 43.2562
25.2114 45.1787
25.3943 45.2651
25.5773 41.3659
25.7605 41.0522
25.9436 41.3737
26.1268 42.2376
26.31 40.6534
26.4933 41.1032
26.6767 42.5276
26.8601 41.0423
27.0437 39.4487
27.2272 38.9648
27.4109 38.7286
27.5946 38.8054
27.7784 38.4073
27.9623 38.7134
28.1462 39.3844
28.3304 37.5692
28.5145 36.4209
28.6987 36.2139
28.8829 35.793
29.0673 35.1368
29.2517 34.723
29.4361 34.505
29.6207 33.592
29.8053 33.213
29.99 32.9582
30.1748 32.7293
30.3597 32.6834
30.5447 32.5739
30.7297 32.5736
30.915 32.0539
31.1002 31.4994
31.2855 31.2664
31.4708 31.2156
31.6563 30.7226
31.8418 30.5573
32.0275 30.3329
32.2132 29.7415
32.399 29.3249
32.5848 28.822
32.7708 28.5006
32.9569 28.3197
33.143 28.1326
33.3293 27.7245
33.5158 27.3183
33.7022 26.9655
33.8887 26.6882
34.0753 26.3125
34.262 25.9417
34.4488 25.5817
34.6357 25.2669
34.8227 25.0225
35.0098 24.8013
35.1969 24.5161
35.3842 24.2119
35.5716 24.12
35.759 23.7499
35.9468 23.3593
36.1345 23.1548
36.3222 22.9275
36.5101 22.6742
36.6981 22.3313
36.8861 22.1208
37.0743 21.8522
37.2626 21.4818
37.451 21.2097
37.6395 21.203
37.8281 20.7118
38.0168 20.5113
38.2056 20.2318
38.3945 19.9797
38.5837 19.7543
38.7728 19.4872
38.9621 19.1701
39.1514 18.9751
39.3409 18.7311
39.5304 18.5027
39.7201 18.3006
39.9099 18.0356
40.0999 17.8532
40.2899 17.6264
40.48 17.3687
40.6703 17.1459
40.8607 16.9681
41.0512 16.7031
41.242 16.4779
41.4327 16.267
41.6236 16.089
41.8146 15.8611
42.0057 15.6605
42.1969 15.3512
42.3882 15.2214
42.5797 15.0479
42.7713 14.8124
42.963 14.5959
43.1549 14.4577
43.3468 14.1828
43.5389 14.0266
43.7312 13.7932
43.9237 13.6556
44.1162 13.4714
44.3088 13.2721
44.5016 13.1115
44.6945 12.8723
44.8875 12.7117
45.0806 12.5462
45.2739 12.3616
45.4673 12.2423
45.6609 12.0076
45.8546 11.8779
46.0484 11.6774
46.2424 11.5228
46.4365 11.3624
46.631 11.1789
46.8254 11.0205
47.0199 10.8212
47.2146 10.661
47.4095 10.5379
47.6044 10.3908
47.7996 10.18
47.9948 10.0756
48.1902 9.94558
48.3858 9.82745
48.5815 9.63973
48.7774 9.51242
48.9734 9.40048
49.1696 9.20993
49.3661 9.08413
49.5626 8.93741
49.7592 8.81989
49.956 8.69469
50.153 8.52806
50.3501 8.42518
50.5474 8.33363
50.7448 8.16692
50.9424 8.03234
51.1402 7.90276
51.3381 7.76639
51.5362 7.65723
51.7344 7.51884
51.9328 7.40944
52.1316 7.27326
52.3304 7.16815
52.5293 7.06246
52.7284 6.98735
52.9276 6.80459
53.1271 6.71784
53.3267 6.62109
53.5265 6.45259
53.7264 6.39014
53.9266 6.2925
54.1269 6.09805
54.3274 5.9818
54.528 5.88159
54.7289 5.70671
54.9301 5.55191
55.1314 5.41339
55.3328 5.25185
55.5344 5.07193
55.7361 4.94405