File: XRD/Ni3Fe_FD0797.xy
TT I
1.27165 6.9098
1.45013 6.0342
1.62863 5.46294
1.80712 4.76313
1.98562 4.81105
2.16411 5.08859
2.34263 5.2581
2.52115 7.04335
2.69965 8.21523
2.87818 9.01538
3.05672 11.2901
3.23527 14.9329
3.4138 18.5408
3.59237 23.0733
3.77094 25.5753
3.9495 29.5833
4.12809 33.9346
4.30669 135.118
4.4853 57.1233
4.6639 55.1438
4.84253 66.8957
5.02118 86.0477
5.19981 375.558
5.37848 180.367
5.55716 101.157
5.73586 91.8131
5.91455 94.2029
6.09328 4560.77
6.27201 79.9987
6.45075 67.6996
6.62952 62.1955
6.8083 58.4246
6.98711 54.8056
7.16591 55.3134
7.34475 73.9505
7.5236 54.0441
7.70247 55.9407
7.88135 57.1373
8.06026 61.8058
8.23919 68.5279
8.41812 83.6793
8.59709 1213.73
8.77609 97.122
8.9551 88.7451
9.13412 81.5017
9.31318 83.1449
9.49226 84.0515
9.67134 94.9518
9.85047 99.8652
10.0296 343.73
10.2088 340.232
10.388 103.714
10.5672 537.51
10.7465 85.3236
10.9257 77.4699
11.105 70.8374
11.2844 68.4513
11.4637 64.2856
11.6431 63.1365
11.8225 61.8482
12.002 63.6636
12.1814 157.498
12.3609 66.9564
12.5405 64.039
12.72 67.9969
12.8996 70.0765
13.0792 78.9692
13.2589 246.926
13.4386 117.044
13.6183 256.473
13.7981 92.8624
13.9779 75.0618
14.1577 71.2498
14.3376 69.9663
14.5175 67.988
14.6974 69.7971
14.8774 111.297
15.0574 141.138
15.2374 69.0732
15.4175 65.822
15.5976 65.2036
15.7778 94.7455
15.958 146.116
16.1382 60.9819
16.3185 57.4607
16.4988 54.9885
16.6792 53.8266
16.8596 54.3643
17.04 55.4044
17.2205 66.8389
17.401 69.0991
17.5815 58.746
17.7622 60.5977
17.9428 73.204
18.1237 141.462
18.3044 91.2762
18.4852 73.8099
18.666 59.6647
18.8469 57.4805
19.0278 56.3363
19.2088 58.7061
19.3898 75.9604
19.5709 53.5694
19.752 52.5766
19.9332 55.7961
20.1144 69.7638
20.2957 64.0088
20.477 52.4688
20.6586 49.0216
20.84 48.3838
21.0215 48.0908
21.203 50.4814
21.3846 48.3283
21.5662 48.3108
21.7479 52.2676
21.9297 64.2258
22.1115 55.7087
22.2933 49.0169
22.4753 48.2996
22.6572 48.4948
22.8393 51.6102
23.0214 56.5585
23.2037 48.213
23.3859 49.2412
23.5682 57.1678
23.7505 47.7001
23.9329 44.8681
24.1154 43.7273
24.2979 42.8827
24.4805 42.5924
24.6631 42.3554
24.8458 41.7096
25.0286 42.4974
25.2114 44.3146
25.3943 44.0733
25.5773 40.3716
25.7605 39.9527
25.9436 40.5543
26.1268 41.2332
26.31 39.6252
26.4933 40.2258
26.6767 41.738
26.8601 39.9568
27.0437 38.4816
27.2272 38.0023
27.4109 38.0569
27.5946 38.0169
27.7784 37.5867
27.9623 38.0826
28.1462 38.3976
28.3304 36.7531
28.5145 35.622
28.6987 35.3129
28.8829 35.0247
29.0673 34.1749
29.2517 33.9188
29.4361 33.7548
29.6207 32.6623
29.8053 32.6162
29.99 32.159
30.1748 32.1114
30.3597 31.9242
30.5447 31.846
30.7297 31.8702
30.915 31.3309
31.1002 30.8287
31.2855 30.5624
31.4708 30.4987
31.6563 30.0669
31.8418 29.8111
32.0275 29.5649
32.2132 29.0658
32.399 28.6877
32.5848 28.1642
32.7708 27.8806
32.9569 27.6857
33.143 27.5456
33.3293 27.2009
33.5158 26.7654
33.7022 26.3675
33.8887 26.0011
34.0753 25.5992
34.262 25.4161
34.4488 25.0264
34.6357 24.6872
34.8227 24.4798
35.0098 24.2556
35.1969 23.9485
35.3842 23.7831
35.5716 23.5304
35.759 23.1952
35.9468 22.8439
36.1345 22.6765
36.3222 22.4492
36.5101 22.1289
36.6981 21.8314
36.8861 21.5701
37.0743 21.214
37.2626 21.0397
37.451 20.7473
37.6395 20.5857
37.8281 20.2876
38.0168 19.986
38.2056 19.6991
38.3945 19.4582
38.5837 19.2116
38.7728 18.9996
38.9621 18.7221
39.1514 18.5205
39.3409 18.3169
39.5304 18.0324
39.7201 17.8661
39.9099 17.6562
40.0999 17.3502
40.2899 17.2552
40.48 16.9467
40.6703 16.7165
40.8607 16.5501
41.0512 16.3401
41.242 16.0936
41.4327 15.9197
41.6236 15.633
41.8146 15.4728
42.0057 15.2901
42.1969 15.0606
42.3882 14.903
42.5797 14.6827
42.7713 14.475
42.963 14.2978
43.1549 14.1341
43.3468 13.8804
43.5389 13.6921
43.7312 13.5079
43.9237 13.274
44.1162 13.0941
44.3088 12.9447
44.5016 12.7887
44.6945 12.6025
44.8875 12.4202
45.0806 12.2244
45.2739 12.1162
45.4673 11.8787
45.6609 11.7175
45.8546 11.5889
46.0484 11.405
46.2424 11.2145
46.4365 11.0949
46.631 10.8824
46.8254 10.6947
47.0199 10.5994
47.2146 10.4072
47.4095 10.2523
47.6044 10.1186
47.7996 9.9854
47.9948 9.79108
48.1902 9.70942
48.3858 9.53248
48.5815 9.43027
48.7774 9.28713
48.9734 9.09811
49.1696 8.98653
49.3661 8.88857
49.5626 8.72522
49.7592 8.63368
49.956 8.47812
50.153 8.32653
50.3501 8.20836
50.5474 8.09457
50.7448 7.94208
50.9424 7.89116
51.1402 7.73033
51.3381 7.59767
51.5362 7.47301
51.7344 7.34441
51.9328 7.22231
52.1316 7.09967
52.3304 6.98206
52.5293 6.87899
52.7284 6.76626
52.9276 6.64472
53.1271 6.5591
53.3267 6.44343
53.5265 6.3183
53.7264 6.2229
53.9266 6.10925
54.1269 6.00944
54.3274 5.87796
54.528 5.79062
54.7289 5.59868
54.9301 5.40387
55.1314 5.3026
55.3328 5.05894
55.5344 4.89445
55.7361 4.75443