File: XRD/Ni3Fe_FD0988.xy
TT I
1.27165 6.84246
1.45013 6.76435
1.62863 5.16696
1.80712 4.4427
1.98562 4.8241
2.16411 4.99047
2.34263 5.28502
2.52115 7.26999
2.69965 8.36448
2.87818 8.37093
3.05672 11.2155
3.23527 15.4044
3.4138 19.197
3.59237 24.5648
3.77094 26.3331
3.9495 29.5754
4.12809 34.6464
4.30669 241.714
4.4853 67.6905
4.6639 54.4889
4.84253 65.4636
5.02118 83.9079
5.19981 269.813
5.37848 173.16
5.55716 99.4856
5.73586 89.6519
5.91455 90.1187
6.09328 4549.23
6.27201 81.0046
6.45075 65.7508
6.62952 61.8425
6.8083 58.0458
6.98711 55.0159
7.16591 54.2476
7.34475 96.4308
7.5236 54.0702
7.70247 55.2205
7.88135 56.8691
8.06026 61.1641
8.23919 68.1742
8.41812 82.9228
8.59709 1116.68
8.77609 96.639
8.9551 90.299
9.13412 80.0367
9.31318 80.7155
9.49226 82.8344
9.67134 97.4342
9.85047 97.4266
10.0296 287.259
10.2088 372.785
10.388 102.144
10.5672 533.26
10.7465 84.5306
10.9257 77.4722
11.105 70.3473
11.2844 69.6158
11.4637 63.3463
11.6431 62.3476
11.8225 61.2627
12.002 61.8509
12.1814 149.806
12.3609 70.0363
12.5405 63.2345
12.72 69.1298
12.8996 69.5115
13.0792 76.4207
13.2589 225.526
13.4386 120.875
13.6183 240.84
13.7981 94.5802
13.9779 74.3019
14.1577 70.8224
14.3376 70.3142
14.5175 67.1155
14.6974 68.6042
14.8774 103.295
15.0574 149.153
15.2374 69.6097
15.4175 65.1614
15.5976 63.9643
15.7778 88.7985
15.958 153.516
16.1382 61.6833
16.3185 57.5756
16.4988 54.3874
16.6792 53.3767
16.8596 54.1931
17.04 54.4313
17.2205 64.4206
17.401 68.6423
17.5815 57.8119
17.7622 59.6978
17.9428 70.0249
18.1237 138.0
18.3044 88.3538
18.4852 75.6644
18.666 59.1592
18.8469 56.649
19.0278 55.5882
19.2088 57.7934
19.3898 75.2454
19.5709 53.1048
19.752 52.0223
19.9332 54.6388
20.1144 68.7349
20.2957 62.934
20.477 52.4749
20.6586 48.5615
20.84 47.7614
21.0215 47.4262
21.203 49.9437
21.3846 47.9946
21.5662 47.5302
21.7479 51.0749
21.9297 63.5189
22.1115 55.2389
22.2933 48.692
22.4753 47.9991
22.6572 47.6699
22.8393 50.6394
23.0214 56.4339
23.2037 47.8049
23.3859 48.3759
23.5682 56.368
23.7505 47.3229
23.9329 44.248
24.1154 43.2188
24.2979 42.5502
24.4805 42.0352
24.6631 41.9648
24.8458 41.3557
25.0286 41.8488
25.2114 43.5942
25.3943 43.706
25.5773 40.0601
25.7605 39.72
25.9436 39.9965
26.1268 40.8473
26.31 39.2643
26.4933 39.7506
26.6767 41.3588
26.8601 39.6181
27.0437 38.064
27.2272 37.5677
27.4109 37.639
27.5946 37.6992
27.7784 37.0199
27.9623 37.6248
28.1462 38.1088
28.3304 36.5265
28.5145 35.3298
28.6987 34.8659
28.8829 34.7772
29.0673 34.0174
29.2517 33.6428
29.4361 33.4944
29.6207 32.5423
29.8053 32.2459
29.99 31.9617
30.1748 31.7779
30.3597 31.5502
30.5447 31.5286
30.7297 31.5858
30.915 31.0347
31.1002 30.4467
31.2855 30.2232
31.4708 30.2856
31.6563 29.8409
31.8418 29.6563
32.0275 29.2892
32.2132 28.7369
32.399 28.4037
32.5848 27.9463
32.7708 27.606
32.9569 27.49
33.143 27.2444
33.3293 26.8739
33.5158 26.4407
33.7022 26.0344
33.8887 25.8568
34.0753 25.4843
34.262 25.264
34.4488 24.7446
34.6357 24.4821
34.8227 24.1919
35.0098 24.0347
35.1969 23.7352
35.3842 23.5821
35.5716 23.3621
35.759 23.0404
35.9468 22.6344
36.1345 22.4883
36.3222 22.2521
36.5101 22.065
36.6981 21.705
36.8861 21.4355
37.0743 21.109
37.2626 20.8601
37.451 20.5347
37.6395 20.4157
37.8281 20.0568
38.0168 19.8545
38.2056 19.5831
38.3945 19.3031
38.5837 19.0814
38.7728 18.8861
38.9621 18.6231
39.1514 18.3329
39.3409 18.114
39.5304 17.9632
39.7201 17.6702
39.9099 17.5308
40.0999 17.2101
40.2899 17.0469
40.48 16.8108
40.6703 16.6037
40.8607 16.4557
41.0512 16.2405
41.242 15.9492
41.4327 15.7855
41.6236 15.5151
41.8146 15.3462
42.0057 15.1482
42.1969 14.8976
42.3882 14.7885
42.5797 14.5532
42.7713 14.4034
42.963 14.1593
43.1549 13.9511
43.3468 13.8076
43.5389 13.5592
43.7312 13.3804
43.9237 13.2
44.1162 13.0173
44.3088 12.8643
44.5016 12.6678
44.6945 12.4934
44.8875 12.328
45.0806 12.167
45.2739 11.9925
45.4673 11.8034
45.6609 11.6517
45.8546 11.4753
46.0484 11.2781
46.2424 11.1472
46.4365 11.0289
46.631 10.8573
46.8254 10.6969
47.0199 10.529
47.2146 10.3905
47.4095 10.2099
47.6044 10.0613
47.7996 9.90995
47.9948 9.73836
48.1902 9.63412
48.3858 9.49919
48.5815 9.3825
48.7774 9.22997
48.9734 9.03357
49.1696 8.96477
49.3661 8.78196
49.5626 8.62893
49.7592 8.54498
49.956 8.40693
50.153 8.29735
50.3501 8.14133
50.5474 8.00844
50.7448 7.9469
50.9424 7.77863
51.1402 7.6655
51.3381 7.56104
51.5362 7.42324
51.7344 7.30983
51.9328 7.15357
52.1316 7.05273
52.3304 6.93493
52.5293 6.8574
52.7284 6.70437
52.9276 6.58551
53.1271 6.52335
53.3267 6.39921
53.5265 6.27431
53.7264 6.15205
53.9266 6.06977
54.1269 5.90605
54.3274 5.84655
54.528 5.7041
54.7289 5.50042
54.9301 5.3867
55.1314 5.25718
55.3328 5.01933
55.5344 4.86107
55.7361 4.73439