File: XRD/Ni3Fe_FD0677.xy
TT I
1.27165 7.45842
1.45013 5.44956
1.62863 5.09176
1.80712 4.95589
1.98562 5.11128
2.16411 4.92476
2.34263 5.42877
2.52115 6.77562
2.69965 7.85881
2.87818 8.739
3.05672 11.1084
3.23527 14.995
3.4138 18.7408
3.59237 23.2974
3.77094 26.0419
3.9495 29.794
4.12809 34.9549
4.30669 149.651
4.4853 58.2223
4.6639 55.6753
4.84253 68.0645
5.02118 87.6069
5.19981 400.605
5.37848 184.202
5.55716 102.175
5.73586 92.8081
5.91455 95.3507
6.09328 4523.56
6.27201 81.5236
6.45075 67.6068
6.62952 62.6633
6.8083 58.3922
6.98711 55.6638
7.16591 55.2306
7.34475 77.4133
7.5236 54.815
7.70247 56.048
7.88135 57.6778
8.06026 62.5356
8.23919 69.5941
8.41812 85.3649
8.59709 1226.78
8.77609 98.1719
8.9551 89.7786
9.13412 82.2419
9.31318 82.8195
9.49226 84.7368
9.67134 95.9037
9.85047 100.339
10.0296 365.741
10.2088 366.764
10.388 104.832
10.5672 511.255
10.7465 86.3374
10.9257 77.788
11.105 71.6092
11.2844 69.4311
11.4637 64.7228
11.6431 63.5125
11.8225 62.5175
12.002 64.2382
12.1814 155.544
12.3609 68.3432
12.5405 64.4076
12.72 68.7163
12.8996 71.2093
13.0792 79.8584
13.2589 249.064
13.4386 119.918
13.6183 255.654
13.7981 93.0937
13.9779 75.7216
14.1577 72.0124
14.3376 70.8669
14.5175 68.8896
14.6974 70.5542
14.8774 113.22
15.0574 139.59
15.2374 70.0107
15.4175 66.353
15.5976 65.9672
15.7778 96.8036
15.958 150.144
16.1382 61.8476
16.3185 58.3281
16.4988 55.2996
16.6792 54.3554
16.8596 55.0775
17.04 55.8591
17.2205 67.3137
17.401 69.5202
17.5815 59.2746
17.7622 61.2502
17.9428 74.0542
18.1237 142.672
18.3044 91.2468
18.4852 75.3363
18.666 60.1083
18.8469 57.9049
19.0278 56.8589
19.2088 59.474
19.3898 76.3862
19.5709 54.1288
19.752 53.2563
19.9332 56.3181
20.1144 69.9361
20.2957 64.195
20.477 52.9531
20.6586 49.4941
20.84 48.9097
21.0215 48.6167
21.203 50.8411
21.3846 48.52
21.5662 48.7282
21.7479 52.7744
21.9297 64.6726
22.1115 56.188
22.2933 49.5771
22.4753 48.7838
22.6572 48.9206
22.8393 52.1156
23.0214 56.9633
23.2037 48.7495
23.3859 49.7859
23.5682 57.2736
23.7505 47.6854
23.9329 45.1103
24.1154 44.1024
24.2979 43.2767
24.4805 42.8798
24.6631 42.6228
24.8458 42.16
25.0286 42.7238
25.2114 44.636
25.3943 44.4804
25.5773 40.8755
25.7605 40.4133
25.9436 40.7476
26.1268 41.6866
26.31 40.0451
26.4933 40.6688
26.6767 42.0354
26.8601 40.4038
27.0437 38.8511
27.2272 38.3997
27.4109 38.4485
27.5946 38.3379
27.7784 37.9565
27.9623 38.2773
28.1462 38.6326
28.3304 36.9716
28.5145 35.8111
28.6987 35.612
28.8829 35.2547
29.0673 34.5668
29.2517 34.2213
29.4361 34.1144
29.6207 33.1815
29.8053 32.8552
29.99 32.4757
30.1748 32.3948
30.3597 32.1912
30.5447 32.1449
30.7297 32.2035
30.915 31.5333
31.1002 31.1716
31.2855 30.8068
31.4708 30.8227
31.6563 30.2603
31.8418 30.0912
32.0275 29.8387
32.2132 29.2749
32.399 28.9157
32.5848 28.3947
32.7708 28.1585
32.9569 28.0032
33.143 27.8637
33.3293 27.315
33.5158 26.9934
33.7022 26.4795
33.8887 26.2246
34.0753 26.0358
34.262 25.6194
34.4488 25.2335
34.6357 24.8869
34.8227 24.6639
35.0098 24.4308
35.1969 24.1194
35.3842 24.0096
35.5716 23.7578
35.759 23.4713
35.9468 23.1286
36.1345 22.8888
36.3222 22.695
36.5101 22.393
36.6981 22.0859
36.8861 21.7927
37.0743 21.4501
37.2626 21.2712
37.451 20.957
37.6395 20.8725
37.8281 20.4729
38.0168 20.2334
38.2056 19.8912
38.3945 19.6083
38.5837 19.4983
38.7728 19.1329
38.9621 18.9189
39.1514 18.6905
39.3409 18.4349
39.5304 18.2059
39.7201 17.9654
39.9099 17.7757
40.0999 17.4899
40.2899 17.3285
40.48 17.1072
40.6703 16.8905
40.8607 16.6943
41.0512 16.4682
41.242 16.1945
41.4327 15.9973
41.6236 15.812
41.8146 15.5963
42.0057 15.3807
42.1969 15.1459
42.3882 15.0456
42.5797 14.8052
42.7713 14.5839
42.963 14.4075
43.1549 14.2015
43.3468 14.0132
43.5389 13.8251
43.7312 13.6134
43.9237 13.4555
44.1162 13.2316
44.3088 13.0686
44.5016 12.83
44.6945 12.7245
44.8875 12.5258
45.0806 12.316
45.2739 12.1756
45.4673 12.0393
45.6609 11.8627
45.8546 11.6767
46.0484 11.5151
46.2424 11.3347
46.4365 11.1957
46.631 11.0081
46.8254 10.8402
47.0199 10.6819
47.2146 10.5491
47.4095 10.3681
47.6044 10.2295
47.7996 10.0869
47.9948 9.90417
48.1902 9.78846
48.3858 9.62598
48.5815 9.51356
48.7774 9.39219
48.9734 9.21719
49.1696 9.11434
49.3661 8.92572
49.5626 8.79873
49.7592 8.66266
49.956 8.56543
50.153 8.42822
50.3501 8.24607
50.5474 8.15303
50.7448 8.04541
50.9424 7.91516
51.1402 7.78594
51.3381 7.69929
51.5362 7.51831
51.7344 7.40463
51.9328 7.2808
52.1316 7.11656
52.3304 7.04735
52.5293 6.92
52.7284 6.79899
52.9276 6.69952
53.1271 6.62634
53.3267 6.46864
53.5265 6.37825
53.7264 6.26645
53.9266 6.19718
54.1269 6.0336
54.3274 5.94666
54.528 5.78482
54.7289 5.61019
54.9301 5.47695
55.1314 5.34404
55.3328 5.14458
55.5344 4.96966
55.7361 4.80829