File: XRD/Ni3Fe_FD0698.xy
TT I
1.27165 7.31368
1.45013 5.73861
1.62863 4.70967
1.80712 4.90269
1.98562 4.40564
2.16411 4.58082
2.34263 4.69162
2.52115 6.80031
2.69965 8.30536
2.87818 8.64362
3.05672 10.9424
3.23527 15.0517
3.4138 18.658
3.59237 22.7712
3.77094 25.6289
3.9495 29.1938
4.12809 34.1646
4.30669 115.509
4.4853 54.8787
4.6639 55.946
4.84253 68.1937
5.02118 87.192
5.19981 430.417
5.37848 193.621
5.55716 102.36
5.73586 92.969
5.91455 95.8623
6.09328 4577.04
6.27201 80.7017
6.45075 68.9158
6.62952 62.3944
6.8083 58.7497
6.98711 55.5701
7.16591 55.6536
7.34475 69.5984
7.5236 54.2631
7.70247 56.5241
7.88135 57.3753
8.06026 62.4452
8.23919 69.1263
8.41812 84.6662
8.59709 1251.52
8.77609 97.8944
8.9551 89.4675
9.13412 82.5561
9.31318 84.3124
9.49226 85.1919
9.67134 95.8238
9.85047 101.301
10.0296 366.752
10.2088 357.722
10.388 106.05
10.5672 513.746
10.7465 86.2585
10.9257 77.6612
11.105 71.3723
11.2844 68.7661
11.4637 64.6624
11.6431 63.4269
11.8225 62.6016
12.002 64.2719
12.1814 155.786
12.3609 67.3955
12.5405 64.5998
12.72 68.1124
12.8996 71.5146
13.0792 80.1961
13.2589 248.988
13.4386 120.84
13.6183 258.784
13.7981 93.9867
13.9779 75.6709
14.1577 71.9203
14.3376 70.4593
14.5175 68.9399
14.6974 70.5695
14.8774 114.15
15.0574 139.977
15.2374 69.5087
15.4175 66.3385
15.5976 65.9068
15.7778 97.1225
15.958 149.995
16.1382 61.4329
16.3185 57.8877
16.4988 55.3446
16.6792 54.2183
16.8596 54.8964
17.04 55.9565
17.2205 67.3882
17.401 69.825
17.5815 59.1726
17.7622 61.3585
17.9428 74.2615
18.1237 142.201
18.3044 91.5369
18.4852 75.1588
18.666 60.4417
18.8469 57.873
19.0278 56.663
19.2088 59.5358
19.3898 76.1146
19.5709 54.0598
19.752 53.3035
19.9332 56.4467
20.1144 69.812
20.2957 64.2873
20.477 52.8634
20.6586 49.464
20.84 48.6476
21.0215 48.4813
21.203 50.8597
21.3846 48.7024
21.5662 48.9974
21.7479 52.7714
21.9297 64.9056
22.1115 56.0053
22.2933 49.6566
22.4753 48.6443
22.6572 48.7818
22.8393 52.1433
23.0214 56.967
23.2037 48.6365
23.3859 49.689
23.5682 57.4292
23.7505 48.0652
23.9329 45.1162
24.1154 43.9607
24.2979 43.3955
24.4805 42.7851
24.6631 42.7182
24.8458 42.2005
25.0286 42.93
25.2114 44.5843
25.3943 44.366
25.5773 40.8119
25.7605 40.3954
25.9436 40.8193
26.1268 41.7272
26.31 40.0985
26.4933 40.62
26.6767 42.0864
26.8601 40.3676
27.0437 38.8379
27.2272 38.4778
27.4109 38.3709
27.5946 38.4054
27.7784 37.8405
27.9623 38.51
28.1462 38.8155
28.3304 37.0102
28.5145 35.8885
28.6987 35.5333
28.8829 35.3545
29.0673 34.6211
29.2517 34.2705
29.4361 34.1724
29.6207 33.0756
29.8053 32.8055
29.99 32.4024
30.1748 32.3593
30.3597 32.1275
30.5447 32.2109
30.7297 32.1283
30.915 31.5644
31.1002 31.0855
31.2855 30.7992
31.4708 30.8407
31.6563 30.2023
31.8418 30.0829
32.0275 29.8544
32.2132 29.3195
32.399 28.8742
32.5848 28.3466
32.7708 28.1804
32.9569 27.9961
33.143 27.7972
33.3293 27.288
33.5158 26.9878
33.7022 26.5111
33.8887 26.2528
34.0753 25.8421
34.262 25.6567
34.4488 25.2586
34.6357 24.9279
34.8227 24.603
35.0098 24.4917
35.1969 24.1709
35.3842 23.9348
35.5716 23.6793
35.759 23.441
35.9468 23.0922
36.1345 22.8235
36.3222 22.5772
36.5101 22.3577
36.6981 22.0282
36.8861 21.8204
37.0743 21.4648
37.2626 21.1884
37.451 20.9299
37.6395 20.831
37.8281 20.4349
38.0168 20.1614
38.2056 19.8898
38.3945 19.6287
38.5837 19.4108
38.7728 19.1514
38.9621 18.8946
39.1514 18.6543
39.3409 18.4077
39.5304 18.3026
39.7201 18.0724
39.9099 17.8599
40.0999 17.5272
40.2899 17.3735
40.48 17.0941
40.6703 16.953
40.8607 16.6762
41.0512 16.5233
41.242 16.2078
41.4327 16.038
41.6236 15.8114
41.8146 15.5751
42.0057 15.3984
42.1969 15.2052
42.3882 14.9889
42.5797 14.8217
42.7713 14.5867
42.963 14.3515
43.1549 14.172
43.3468 13.9754
43.5389 13.7817
43.7312 13.6049
43.9237 13.4169
44.1162 13.2507
44.3088 13.0966
44.5016 12.886
44.6945 12.7213
44.8875 12.5041
45.0806 12.3438
45.2739 12.1655
45.4673 12.0442
45.6609 11.8287
45.8546 11.6742
46.0484 11.5048
46.2424 11.2899
46.4365 11.2043
46.631 11.0116
46.8254 10.8029
47.0199 10.6978
47.2146 10.5167
47.4095 10.381
47.6044 10.2126
47.7996 10.0454
47.9948 9.9321
48.1902 9.7842
48.3858 9.62054
48.5815 9.46697
48.7774 9.39627
48.9734 9.2063
49.1696 9.0748
49.3661 8.8958
49.5626 8.78838
49.7592 8.64215
49.956 8.57422
50.153 8.40344
50.3501 8.25762
50.5474 8.1669
50.7448 8.04228
50.9424 7.94794
51.1402 7.79515
51.3381 7.66299
51.5362 7.54947
51.7344 7.40084
51.9328 7.28463
52.1316 7.16392
52.3304 7.05965
52.5293 6.92931
52.7284 6.83506
52.9276 6.70343
53.1271 6.61411
53.3267 6.4819
53.5265 6.36825
53.7264 6.25193
53.9266 6.16648
54.1269 6.04524
54.3274 5.95111
54.528 5.77611
54.7289 5.59986
54.9301 5.49363
55.1314 5.35206
55.3328 5.12992
55.5344 4.93689
55.7361 4.77167