File: XRD/Ni3Fe_FD0206.xy
TT I
1.27165 8.51116
1.45013 6.9575
1.62863 6.11036
1.80712 5.41892
1.98562 5.28272
2.16411 4.73937
2.34263 4.17062
2.52115 5.10364
2.69965 5.86491
2.87818 7.52114
3.05672 11.8858
3.23527 14.9898
3.4138 18.7604
3.59237 22.5876
3.77094 26.0208
3.9495 30.2126
4.12809 35.3814
4.30669 40.328
4.4853 48.7791
4.6639 58.0908
4.84253 71.6696
5.02118 97.5879
5.19981 889.376
5.37848 288.802
5.55716 113.374
5.73586 101.753
5.91455 111.433
6.09328 3540.57
6.27201 90.3366
6.45075 70.8174
6.62952 64.7567
6.8083 60.1733
6.98711 57.5318
7.16591 56.5142
7.34475 56.0709
7.5236 57.1446
7.70247 58.1937
7.88135 60.713
8.06026 65.1756
8.23919 73.4026
8.41812 91.0795
8.59709 1039.86
8.77609 112.534
8.9551 90.8881
9.13412 87.5937
9.31318 88.8344
9.49226 90.0103
9.67134 95.8537
9.85047 107.028
10.0296 528.699
10.2088 602.656
10.388 114.688
10.5672 430.75
10.7465 93.1013
10.9257 81.0352
11.105 75.3435
11.2844 70.9498
11.4637 67.9369
11.6431 66.6351
11.8225 65.5753
12.002 69.0605
12.1814 137.191
12.3609 70.8895
12.5405 67.294
12.72 69.9332
12.8996 75.0642
13.0792 86.2893
13.2589 225.507
13.4386 154.003
13.6183 220.535
13.7981 116.408
13.9779 80.6701
14.1577 76.2615
14.3376 73.3545
14.5175 72.9609
14.6974 74.7114
14.8774 118.767
15.0574 177.7
15.2374 72.7208
15.4175 70.257
15.5976 70.0641
15.7778 103.506
15.958 177.339
16.1382 64.3046
16.3185 60.3709
16.4988 58.2724
16.6792 57.2892
16.8596 57.6768
17.04 59.3191
17.2205 68.8417
17.401 78.6725
17.5815 62.46
17.7622 65.0738
17.9428 83.3914
18.1237 136.666
18.3044 90.1492
18.4852 85.7061
18.666 63.8346
18.8469 61.0676
19.0278 59.915
19.2088 63.3213
19.3898 76.0783
19.5709 57.2353
19.752 56.2326
19.9332 59.599
20.1144 72.3247
20.2957 64.2682
20.477 57.5548
20.6586 52.3427
20.84 51.2395
21.0215 51.5756
21.203 52.7251
21.3846 51.822
21.5662 51.9893
21.7479 55.6346
21.9297 66.6291
22.1115 57.8186
22.2933 52.7647
22.4753 51.1748
22.6572 52.1735
22.8393 54.3221
23.0214 60.0906
23.2037 51.6858
23.3859 52.7215
23.5682 57.4211
23.7505 51.7722
23.9329 47.5792
24.1154 46.3994
24.2979 45.5505
24.4805 44.9379
24.6631 45.0475
24.8458 44.619
25.0286 45.2094
25.2114 46.58
25.3943 46.7808
25.5773 43.0641
25.7605 42.56
25.9436 42.7629
26.1268 43.623
26.31 42.5498
26.4933 42.6267
26.6767 43.9342
26.8601 42.5212
27.0437 40.8807
27.2272 40.4969
27.4109 40.2315
27.5946 40.3824
27.7784 39.894
27.9623 40.0638
28.1462 40.7078
28.3304 39.002
28.5145 37.7925
28.6987 37.3695
28.8829 37.0791
29.0673 36.5422
29.2517 35.9185
29.4361 35.8617
29.6207 34.7181
29.8053 34.5139
29.99 34.1383
30.1748 33.9333
30.3597 33.8687
30.5447 33.6564
30.7297 33.7513
30.915 33.1713
31.1002 32.7019
31.2855 32.2939
31.4708 32.3502
31.6563 31.9686
31.8418 31.5731
32.0275 31.43
32.2132 30.7379
32.399 30.3536
32.5848 29.8596
32.7708 29.5674
32.9569 29.3997
33.143 29.1206
33.3293 28.7408
33.5158 28.3501
33.7022 27.8786
33.8887 27.5908
34.0753 27.3483
34.262 26.8971
34.4488 26.5102
34.6357 26.2557
34.8227 25.8808
35.0098 25.6814
35.1969 25.3017
35.3842 25.1534
35.5716 24.9105
35.759 24.6218
35.9468 24.1716
36.1345 24.0021
36.3222 23.7736
36.5101 23.5238
36.6981 23.1937
36.8861 22.907
37.0743 22.522
37.2626 22.3537
37.451 22.038
37.6395 21.885
37.8281 21.453
38.0168 21.1676
38.2056 20.9482
38.3945 20.6067
38.5837 20.3322
38.7728 20.1458
38.9621 19.8548
39.1514 19.5824
39.3409 19.3229
39.5304 19.1063
39.7201 18.896
39.9099 18.6866
40.0999 18.4539
40.2899 18.2269
40.48 17.9568
40.6703 17.7306
40.8607 17.5815
41.0512 17.318
41.242 17.0775
41.4327 16.8056
41.6236 16.5386
41.8146 16.452
42.0057 16.1192
42.1969 15.9381
42.3882 15.7259
42.5797 15.4889
42.7713 15.3125
42.963 15.104
43.1549 14.8515
43.3468 14.7123
43.5389 14.4615
43.7312 14.2942
43.9237 14.088
44.1162 13.9431
44.3088 13.6483
44.5016 13.4946
44.6945 13.2882
44.8875 13.1512
45.0806 12.9679
45.2739 12.758
45.4673 12.6055
45.6609 12.4094
45.8546 12.2217
46.0484 12.0946
46.2424 11.8761
46.4365 11.7491
46.631 11.561
46.8254 11.3514
47.0199 11.1932
47.2146 11.061
47.4095 10.8464
47.6044 10.7289
47.7996 10.5013
47.9948 10.4186
48.1902 10.2501
48.3858 10.1402
48.5815 9.98293
48.7774 9.8351
48.9734 9.68318
49.1696 9.53559
49.3661 9.32372
49.5626 9.24211
49.7592 9.09381
49.956 8.95502
50.153 8.79995
50.3501 8.66955
50.5474 8.56216
50.7448 8.43867
50.9424 8.3107
51.1402 8.16561
51.3381 8.00858
51.5362 7.86214
51.7344 7.79208
51.9328 7.62374
52.1316 7.47998
52.3304 7.39241
52.5293 7.249
52.7284 7.1546
52.9276 7.01144
53.1271 6.92425
53.3267 6.81816
53.5265 6.66074
53.7264 6.54996
53.9266 6.41831
54.1269 6.33413
54.3274 6.2085
54.528 6.02568
54.7289 5.84973
54.9301 5.67228
55.1314 5.55621
55.3328 5.28031
55.5344 5.10292
55.7361 5.00249