File: XRD/Ni3Fe_FD0117.xy
TT I
1.27165 8.34833
1.45013 6.47817
1.62863 5.82186
1.80712 5.64543
1.98562 5.42766
2.16411 4.50997
2.34263 4.45155
2.52115 4.28915
2.69965 5.13516
2.87818 7.70651
3.05672 11.6428
3.23527 14.888
3.4138 18.6942
3.59237 21.7072
3.77094 24.6011
3.9495 28.1008
4.12809 32.5391
4.30669 37.5893
4.4853 44.2912
4.6639 53.0999
4.84253 65.8482
5.02118 91.8391
5.19981 601.889
5.37848 548.003
5.55716 108.846
5.73586 95.5226
5.91455 107.549
6.09328 2447.27
6.27201 91.7075
6.45075 66.3665
6.62952 59.3575
6.8083 55.0106
6.98711 52.9708
7.16591 51.7599
7.34475 51.1962
7.5236 56.3021
7.70247 53.7039
7.88135 55.6041
8.06026 60.0833
8.23919 67.2713
8.41812 83.9033
8.59709 819.111
8.77609 120.952
8.9551 84.8952
9.13412 80.735
9.31318 89.107
9.49226 82.8092
9.67134 87.7065
9.85047 98.1564
10.0296 565.913
10.2088 1096.37
10.388 104.384
10.5672 295.633
10.7465 92.0285
10.9257 75.1979
11.105 69.4593
11.2844 65.2688
11.4637 62.5271
11.6431 61.3067
11.8225 60.5934
12.002 66.6502
12.1814 110.906
12.3609 77.6767
12.5405 62.5668
12.72 64.5429
12.8996 68.8905
13.0792 78.6717
13.2589 194.041
13.4386 230.619
13.6183 179.823
13.7981 167.416
13.9779 75.487
14.1577 74.8177
14.3376 68.3672
14.5175 67.7325
14.6974 68.9339
14.8774 120.306
15.0574 205.002
15.2374 68.5645
15.4175 65.4309
15.5976 64.9175
15.7778 107.501
15.958 181.494
16.1382 61.5629
16.3185 56.6457
16.4988 54.4735
16.6792 53.4738
16.8596 53.6515
17.04 54.8147
17.2205 63.9728
17.401 81.1098
17.5815 58.4393
17.7622 60.7942
17.9428 84.1464
18.1237 107.481
18.3044 87.5637
18.4852 97.1839
18.666 60.3089
18.8469 57.5823
19.0278 56.1761
19.2088 61.3706
19.3898 66.9995
19.5709 56.3734
19.752 52.7447
19.9332 57.9615
20.1144 65.2539
20.2957 60.1644
20.477 59.4775
20.6586 49.3502
20.84 48.5931
21.0215 48.5373
21.203 49.0506
21.3846 50.2815
21.5662 48.5603
21.7479 53.6562
21.9297 60.3065
22.1115 55.9256
22.2933 52.5715
22.4753 48.4305
22.6572 48.6547
22.8393 51.154
23.0214 55.8828
23.2037 49.6462
23.3859 51.5212
23.5682 52.3845
23.7505 53.786
23.9329 45.3463
24.1154 44.0141
24.2979 43.1996
24.4805 42.6399
24.6631 42.6445
24.8458 42.1272
25.0286 42.554
25.2114 43.8083
25.3943 44.2022
25.5773 41.6068
25.7605 40.4353
25.9436 40.5577
26.1268 41.17
26.31 40.8279
26.4933 40.5599
26.6767 41.5023
26.8601 40.9289
27.0437 39.1406
27.2272 38.6907
27.4109 38.2274
27.5946 38.4449
27.7784 38.3693
27.9623 38.1135
28.1462 38.9281
28.3304 37.8115
28.5145 35.9721
28.6987 35.5733
28.8829 35.2315
29.0673 34.9305
29.2517 34.1754
29.4361 33.8668
29.6207 33.3021
29.8053 32.7477
29.99 32.4094
30.1748 32.3065
30.3597 32.3469
30.5447 32.0491
30.7297 31.951
30.915 31.7523
31.1002 31.3133
31.2855 30.8029
31.4708 30.6599
31.6563 30.6076
31.8418 30.1852
32.0275 29.887
32.2132 29.4577
32.399 28.9397
32.5848 28.3246
32.7708 28.0982
32.9569 27.9439
33.143 27.6556
33.3293 27.3454
33.5158 27.134
33.7022 26.55
33.8887 26.2018
34.0753 25.972
34.262 25.6073
34.4488 25.2884
34.6357 24.9745
34.8227 24.6657
35.0098 24.4646
35.1969 24.1395
35.3842 23.92
35.5716 23.7495
35.759 23.4177
35.9468 23.0081
36.1345 22.8634
36.3222 22.7113
36.5101 22.326
36.6981 22.1078
36.8861 21.773
37.0743 21.4914
37.2626 21.192
37.451 20.9897
37.6395 20.7718
37.8281 20.4524
38.0168 20.141
38.2056 19.9566
38.3945 19.6276
38.5837 19.4102
38.7728 19.0937
38.9621 18.8413
39.1514 18.5993
39.3409 18.3567
39.5304 18.1957
39.7201 18.037
39.9099 17.8137
40.0999 17.5226
40.2899 17.2818
40.48 17.11
40.6703 16.8721
40.8607 16.6691
41.0512 16.4515
41.242 16.1902
41.4327 16.0213
41.6236 15.797
41.8146 15.6062
42.0057 15.4112
42.1969 15.2388
42.3882 14.9866
42.5797 14.788
42.7713 14.6219
42.963 14.3836
43.1549 14.1744
43.3468 13.9834
43.5389 13.7883
43.7312 13.5941
43.9237 13.4451
44.1162 13.2376
44.3088 13.0309
44.5016 12.8605
44.6945 12.6558
44.8875 12.5003
45.0806 12.3039
45.2739 12.1662
45.4673 11.9817
45.6609 11.7939
45.8546 11.6609
46.0484 11.5107
46.2424 11.2936
46.4365 11.1938
46.631 10.9917
46.8254 10.8228
47.0199 10.6796
47.2146 10.5225
47.4095 10.3547
47.6044 10.1706
47.7996 10.0214
47.9948 9.89313
48.1902 9.77321
48.3858 9.65191
48.5815 9.51216
48.7774 9.38094
48.9734 9.25901
49.1696 9.056
49.3661 8.94977
49.5626 8.78177
49.7592 8.68608
49.956 8.53626
50.153 8.40616
50.3501 8.30682
50.5474 8.15971
50.7448 8.04319
50.9424 7.91727
51.1402 7.79634
51.3381 7.6525
51.5362 7.54725
51.7344 7.41796
51.9328 7.2565
52.1316 7.19241
52.3304 7.06342
52.5293 6.96185
52.7284 6.80493
52.9276 6.72764
53.1271 6.59843
53.3267 6.45168
53.5265 6.40365
53.7264 6.31447
53.9266 6.12376
54.1269 6.00686
54.3274 5.89459
54.528 5.70071
54.7289 5.56778
54.9301 5.41354
55.1314 5.29613
55.3328 5.003
55.5344 4.85951
55.7361 4.72683