File: XRD/Ni3Fe_FD0740.xy
TT I
1.27165 7.56012
1.45013 6.41972
1.62863 5.32296
1.80712 5.43505
1.98562 4.1894
2.16411 5.44014
2.34263 5.60867
2.52115 7.65508
2.69965 8.5133
2.87818 8.68658
3.05672 11.1195
3.23527 15.1142
3.4138 18.8691
3.59237 23.9488
3.77094 26.37
3.9495 29.6024
4.12809 34.9164
4.30669 220.722
4.4853 65.6096
4.6639 55.2272
4.84253 66.6175
5.02118 85.8874
5.19981 318.93
5.37848 185.428
5.55716 101.636
5.73586 91.3037
5.91455 92.5471
6.09328 4575.71
6.27201 82.8173
6.45075 66.6886
6.62952 62.8379
6.8083 58.5553
6.98711 55.4416
7.16591 54.835
7.34475 91.2551
7.5236 54.5174
7.70247 56.0034
7.88135 57.7018
8.06026 62.2374
8.23919 69.286
8.41812 84.3743
8.59709 1162.49
8.77609 99.0323
8.9551 90.9351
9.13412 81.6178
9.31318 82.0007
9.49226 83.9697
9.67134 97.761
9.85047 99.1403
10.0296 321.025
10.2088 415.974
10.388 103.883
10.5672 516.997
10.7465 85.7588
10.9257 77.9406
11.105 71.662
11.2844 69.9074
11.4637 64.6909
11.6431 63.4521
11.8225 62.299
12.002 62.9094
12.1814 151.446
12.3609 70.2689
12.5405 64.3478
12.72 69.5219
12.8996 70.4704
13.0792 78.0505
13.2589 234.86
13.4386 126.608
13.6183 245.1
13.7981 97.4215
13.9779 75.4105
14.1577 71.7304
14.3376 71.2616
14.5175 68.1107
14.6974 69.8103
14.8774 108.282
15.0574 151.54
15.2374 70.7185
15.4175 65.8972
15.5976 65.3942
15.7778 92.6626
15.958 156.341
16.1382 62.4498
16.3185 58.374
16.4988 55.2126
16.6792 54.0129
16.8596 54.8718
17.04 55.3126
17.2205 66.1166
17.401 70.6486
17.5815 58.8031
17.7622 60.8634
17.9428 72.1477
18.1237 138.585
18.3044 90.2721
18.4852 77.4975
18.666 59.9852
18.8469 57.6974
19.0278 56.4417
19.2088 58.9212
19.3898 76.2865
19.5709 54.0092
19.752 52.9165
19.9332 55.7821
20.1144 69.2306
20.2957 63.5156
20.477 53.7018
20.6586 49.3634
20.84 48.5581
21.0215 48.2714
21.203 50.591
21.3846 48.7285
21.5662 48.4255
21.7479 52.0224
21.9297 64.2597
22.1115 55.7539
22.2933 49.9623
22.4753 48.6172
22.6572 48.5073
22.8393 51.6297
23.0214 56.9257
23.2037 48.4245
23.3859 49.2002
23.5682 56.8747
23.7505 48.19
23.9329 44.9874
24.1154 43.8516
24.2979 43.1933
24.4805 42.7012
24.6631 42.6788
24.8458 41.9381
25.0286 42.5013
25.2114 44.5537
25.3943 44.3513
25.5773 40.6796
25.7605 40.2334
25.9436 40.635
26.1268 41.358
26.31 39.9007
26.4933 40.5569
26.6767 41.8189
26.8601 40.3793
27.0437 38.7085
27.2272 38.3106
27.4109 38.1938
27.5946 38.2292
27.7784 37.656
27.9623 38.2523
28.1462 38.5785
28.3304 36.9721
28.5145 35.8098
28.6987 35.4493
28.8829 35.1959
29.0673 34.5284
29.2517 34.1118
29.4361 34.0259
29.6207 32.9745
29.8053 32.7396
29.99 32.4632
30.1748 32.3444
30.3597 32.0342
30.5447 31.9948
30.7297 32.0161
30.915 31.419
31.1002 30.9542
31.2855 30.6623
31.4708 30.5778
31.6563 30.2023
31.8418 29.9854
32.0275 29.7429
32.2132 29.2352
32.399 28.8141
32.5848 28.4008
32.7708 28.0322
32.9569 27.7913
33.143 27.7099
33.3293 27.2544
33.5158 26.9639
33.7022 26.4589
33.8887 26.242
34.0753 25.9059
34.262 25.5905
34.4488 25.0979
34.6357 24.8378
34.8227 24.6074
35.0098 24.3698
35.1969 24.1309
35.3842 23.8585
35.5716 23.7092
35.759 23.3462
35.9468 22.9479
36.1345 22.8543
36.3222 22.5541
36.5101 22.263
36.6981 22.0454
36.8861 21.671
37.0743 21.4603
37.2626 21.2044
37.451 20.8878
37.6395 20.7319
37.8281 20.4127
38.0168 20.1511
38.2056 19.8343
38.3945 19.5617
38.5837 19.4031
38.7728 19.1526
38.9621 18.8951
39.1514 18.6032
39.3409 18.4381
39.5304 18.1697
39.7201 17.9747
39.9099 17.7792
40.0999 17.5467
40.2899 17.2866
40.48 17.0664
40.6703 16.8353
40.8607 16.6227
41.0512 16.4391
41.242 16.1966
41.4327 16.0484
41.6236 15.7482
41.8146 15.6067
42.0057 15.3184
42.1969 15.1711
42.3882 14.9043
42.5797 14.7478
42.7713 14.5879
42.963 14.3473
43.1549 14.1723
43.3468 13.9743
43.5389 13.8102
43.7312 13.6124
43.9237 13.4143
44.1162 13.2246
44.3088 13.0606
44.5016 12.8319
44.6945 12.6709
44.8875 12.51
45.0806 12.3218
45.2739 12.1566
45.4673 11.9885
45.6609 11.7776
45.8546 11.6551
46.0484 11.4748
46.2424 11.3166
46.4365 11.1499
46.631 10.9559
46.8254 10.8197
47.0199 10.6631
47.2146 10.5336
47.4095 10.3569
47.6044 10.1636
47.7996 10.0502
47.9948 9.86618
48.1902 9.74094
48.3858 9.61241
48.5815 9.50049
48.7774 9.35331
48.9734 9.24317
49.1696 9.05227
49.3661 8.96824
49.5626 8.76487
49.7592 8.63766
49.956 8.52882
50.153 8.4155
50.3501 8.26162
50.5474 8.16548
50.7448 8.00652
50.9424 7.90867
51.1402 7.78506
51.3381 7.63739
51.5362 7.50535
51.7344 7.41616
51.9328 7.27397
52.1316 7.15923
52.3304 7.04984
52.5293 6.93478
52.7284 6.80996
52.9276 6.70363
53.1271 6.61263
53.3267 6.47481
53.5265 6.39106
53.7264 6.28385
53.9266 6.14633
54.1269 6.0088
54.3274 5.90948
54.528 5.83306
54.7289 5.66504
54.9301 5.43634
55.1314 5.30571
55.3328 5.12963
55.5344 4.93695
55.7361 4.80333