File: XRD/Ni3Fe_FD0707.xy
TT I
1.27165 7.33846
1.45013 5.7301
1.62863 5.78247
1.80712 5.09999
1.98562 4.27829
2.16411 4.47048
2.34263 5.3333
2.52115 6.51998
2.69965 8.46057
2.87818 8.8524
3.05672 11.0447
3.23527 15.2598
3.4138 18.7585
3.59237 22.7745
3.77094 25.7477
3.9495 29.4618
4.12809 34.5485
4.30669 104.708
4.4853 53.8618
4.6639 55.3677
4.84253 68.7529
5.02118 87.6188
5.19981 430.751
5.37848 196.806
5.55716 102.845
5.73586 93.4293
5.91455 95.4434
6.09328 4601.43
6.27201 80.4838
6.45075 69.6629
6.62952 62.7821
6.8083 59.3726
6.98711 55.4552
7.16591 56.1219
7.34475 68.0713
7.5236 54.3243
7.70247 56.4261
7.88135 57.5884
8.06026 62.4085
8.23919 69.264
8.41812 84.1815
8.59709 1251.68
8.77609 98.1014
8.9551 89.4635
9.13412 82.7423
9.31318 84.456
9.49226 84.8301
9.67134 95.3686
9.85047 101.362
10.0296 365.967
10.2088 359.238
10.388 105.767
10.5672 515.394
10.7465 86.1884
10.9257 77.7341
11.105 71.423
11.2844 68.4532
11.4637 64.4993
11.6431 63.3303
11.8225 62.4315
12.002 64.4471
12.1814 155.317
12.3609 67.0012
12.5405 64.8162
12.72 67.9322
12.8996 71.2564
13.0792 80.684
13.2589 250.576
13.4386 120.91
13.6183 260.882
13.7981 94.1175
13.9779 75.7412
14.1577 71.8693
14.3376 70.2596
14.5175 68.9645
14.6974 70.5828
14.8774 114.435
15.0574 140.153
15.2374 69.7406
15.4175 66.1966
15.5976 65.8284
15.7778 96.9901
15.958 148.242
16.1382 61.5033
16.3185 57.8223
16.4988 55.4
16.6792 54.3334
16.8596 54.8214
17.04 55.809
17.2205 67.3387
17.401 69.7088
17.5815 58.9466
17.7622 61.1002
17.9428 74.4465
18.1237 142.358
18.3044 91.5114
18.4852 74.9074
18.666 60.258
18.8469 58.0523
19.0278 56.6243
19.2088 59.299
19.3898 75.9063
19.5709 54.0189
19.752 53.2409
19.9332 56.4693
20.1144 69.6548
20.2957 64.3606
20.477 53.0654
20.6586 49.5931
20.84 48.7096
21.0215 48.573
21.203 50.9003
21.3846 48.8655
21.5662 48.9526
21.7479 52.8637
21.9297 65.1066
22.1115 55.9951
22.2933 49.5466
22.4753 48.6451
22.6572 48.9847
22.8393 52.035
23.0214 57.0781
23.2037 48.673
23.3859 49.7743
23.5682 57.2177
23.7505 47.9624
23.9329 44.9889
24.1154 43.9431
24.2979 43.4209
24.4805 42.7792
24.6631 42.7347
24.8458 42.1803
25.0286 42.8723
25.2114 44.6496
25.3943 44.4118
25.5773 40.7718
25.7605 40.3977
25.9436 40.7433
26.1268 41.5829
26.31 40.018
26.4933 40.7627
26.6767 42.0249
26.8601 40.3524
27.0437 38.7051
27.2272 38.3892
27.4109 38.3748
27.5946 38.2077
27.7784 37.774
27.9623 38.445
28.1462 38.696
28.3304 36.9895
28.5145 35.8325
28.6987 35.5084
28.8829 35.348
29.0673 34.5404
29.2517 34.2061
29.4361 34.025
29.6207 33.0812
29.8053 32.782
29.99 32.5101
30.1748 32.4161
30.3597 32.2146
30.5447 32.0725
30.7297 32.1165
30.915 31.4884
31.1002 31.0242
31.2855 30.7577
31.4708 30.7727
31.6563 30.3107
31.8418 30.0617
32.0275 29.8409
32.2132 29.2663
32.399 28.8494
32.5848 28.4113
32.7708 28.1772
32.9569 27.9912
33.143 27.643
33.3293 27.3954
33.5158 26.9042
33.7022 26.5668
33.8887 26.3091
34.0753 25.9484
34.262 25.5607
34.4488 25.2769
34.6357 24.845
34.8227 24.5833
35.0098 24.4255
35.1969 24.1346
35.3842 23.9539
35.5716 23.7208
35.759 23.3934
35.9468 23.0441
36.1345 22.8512
36.3222 22.5855
36.5101 22.4197
36.6981 22.0945
36.8861 21.7093
37.0743 21.4614
37.2626 21.2339
37.451 20.9075
37.6395 20.744
37.8281 20.4075
38.0168 20.1321
38.2056 19.8895
38.3945 19.6585
38.5837 19.4423
38.7728 19.1409
38.9621 18.8915
39.1514 18.6672
39.3409 18.464
39.5304 18.1569
39.7201 17.9858
39.9099 17.7612
40.0999 17.5112
40.2899 17.2985
40.48 17.0634
40.6703 16.9128
40.8607 16.7204
41.0512 16.4428
41.242 16.1802
41.4327 16.0102
41.6236 15.8491
41.8146 15.6605
42.0057 15.4085
42.1969 15.186
42.3882 14.9853
42.5797 14.7555
42.7713 14.5552
42.963 14.371
43.1549 14.1978
43.3468 13.9506
43.5389 13.7669
43.7312 13.5909
43.9237 13.4105
44.1162 13.1984
44.3088 13.0389
44.5016 12.8391
44.6945 12.7262
44.8875 12.5229
45.0806 12.2954
45.2739 12.2042
45.4673 12.0237
45.6609 11.8366
45.8546 11.6495
46.0484 11.4687
46.2424 11.3751
46.4365 11.1422
46.631 10.961
46.8254 10.8232
47.0199 10.6498
47.2146 10.5651
47.4095 10.3561
47.6044 10.1905
47.7996 10.059
47.9948 9.91222
48.1902 9.76318
48.3858 9.63069
48.5815 9.49932
48.7774 9.36799
48.9734 9.21771
49.1696 9.07472
49.3661 8.93565
49.5626 8.77262
49.7592 8.64578
49.956 8.53434
50.153 8.41049
50.3501 8.29667
50.5474 8.12486
50.7448 8.03028
50.9424 7.90555
51.1402 7.77013
51.3381 7.62654
51.5362 7.53611
51.7344 7.35725
51.9328 7.26434
52.1316 7.16379
52.3304 7.00722
52.5293 6.93784
52.7284 6.80943
52.9276 6.68279
53.1271 6.6142
53.3267 6.46372
53.5265 6.36448
53.7264 6.2724
53.9266 6.16506
54.1269 6.05539
54.3274 5.88669
54.528 5.81492
54.7289 5.63757
54.9301 5.48021
55.1314 5.34208
55.3328 5.12162
55.5344 4.98115
55.7361 4.80339