File: XRD/Ni3Fe_FD0950.xy
TT I
1.27165 7.34424
1.45013 6.59315
1.62863 5.73413
1.80712 4.84998
1.98562 4.34299
2.16411 4.74401
2.34263 5.64816
2.52115 7.85069
2.69965 8.70896
2.87818 8.927
3.05672 11.4724
3.23527 15.5625
3.4138 18.831
3.59237 23.3968
3.77094 25.9303
3.9495 29.4911
4.12809 33.6951
4.30669 122.472
4.4853 55.435
4.6639 54.7889
4.84253 67.5244
5.02118 86.3577
5.19981 315.587
5.37848 187.03
5.55716 101.025
5.73586 91.3979
5.91455 92.8534
6.09328 4496.47
6.27201 79.3167
6.45075 68.5742
6.62952 62.3472
6.8083 58.1813
6.98711 54.9909
7.16591 55.8852
7.34475 71.0051
7.5236 53.6517
7.70247 56.1512
7.88135 57.0572
8.06026 62.0247
8.23919 68.6114
8.41812 82.689
8.59709 1170.74
8.77609 96.6751
8.9551 88.5995
9.13412 81.8431
9.31318 83.1743
9.49226 83.617
9.67134 94.5455
9.85047 99.6262
10.0296 325.286
10.2088 374.572
10.388 101.998
10.5672 530.605
10.7465 84.8933
10.9257 76.6464
11.105 70.4588
11.2844 68.366
11.4637 63.9379
11.6431 62.2561
11.8225 61.5913
12.002 62.8238
12.1814 156.751
12.3609 66.7984
12.5405 63.8032
12.72 66.973
12.8996 70.1902
13.0792 77.8687
13.2589 242.715
13.4386 119.172
13.6183 256.008
13.7981 94.7004
13.9779 74.4368
14.1577 70.9286
14.3376 69.4196
14.5175 67.9089
14.6974 69.1566
14.8774 110.218
15.0574 143.863
15.2374 68.7485
15.4175 65.2962
15.5976 64.6191
15.7778 93.8886
15.958 149.68
16.1382 60.5127
16.3185 57.091
16.4988 54.4461
16.6792 53.6094
16.8596 54.0903
17.04 54.8366
17.2205 65.8315
17.401 68.7858
17.5815 58.1565
17.7622 60.1693
17.9428 71.9878
18.1237 136.755
18.3044 90.479
18.4852 74.7085
18.666 59.5001
18.8469 56.9978
19.0278 55.8577
19.2088 58.1624
19.3898 74.2147
19.5709 53.2459
19.752 52.2868
19.9332 55.1713
20.1144 68.7126
20.2957 63.7601
20.477 52.4064
20.6586 48.9223
20.84 47.9755
21.0215 47.7645
21.203 50.1677
21.3846 48.0781
21.5662 47.9568
21.7479 51.8034
21.9297 63.3878
22.1115 55.3734
22.2933 49.0117
22.4753 47.8568
22.6572 48.0312
22.8393 51.1494
23.0214 55.9618
23.2037 47.8844
23.3859 49.0594
23.5682 56.5823
23.7505 47.3728
23.9329 44.4382
24.1154 43.3316
24.2979 42.6436
24.4805 42.2251
24.6631 42.003
24.8458 41.6259
25.0286 42.308
25.2114 43.9666
25.3943 43.6659
25.5773 40.0927
25.7605 39.7058
25.9436 40.0744
26.1268 40.997
26.31 39.3682
26.4933 40.0774
26.6767 41.5499
26.8601 39.8538
27.0437 38.3389
27.2272 37.8056
27.4109 37.8347
27.5946 37.881
27.7784 37.194
27.9623 37.84
28.1462 38.2206
28.3304 36.6198
28.5145 35.3161
28.6987 34.9414
28.8829 34.8876
29.0673 34.1202
29.2517 33.7362
29.4361 33.4678
29.6207 32.571
29.8053 32.4283
29.99 32.0563
30.1748 31.9209
30.3597 31.6404
30.5447 31.5839
30.7297 31.6746
30.915 31.0225
31.1002 30.582
31.2855 30.3571
31.4708 30.2481
31.6563 29.8295
31.8418 29.7013
32.0275 29.475
32.2132 28.8542
32.399 28.4727
32.5848 27.9834
32.7708 27.7448
32.9569 27.5964
33.143 27.4039
33.3293 27.0098
33.5158 26.5602
33.7022 26.124
33.8887 25.9101
34.0753 25.5608
34.262 25.2936
34.4488 24.9063
34.6357 24.5021
34.8227 24.2599
35.0098 24.1094
35.1969 23.7669
35.3842 23.6001
35.5716 23.3975
35.759 23.0897
35.9468 22.7659
36.1345 22.4917
36.3222 22.2882
36.5101 22.0566
36.6981 21.7016
36.8861 21.5035
37.0743 21.1383
37.2626 20.91
37.451 20.6357
37.6395 20.5198
37.8281 20.1775
38.0168 19.8327
38.2056 19.5889
38.3945 19.3225
38.5837 19.0707
38.7728 18.9251
38.9621 18.6131
39.1514 18.4054
39.3409 18.1955
39.5304 17.9342
39.7201 17.7914
39.9099 17.5311
40.0999 17.3142
40.2899 17.0404
40.48 16.8639
40.6703 16.682
40.8607 16.4936
41.0512 16.2453
41.242 15.9569
41.4327 15.8126
41.6236 15.5975
41.8146 15.4117
42.0057 15.1789
42.1969 14.9935
42.3882 14.8362
42.5797 14.578
42.7713 14.389
42.963 14.1755
43.1549 13.9497
43.3468 13.7861
43.5389 13.5909
43.7312 13.3778
43.9237 13.2685
44.1162 13.0294
44.3088 12.8434
44.5016 12.6837
44.6945 12.5002
44.8875 12.4002
45.0806 12.1996
45.2739 11.9967
45.4673 11.87
45.6609 11.646
45.8546 11.5083
46.0484 11.3259
46.2424 11.1359
46.4365 10.9963
46.631 10.8252
46.8254 10.7051
47.0199 10.5269
47.2146 10.3716
47.4095 10.2597
47.6044 10.0357
47.7996 9.95629
47.9948 9.76756
48.1902 9.63386
48.3858 9.50794
48.5815 9.33519
48.7774 9.27008
48.9734 9.10379
49.1696 8.95274
49.3661 8.83538
49.5626 8.67606
49.7592 8.54844
49.956 8.44856
50.153 8.30282
50.3501 8.16407
50.5474 8.03962
50.7448 7.92715
50.9424 7.80647
51.1402 7.66475
51.3381 7.5407
51.5362 7.43416
51.7344 7.28236
51.9328 7.13737
52.1316 7.05783
52.3304 7.01105
52.5293 6.82376
52.7284 6.73921
52.9276 6.60852
53.1271 6.51637
53.3267 6.38573
53.5265 6.26607
53.7264 6.20457
53.9266 6.08829
54.1269 5.9754
54.3274 5.85699
54.528 5.69394
54.7289 5.57653
54.9301 5.39428
55.1314 5.25187
55.3328 5.05477
55.5344 4.87775
55.7361 4.79345