File: XRD/Ni3Fe_FD0843.xy
TT I
1.27165 7.17665
1.45013 6.2008
1.62863 4.7373
1.80712 4.61067
1.98562 4.72485
2.16411 5.42457
2.34263 5.66587
2.52115 7.62185
2.69965 7.94374
2.87818 8.61944
3.05672 11.8499
3.23527 15.8447
3.4138 18.7024
3.59237 23.587
3.77094 25.851
3.9495 29.2873
4.12809 34.9094
4.30669 181.884
4.4853 61.2778
4.6639 55.035
4.84253 67.0303
5.02118 85.4326
5.19981 314.825
5.37848 177.984
5.55716 100.85
5.73586 91.3081
5.91455 92.1684
6.09328 4378.55
6.27201 80.6906
6.45075 66.7011
6.62952 61.9952
6.8083 58.2898
6.98711 55.2171
7.16591 54.5778
7.34475 83.1714
7.5236 54.1418
7.70247 55.4735
7.88135 57.3415
8.06026 61.1077
8.23919 68.357
8.41812 83.6731
8.59709 1166.8
8.77609 97.7539
8.9551 90.0679
9.13412 81.4337
9.31318 81.944
9.49226 83.6506
9.67134 96.02
9.85047 98.5379
10.0296 320.434
10.2088 403.127
10.388 103.033
10.5672 532.173
10.7465 85.6779
10.9257 77.282
11.105 70.8997
11.2844 69.0196
11.4637 64.3266
11.6431 62.7691
11.8225 61.499
12.002 62.4736
12.1814 156.403
12.3609 68.7217
12.5405 63.7405
12.72 68.4097
12.8996 69.9622
13.0792 77.6658
13.2589 241.072
13.4386 121.447
13.6183 251.674
13.7981 95.7656
13.9779 74.5761
14.1577 71.3634
14.3376 70.3553
14.5175 68.0814
14.6974 69.3052
14.8774 108.855
15.0574 146.465
15.2374 69.5084
15.4175 65.6703
15.5976 64.7553
15.7778 92.6959
15.958 150.488
16.1382 61.5962
16.3185 57.7219
16.4988 54.7345
16.6792 53.7314
16.8596 54.4942
17.04 54.9921
17.2205 66.1678
17.401 69.925
17.5815 58.5105
17.7622 60.4416
17.9428 72.2487
18.1237 138.008
18.3044 90.709
18.4852 75.8911
18.666 59.6782
18.8469 57.3382
19.0278 56.0737
19.2088 58.597
19.3898 75.8269
19.5709 53.6815
19.752 52.7308
19.9332 55.5006
20.1144 69.1672
20.2957 63.61
20.477 53.0234
20.6586 48.9204
20.84 48.293
21.0215 48.0925
21.203 50.3917
21.3846 48.3364
21.5662 48.097
21.7479 51.8699
21.9297 63.7118
22.1115 55.3383
22.2933 49.2568
22.4753 48.3152
22.6572 48.3558
22.8393 51.4861
23.0214 56.3385
23.2037 48.2248
23.3859 49.0358
23.5682 56.6195
23.7505 47.6922
23.9329 44.7177
24.1154 43.6026
24.2979 42.9092
24.4805 42.4486
24.6631 42.1579
24.8458 41.8147
25.0286 42.3564
25.2114 44.2311
25.3943 44.0643
25.5773 40.574
25.7605 39.9643
25.9436 40.3035
26.1268 41.2186
26.31 39.6141
26.4933 40.2919
26.6767 41.6376
26.8601 39.9663
27.0437 38.5197
27.2272 38.0993
27.4109 38.0227
27.5946 37.9187
27.7784 37.2737
27.9623 38.0542
28.1462 38.3681
28.3304 36.7241
28.5145 35.5983
28.6987 35.146
28.8829 35.06
29.0673 34.2507
29.2517 33.9538
29.4361 33.6717
29.6207 32.7092
29.8053 32.6068
29.99 32.2055
30.1748 32.1187
30.3597 31.8404
30.5447 31.7455
30.7297 31.8815
30.915 31.2981
31.1002 30.803
31.2855 30.4307
31.4708 30.4534
31.6563 30.0258
31.8418 29.8567
32.0275 29.5176
32.2132 29.0196
32.399 28.6201
32.5848 28.1321
32.7708 27.9414
32.9569 27.604
33.143 27.4921
33.3293 27.0559
33.5158 26.8008
33.7022 26.3567
33.8887 26.0632
34.0753 25.7074
34.262 25.3976
34.4488 25.034
34.6357 24.6678
34.8227 24.3561
35.0098 24.2014
35.1969 23.9869
35.3842 23.7063
35.5716 23.5385
35.759 23.2266
35.9468 22.8245
36.1345 22.6481
36.3222 22.3774
36.5101 22.1662
36.6981 21.8386
36.8861 21.5162
37.0743 21.3043
37.2626 21.0195
37.451 20.7472
37.6395 20.5023
37.8281 20.2178
38.0168 19.987
38.2056 19.7097
38.3945 19.4614
38.5837 19.2054
38.7728 19.0247
38.9621 18.7541
39.1514 18.5105
39.3409 18.2333
39.5304 18.0272
39.7201 17.8722
39.9099 17.6504
40.0999 17.4067
40.2899 17.1694
40.48 16.9278
40.6703 16.7251
40.8607 16.5571
41.0512 16.3469
41.242 16.0643
41.4327 15.9126
41.6236 15.6547
41.8146 15.4828
42.0057 15.2134
42.1969 15.0096
42.3882 14.8768
42.5797 14.7035
42.7713 14.4427
42.963 14.2736
43.1549 14.0617
43.3468 13.8691
43.5389 13.6873
43.7312 13.4592
43.9237 13.2914
44.1162 13.1423
44.3088 12.9474
44.5016 12.7043
44.6945 12.5757
44.8875 12.4411
45.0806 12.2269
45.2739 12.0572
45.4673 11.8992
45.6609 11.733
45.8546 11.5656
46.0484 11.4398
46.2424 11.2358
46.4365 11.0917
46.631 10.91
46.8254 10.7258
47.0199 10.5716
47.2146 10.4576
47.4095 10.2707
47.6044 10.1299
47.7996 9.98003
47.9948 9.85055
48.1902 9.68878
48.3858 9.53974
48.5815 9.42633
48.7774 9.29942
48.9734 9.15476
49.1696 9.02071
49.3661 8.86406
49.5626 8.73089
49.7592 8.59946
49.956 8.46852
50.153 8.35461
50.3501 8.19331
50.5474 8.11245
50.7448 7.97896
50.9424 7.85203
51.1402 7.72018
51.3381 7.5601
51.5362 7.47205
51.7344 7.34079
51.9328 7.21598
52.1316 7.12527
52.3304 7.01063
52.5293 6.86553
52.7284 6.74375
52.9276 6.63892
53.1271 6.549
53.3267 6.44478
53.5265 6.29854
53.7264 6.19571
53.9266 6.08883
54.1269 5.96423
54.3274 5.86685
54.528 5.73763
54.7289 5.64034
54.9301 5.43289
55.1314 5.30787
55.3328 5.07095
55.5344 4.86814
55.7361 4.78274