File: XRD/Ni3Fe_FD0708.xy
TT I
1.27165 7.38948
1.45013 6.30548
1.62863 5.21061
1.80712 4.82524
1.98562 4.62613
2.16411 4.92209
2.34263 5.67377
2.52115 6.7511
2.69965 7.51212
2.87818 8.68119
3.05672 10.9571
3.23527 14.946
3.4138 19.1395
3.59237 23.1928
3.77094 25.4656
3.9495 29.5538
4.12809 34.202
4.30669 104.572
4.4853 53.8608
4.6639 55.4873
4.84253 68.2163
5.02118 87.5983
5.19981 430.754
5.37848 197.369
5.55716 102.171
5.73586 92.8581
5.91455 95.8154
6.09328 4597.93
6.27201 80.6936
6.45075 69.6763
6.62952 62.9226
6.8083 59.4065
6.98711 55.4485
7.16591 55.989
7.34475 67.6534
7.5236 54.2182
7.70247 56.7525
7.88135 57.1083
8.06026 62.4463
8.23919 69.1817
8.41812 84.3354
8.59709 1255.24
8.77609 98.1497
8.9551 89.8479
9.13412 82.9455
9.31318 84.8706
9.49226 84.82
9.67134 95.5602
9.85047 101.664
10.0296 365.197
10.2088 355.262
10.388 105.941
10.5672 511.049
10.7465 85.9977
10.9257 77.6529
11.105 71.2562
11.2844 68.0499
11.4637 64.4538
11.6431 63.1946
11.8225 62.5379
12.002 64.5613
12.1814 155.009
12.3609 67.0312
12.5405 64.7229
12.72 68.0924
12.8996 71.4633
13.0792 80.8289
13.2589 250.315
13.4386 120.623
13.6183 259.21
13.7981 94.0252
13.9779 75.9008
14.1577 71.6738
14.3376 70.0935
14.5175 68.61
14.6974 70.4538
14.8774 114.404
15.0574 139.329
15.2374 69.4054
15.4175 66.303
15.5976 66.2006
15.7778 97.0871
15.958 147.958
16.1382 61.2814
16.3185 57.7622
16.4988 55.2247
16.6792 54.2985
16.8596 54.7776
17.04 55.9351
17.2205 67.2195
17.401 69.5993
17.5815 58.9933
17.7622 61.4233
17.9428 74.4116
18.1237 141.918
18.3044 91.6207
18.4852 74.9341
18.666 60.1231
18.8469 57.9921
19.0278 56.6488
19.2088 59.4273
19.3898 76.0738
19.5709 53.8089
19.752 53.3605
19.9332 56.3289
20.1144 69.478
20.2957 64.1958
20.477 52.7169
20.6586 49.461
20.84 48.7002
21.0215 48.4371
21.203 50.7961
21.3846 48.5081
21.5662 48.8789
21.7479 52.8626
21.9297 64.7551
22.1115 56.0819
22.2933 49.4307
22.4753 48.5918
22.6572 48.8448
22.8393 52.123
23.0214 57.0226
23.2037 48.7171
23.3859 49.743
23.5682 57.2771
23.7505 47.8198
23.9329 45.0697
24.1154 43.895
24.2979 43.2679
24.4805 42.814
24.6631 42.6552
24.8458 42.2238
25.0286 42.845
25.2114 44.5326
25.3943 44.512
25.5773 40.7779
25.7605 40.1993
25.9436 40.8815
26.1268 41.6482
26.31 39.8352
26.4933 40.7114
26.6767 42.0635
26.8601 40.1843
27.0437 38.66
27.2272 38.3361
27.4109 38.3565
27.5946 38.3827
27.7784 37.8303
27.9623 38.341
28.1462 38.6841
28.3304 36.9704
28.5145 35.8091
28.6987 35.5292
28.8829 35.3619
29.0673 34.4321
29.2517 34.1765
29.4361 34.0142
29.6207 33.0505
29.8053 32.8086
29.99 32.4394
30.1748 32.2611
30.3597 32.2168
30.5447 32.0344
30.7297 32.1273
30.915 31.4602
31.1002 31.1968
31.2855 30.8633
31.4708 30.7325
31.6563 30.3149
31.8418 30.0852
32.0275 29.7981
32.2132 29.2763
32.399 28.8356
32.5848 28.4115
32.7708 28.0871
32.9569 27.9232
33.143 27.6636
33.3293 27.2823
33.5158 26.9559
33.7022 26.5898
33.8887 26.2892
34.0753 25.8845
34.262 25.569
34.4488 25.2491
34.6357 24.9136
34.8227 24.615
35.0098 24.4404
35.1969 24.0301
35.3842 23.9033
35.5716 23.7303
35.759 23.3904
35.9468 23.086
36.1345 22.8246
36.3222 22.5299
36.5101 22.2706
36.6981 22.0373
36.8861 21.7606
37.0743 21.5546
37.2626 21.2003
37.451 20.8952
37.6395 20.7356
37.8281 20.4083
38.0168 20.1542
38.2056 19.9114
38.3945 19.6024
38.5837 19.4056
38.7728 19.1734
38.9621 18.8513
39.1514 18.59
39.3409 18.414
39.5304 18.158
39.7201 17.9876
39.9099 17.8044
40.0999 17.5588
40.2899 17.2371
40.48 17.0521
40.6703 16.8798
40.8607 16.6814
41.0512 16.3893
41.242 16.187
41.4327 15.974
41.6236 15.7194
41.8146 15.5848
42.0057 15.3901
42.1969 15.2034
42.3882 15.0159
42.5797 14.7399
42.7713 14.6436
42.963 14.3687
43.1549 14.1678
43.3468 13.973
43.5389 13.8057
43.7312 13.6068
43.9237 13.4088
44.1162 13.2369
44.3088 13.0578
44.5016 12.8733
44.6945 12.6762
44.8875 12.5288
45.0806 12.348
45.2739 12.1583
45.4673 12.0046
45.6609 11.7845
45.8546 11.6715
46.0484 11.5049
46.2424 11.3248
46.4365 11.1543
46.631 11.0033
46.8254 10.8921
47.0199 10.6778
47.2146 10.5212
47.4095 10.3248
47.6044 10.2159
47.7996 10.0475
47.9948 9.91898
48.1902 9.73376
48.3858 9.61446
48.5815 9.51045
48.7774 9.33768
48.9734 9.21967
49.1696 9.09366
49.3661 8.94726
49.5626 8.78315
49.7592 8.65101
49.956 8.54084
50.153 8.39316
50.3501 8.25109
50.5474 8.16811
50.7448 8.04251
50.9424 7.90465
51.1402 7.81149
51.3381 7.6587
51.5362 7.52529
51.7344 7.39937
51.9328 7.26022
52.1316 7.13071
52.3304 7.06931
52.5293 6.91406
52.7284 6.7878
52.9276 6.73304
53.1271 6.59783
53.3267 6.48126
53.5265 6.34036
53.7264 6.23002
53.9266 6.18232
54.1269 6.02603
54.3274 5.90482
54.528 5.78905
54.7289 5.61729
54.9301 5.48813
55.1314 5.35791
55.3328 5.14601
55.5344 4.95783
55.7361 4.80685