File: XRD/Ni3Fe_FD0346.xy
TT I
1.27165 7.65277
1.45013 6.45155
1.62863 5.41785
1.80712 4.76904
1.98562 4.56685
2.16411 5.04209
2.34263 5.067
2.52115 5.84737
2.69965 7.532
2.87818 8.50527
3.05672 11.335
3.23527 14.5292
3.4138 19.5191
3.59237 23.0964
3.77094 26.5071
3.9495 30.661
4.12809 35.2986
4.30669 136.444
4.4853 58.3321
4.6639 56.8317
4.84253 69.6309
5.02118 91.9634
5.19981 599.523
5.37848 224.794
5.55716 106.76
5.73586 96.8585
5.91455 101.866
6.09328 4026.69
6.27201 85.8422
6.45075 69.3501
6.62952 63.8643
6.8083 60.0019
6.98711 57.6378
7.16591 56.6446
7.34475 76.1165
7.5236 55.8511
7.70247 57.3659
7.88135 59.4758
8.06026 63.9809
8.23919 71.309
8.41812 88.613
8.59709 1181.16
8.77609 104.574
8.9551 91.4836
9.13412 84.4292
9.31318 85.9435
9.49226 87.2667
9.67134 97.8686
9.85047 103.817
10.0296 439.689
10.2088 472.805
10.388 110.236
10.5672 487.053
10.7465 89.3234
10.9257 79.8331
11.105 73.643
11.2844 70.9605
11.4637 66.4462
11.6431 65.1819
11.8225 64.5181
12.002 66.3472
12.1814 150.921
12.3609 70.5633
12.5405 66.3622
12.72 70.4048
12.8996 73.3315
13.0792 82.7931
13.2589 246.752
13.4386 132.799
13.6183 244.19
13.7981 102.232
13.9779 78.0519
14.1577 74.2402
14.3376 72.815
14.5175 71.0378
14.6974 73.0605
14.8774 119.961
15.0574 154.177
15.2374 72.0431
15.4175 68.2979
15.5976 68.1565
15.7778 102.871
15.958 163.026
16.1382 63.7235
16.3185 59.8311
16.4988 57.1901
16.6792 55.9816
16.8596 56.4989
17.04 57.9064
17.2205 69.2653
17.401 73.57
17.5815 61.2245
17.7622 63.1675
17.9428 78.98
18.1237 139.848
18.3044 91.6277
18.4852 80.0267
18.666 62.1565
18.8469 59.8402
19.0278 58.7025
19.2088 61.8375
19.3898 76.7795
19.5709 55.7068
19.752 54.8998
19.9332 58.4035
20.1144 71.3806
20.2957 64.6282
20.477 55.1398
20.6586 51.1689
20.84 50.3319
21.0215 50.2502
21.203 52.0444
21.3846 50.4567
21.5662 50.5545
21.7479 54.8281
21.9297 65.9802
22.1115 57.1526
22.2933 51.291
22.4753 50.2932
22.6572 50.6606
22.8393 53.8318
23.0214 58.9496
23.2037 50.4004
23.3859 51.6082
23.5682 57.6563
23.7505 49.7963
23.9329 46.4638
24.1154 45.2315
24.2979 44.6546
24.4805 44.2374
24.6631 43.9894
24.8458 43.5154
25.0286 44.5186
25.2114 45.8687
25.3943 45.9806
25.5773 42.1074
25.7605 41.7408
25.9436 42.0473
26.1268 42.8255
26.31 41.3668
26.4933 42.0154
26.6767 43.2655
26.8601 41.6088
27.0437 40.0648
27.2272 39.6222
27.4109 39.4265
27.5946 39.4532
27.7784 39.1423
27.9623 39.4073
28.1462 39.9286
28.3304 38.3565
28.5145 36.9964
28.6987 36.5516
28.8829 36.3354
29.0673 35.6805
29.2517 35.2833
29.4361 35.0826
29.6207 34.1352
29.8053 33.8786
29.99 33.5679
30.1748 33.2679
30.3597 33.1647
30.5447 33.1535
30.7297 33.0619
30.915 32.5138
31.1002 31.9231
31.2855 31.7307
31.4708 31.5769
31.6563 31.289
31.8418 30.9701
32.0275 30.8355
32.2132 30.1134
32.399 29.7662
32.5848 29.278
32.7708 29.0363
32.9569 28.8157
33.143 28.4945
33.3293 28.1952
33.5158 27.8302
33.7022 27.4104
33.8887 27.0198
34.0753 26.6527
34.262 26.3531
34.4488 26.01
34.6357 25.678
34.8227 25.4641
35.0098 25.1571
35.1969 24.8544
35.3842 24.6421
35.5716 24.4665
35.759 24.1329
35.9468 23.7832
36.1345 23.5064
36.3222 23.2549
36.5101 23.0923
36.6981 22.7231
36.8861 22.4233
37.0743 22.135
37.2626 21.888
37.451 21.5583
37.6395 21.3883
37.8281 21.0416
38.0168 20.7978
38.2056 20.4599
38.3945 20.2153
38.5837 19.9599
38.7728 19.7052
38.9621 19.486
39.1514 19.1974
39.3409 18.9457
39.5304 18.7401
39.7201 18.6132
39.9099 18.3608
40.0999 18.0705
40.2899 17.8051
40.48 17.6488
40.6703 17.4216
40.8607 17.1717
41.0512 16.9013
41.242 16.6941
41.4327 16.5079
41.6236 16.2298
41.8146 16.0878
42.0057 15.8111
42.1969 15.6581
42.3882 15.3943
42.5797 15.1772
42.7713 14.9826
42.963 14.8155
43.1549 14.5972
43.3468 14.4109
43.5389 14.1764
43.7312 13.9807
43.9237 13.7884
44.1162 13.5976
44.3088 13.4573
44.5016 13.2676
44.6945 13.0616
44.8875 12.9206
45.0806 12.7154
45.2739 12.5264
45.4673 12.3657
45.6609 12.1416
45.8546 11.9819
46.0484 11.8453
46.2424 11.6651
46.4365 11.4997
46.631 11.3017
46.8254 11.1735
47.0199 11.001
47.2146 10.8272
47.4095 10.7364
47.6044 10.4346
47.7996 10.3117
47.9948 10.186
48.1902 10.0222
48.3858 9.92025
48.5815 9.78674
48.7774 9.64466
48.9734 9.47463
49.1696 9.34455
49.3661 9.21018
49.5626 9.0474
49.7592 8.9379
49.956 8.81164
50.153 8.62903
50.3501 8.53725
50.5474 8.35831
50.7448 8.27788
50.9424 8.1202
51.1402 8.00538
51.3381 7.85098
51.5362 7.75658
51.7344 7.60394
51.9328 7.4867
52.1316 7.38085
52.3304 7.25141
52.5293 7.15052
52.7284 6.97871
52.9276 6.87396
53.1271 6.81609
53.3267 6.62466
53.5265 6.52743
53.7264 6.44028
53.9266 6.31787
54.1269 6.20987
54.3274 6.1181
54.528 5.92342
54.7289 5.78293
54.9301 5.55134
55.1314 5.52518
55.3328 5.26809
55.5344 5.13614
55.7361 4.9502