File: XRD/Ni3Fe_FD0831.xy
TT I
1.27165 7.17425
1.45013 6.14893
1.62863 5.39006
1.80712 5.00584
1.98562 4.39826
2.16411 4.67134
2.34263 5.29937
2.52115 7.4195
2.69965 9.19341
2.87818 8.92903
3.05672 11.4615
3.23527 15.1482
3.4138 18.2431
3.59237 22.8935
3.77094 25.6555
3.9495 29.3535
4.12809 34.3625
4.30669 91.1252
4.4853 52.4369
4.6639 55.2736
4.84253 68.5825
5.02118 86.7641
5.19981 385.409
5.37848 195.807
5.55716 102.105
5.73586 92.749
5.91455 94.865
6.09328 4515.37
6.27201 78.8699
6.45075 69.9784
6.62952 62.9893
6.8083 59.3177
6.98711 55.1983
7.16591 55.9678
7.34475 64.1761
7.5236 53.7589
7.70247 56.6905
7.88135 57.1182
8.06026 61.9761
8.23919 69.1388
8.41812 83.1055
8.59709 1215.08
8.77609 97.0162
8.9551 89.2359
9.13412 82.4399
9.31318 85.1067
9.49226 84.3971
9.67134 94.939
9.85047 101.453
10.0296 344.754
10.2088 355.041
10.388 103.82
10.5672 535.372
10.7465 85.949
10.9257 77.2656
11.105 70.8458
11.2844 67.8038
11.4637 64.4238
11.6431 62.851
11.8225 62.0909
12.002 63.6937
12.1814 161.854
12.3609 65.8547
12.5405 64.5416
12.72 67.3669
12.8996 71.1034
13.0792 79.4704
13.2589 249.748
13.4386 117.253
13.6183 258.556
13.7981 93.8324
13.9779 75.3193
14.1577 71.0839
14.3376 69.4621
14.5175 68.4703
14.6974 69.989
14.8774 112.097
15.0574 141.907
15.2374 68.6198
15.4175 65.6529
15.5976 65.3201
15.7778 96.1039
15.958 148.264
16.1382 60.5976
16.3185 57.1981
16.4988 54.7827
16.6792 54.0315
16.8596 54.2796
17.04 55.3286
17.2205 66.8754
17.401 68.9437
17.5815 58.7144
17.7622 60.8067
17.9428 73.3015
18.1237 141.041
18.3044 91.1388
18.4852 74.1597
18.666 59.8957
18.8469 57.5237
19.0278 56.3317
19.2088 58.7325
19.3898 75.109
19.5709 53.5407
19.752 52.6991
19.9332 55.724
20.1144 69.5506
20.2957 63.9793
20.477 52.3228
20.6586 49.1666
20.84 48.2445
21.0215 48.0495
21.203 50.5144
21.3846 48.3666
21.5662 48.4965
21.7479 52.3935
21.9297 64.1116
22.1115 55.6672
22.2933 48.9763
22.4753 48.1224
22.6572 48.2798
22.8393 51.7004
23.0214 56.3963
23.2037 48.2549
23.3859 49.3433
23.5682 56.9684
23.7505 47.3646
23.9329 44.7181
24.1154 43.6901
24.2979 42.8493
24.4805 42.4835
24.6631 42.3399
24.8458 41.7957
25.0286 42.4658
25.2114 44.2056
25.3943 43.8725
25.5773 40.557
25.7605 39.9839
25.9436 40.4641
26.1268 41.2503
26.31 39.6505
26.4933 40.2343
26.6767 41.7703
26.8601 39.9944
27.0437 38.4261
27.2272 37.9834
27.4109 38.1099
27.5946 38.0578
27.7784 37.3782
27.9623 38.1519
28.1462 38.2848
28.3304 36.6747
28.5145 35.4748
28.6987 35.3664
28.8829 35.0696
29.0673 34.2903
29.2517 33.9554
29.4361 33.7064
29.6207 32.6905
29.8053 32.501
29.99 32.2268
30.1748 32.0607
30.3597 31.8582
30.5447 31.7758
30.7297 31.9345
30.915 31.276
31.1002 30.7753
31.2855 30.4928
31.4708 30.5296
31.6563 30.0186
31.8418 29.9236
32.0275 29.554
32.2132 29.0063
32.399 28.5626
32.5848 28.2333
32.7708 27.8638
32.9569 27.7179
33.143 27.5517
33.3293 27.0784
33.5158 26.7586
33.7022 26.3855
33.8887 26.0122
34.0753 25.6975
34.262 25.3941
34.4488 25.0056
34.6357 24.7764
34.8227 24.4445
35.0098 24.2074
35.1969 23.9771
35.3842 23.7758
35.5716 23.4688
35.759 23.2392
35.9468 22.8906
36.1345 22.6525
36.3222 22.3992
36.5101 22.2127
36.6981 21.8619
36.8861 21.5818
37.0743 21.1753
37.2626 20.9923
37.451 20.7433
37.6395 20.5894
37.8281 20.2603
38.0168 19.9525
38.2056 19.712
38.3945 19.4616
38.5837 19.215
38.7728 18.9637
38.9621 18.7709
39.1514 18.4783
39.3409 18.2735
39.5304 18.0824
39.7201 17.8397
39.9099 17.5986
40.0999 17.3796
40.2899 17.1395
40.48 16.908
40.6703 16.729
40.8607 16.5444
41.0512 16.3006
41.242 16.0972
41.4327 15.8494
41.6236 15.6611
41.8146 15.5345
42.0057 15.2822
42.1969 14.9906
42.3882 14.8872
42.5797 14.6327
42.7713 14.4479
42.963 14.2503
43.1549 14.082
43.3468 13.8957
43.5389 13.6516
43.7312 13.4695
43.9237 13.2868
44.1162 13.1121
44.3088 12.9186
44.5016 12.7374
44.6945 12.5936
44.8875 12.3906
45.0806 12.2603
45.2739 12.0706
45.4673 11.8873
45.6609 11.7114
45.8546 11.5434
46.0484 11.3692
46.2424 11.2126
46.4365 11.0693
46.631 10.89
46.8254 10.7001
47.0199 10.5673
47.2146 10.4302
47.4095 10.2376
47.6044 10.1299
47.7996 9.97492
47.9948 9.84923
48.1902 9.68258
48.3858 9.57699
48.5815 9.39001
48.7774 9.29159
48.9734 9.13227
49.1696 8.98968
49.3661 8.8252
49.5626 8.71233
49.7592 8.58366
49.956 8.47517
50.153 8.33597
50.3501 8.20748
50.5474 8.09967
50.7448 7.96505
50.9424 7.85305
51.1402 7.68686
51.3381 7.59695
51.5362 7.47753
51.7344 7.31043
51.9328 7.24195
52.1316 7.08699
52.3304 6.99213
52.5293 6.86956
52.7284 6.76778
52.9276 6.62245
53.1271 6.53973
53.3267 6.44977
53.5265 6.32
53.7264 6.17895
53.9266 6.08833
54.1269 6.00478
54.3274 5.88971
54.528 5.75372
54.7289 5.55731
54.9301 5.43095
55.1314 5.23874
55.3328 5.07514
55.5344 4.91073
55.7361 4.81097