File: XRD/Ni3Fe_FD0205.xy
TT I
1.27165 8.07787
1.45013 6.68834
1.62863 5.69577
1.80712 5.28801
1.98562 5.08163
2.16411 5.38821
2.34263 4.44975
2.52115 4.63589
2.69965 5.92812
2.87818 8.01852
3.05672 10.8212
3.23527 15.1382
3.4138 18.7948
3.59237 22.3318
3.77094 26.2623
3.9495 30.1402
4.12809 35.3345
4.30669 40.8271
4.4853 48.8501
4.6639 58.3929
4.84253 71.9322
5.02118 97.2905
5.19981 882.943
5.37848 290.492
5.55716 113.652
5.73586 101.922
5.91455 111.679
6.09328 3512.49
6.27201 89.8407
6.45075 71.026
6.62952 64.1336
6.8083 59.9338
6.98711 57.6138
7.16591 56.2921
7.34475 56.4286
7.5236 57.3978
7.70247 58.2318
7.88135 60.5146
8.06026 65.3431
8.23919 73.3158
8.41812 91.159
8.59709 1034.51
8.77609 112.499
8.9551 91.2544
9.13412 87.1825
9.31318 88.7791
9.49226 90.2913
9.67134 95.7937
9.85047 107.356
10.0296 528.981
10.2088 612.658
10.388 114.47
10.5672 429.85
10.7465 93.3379
10.9257 80.5552
11.105 74.969
11.2844 70.8519
11.4637 67.8628
11.6431 66.1827
11.8225 65.6942
12.002 68.8195
12.1814 137.109
12.3609 70.944
12.5405 67.4828
12.72 69.7568
12.8996 74.8944
13.0792 86.0899
13.2589 224.536
13.4386 154.854
13.6183 220.14
13.7981 116.45
13.9779 80.3233
14.1577 76.1424
14.3376 73.3837
14.5175 73.072
14.6974 74.6405
14.8774 119.136
15.0574 178.515
15.2374 72.6497
15.4175 70.0191
15.5976 70.1351
15.7778 103.57
15.958 178.775
16.1382 64.2234
16.3185 60.5378
16.4988 58.151
16.6792 57.2819
16.8596 57.6851
17.04 59.1573
17.2205 68.8468
17.401 78.875
17.5815 62.4831
17.7622 64.841
17.9428 83.7205
18.1237 136.468
18.3044 89.9845
18.4852 85.9293
18.666 63.7878
18.8469 61.2752
19.0278 60.0039
19.2088 63.2733
19.3898 76.2207
19.5709 57.4599
19.752 56.3312
19.9332 59.9217
20.1144 72.2129
20.2957 64.3306
20.477 57.4928
20.6586 52.3535
20.84 51.5437
21.0215 51.3922
21.203 52.5423
21.3846 52.0866
21.5662 51.8938
21.7479 55.6553
21.9297 66.6927
22.1115 57.8181
22.2933 52.9353
22.4753 51.1018
22.6572 52.2007
22.8393 54.1987
23.0214 60.1302
23.2037 51.6472
23.3859 52.7375
23.5682 57.3769
23.7505 51.6806
23.9329 47.7246
24.1154 46.3936
24.2979 45.6587
24.4805 45.141
24.6631 45.0092
24.8458 44.6448
25.0286 45.1654
25.2114 46.5557
25.3943 46.7692
25.5773 43.1549
25.7605 42.6044
25.9436 42.8221
26.1268 43.4833
26.31 42.2416
26.4933 42.6774
26.6767 43.9866
26.8601 42.5305
27.0437 40.894
27.2272 40.7024
27.4109 40.4138
27.5946 40.461
27.7784 39.9574
27.9623 40.0595
28.1462 40.7497
28.3304 39.0786
28.5145 37.804
28.6987 37.4133
28.8829 36.9633
29.0673 36.4684
29.2517 35.9631
29.4361 35.7461
29.6207 34.8525
29.8053 34.486
29.99 34.2203
30.1748 33.9327
30.3597 33.9462
30.5447 33.7267
30.7297 33.7294
30.915 33.2445
31.1002 32.6909
31.2855 32.4225
31.4708 32.2921
31.6563 31.9214
31.8418 31.5368
32.0275 31.5285
32.2132 30.897
32.399 30.269
32.5848 29.9151
32.7708 29.5493
32.9569 29.4114
33.143 29.0971
33.3293 28.7369
33.5158 28.3491
33.7022 27.9227
33.8887 27.5847
34.0753 27.2872
34.262 26.9914
34.4488 26.5035
34.6357 26.2015
34.8227 25.9811
35.0098 25.732
35.1969 25.3791
35.3842 25.0413
35.5716 24.937
35.759 24.6573
35.9468 24.2464
36.1345 23.9241
36.3222 23.7885
36.5101 23.5781
36.6981 23.1811
36.8861 22.8183
37.0743 22.551
37.2626 22.2766
37.451 21.9962
37.6395 21.8497
37.8281 21.502
38.0168 21.2784
38.2056 21.0213
38.3945 20.5723
38.5837 20.3736
38.7728 20.1275
38.9621 19.9132
39.1514 19.5719
39.3409 19.41
39.5304 19.1857
39.7201 18.9802
39.9099 18.7634
40.0999 18.4814
40.2899 18.2279
40.48 17.9264
40.6703 17.7933
40.8607 17.5721
41.0512 17.2812
41.242 16.983
41.4327 16.876
41.6236 16.6204
41.8146 16.4257
42.0057 16.215
42.1969 15.9257
42.3882 15.7367
42.5797 15.5029
42.7713 15.3914
42.963 15.0809
43.1549 14.9035
43.3468 14.6798
43.5389 14.4757
43.7312 14.2979
43.9237 14.1099
44.1162 13.8985
44.3088 13.6946
44.5016 13.5082
44.6945 13.3087
44.8875 13.1554
45.0806 12.9817
45.2739 12.7314
45.4673 12.6079
45.6609 12.4364
45.8546 12.2651
46.0484 12.0682
46.2424 11.8558
46.4365 11.7439
46.631 11.553
46.8254 11.3464
47.0199 11.1985
47.2146 11.0483
47.4095 10.8586
47.6044 10.7177
47.7996 10.5551
47.9948 10.4262
48.1902 10.2848
48.3858 10.1042
48.5815 9.96318
48.7774 9.81479
48.9734 9.67224
49.1696 9.57803
49.3661 9.40659
49.5626 9.20302
49.7592 9.09566
49.956 8.93078
50.153 8.84803
50.3501 8.6772
50.5474 8.55734
50.7448 8.45898
50.9424 8.2997
51.1402 8.17507
51.3381 8.04018
51.5362 7.93407
51.7344 7.73116
51.9328 7.63379
52.1316 7.49437
52.3304 7.38933
52.5293 7.28081
52.7284 7.13962
52.9276 7.05066
53.1271 6.91043
53.3267 6.77206
53.5265 6.63327
53.7264 6.56076
53.9266 6.44078
54.1269 6.31368
54.3274 6.18603
54.528 6.0284
54.7289 5.84025
54.9301 5.68822
55.1314 5.49309
55.3328 5.30207
55.5344 5.11961
55.7361 5.00104