File: XRD/Ni3Fe_FD0587.xy
TT I
1.27165 7.01862
1.45013 5.63152
1.62863 5.01837
1.80712 4.71778
1.98562 4.59535
2.16411 4.49867
2.34263 5.52033
2.52115 7.11378
2.69965 8.0752
2.87818 8.5963
3.05672 11.2685
3.23527 15.1132
3.4138 19.0623
3.59237 23.2158
3.77094 25.6299
3.9495 29.9069
4.12809 34.4067
4.30669 115.367
4.4853 55.4806
4.6639 56.3449
4.84253 68.8708
5.02118 89.1205
5.19981 478.83
5.37848 201.217
5.55716 103.363
5.73586 93.5918
5.91455 97.662
6.09328 4392.59
6.27201 82.3042
6.45075 68.6706
6.62952 62.9848
6.8083 59.1258
6.98711 56.0912
7.16591 56.142
7.34475 70.4418
7.5236 54.5866
7.70247 56.4884
7.88135 58.1537
8.06026 62.6975
8.23919 70.1254
8.41812 85.1563
8.59709 1244.03
8.77609 99.5539
8.9551 89.7588
9.13412 83.2324
9.31318 84.7956
9.49226 85.8503
9.67134 95.8639
9.85047 101.751
10.0296 382.503
10.2088 367.182
10.388 107.031
10.5672 518.399
10.7465 86.8952
10.9257 78.5294
11.105 71.845
11.2844 69.0042
11.4637 65.2966
11.6431 63.7918
11.8225 62.8241
12.002 65.1714
12.1814 156.163
12.3609 67.8122
12.5405 65.3164
12.72 68.6173
12.8996 71.9298
13.0792 81.3433
13.2589 253.892
13.4386 121.611
13.6183 256.216
13.7981 96.7345
13.9779 76.6327
14.1577 72.4847
14.3376 71.0396
14.5175 69.5601
14.6974 71.3553
14.8774 116.427
15.0574 144.934
15.2374 70.42
15.4175 66.9926
15.5976 66.6569
15.7778 99.4346
15.958 150.286
16.1382 61.9332
16.3185 58.3774
16.4988 55.6582
16.6792 54.8524
16.8596 55.3756
17.04 56.6441
17.2205 68.0202
17.401 70.7472
17.5815 59.6683
17.7622 61.9802
17.9428 75.668
18.1237 141.895
18.3044 92.2144
18.4852 76.5539
18.666 60.7054
18.8469 58.2984
19.0278 57.375
19.2088 59.9984
19.3898 76.1287
19.5709 54.5041
19.752 53.8319
19.9332 56.9129
20.1144 70.2642
20.2957 64.0786
20.477 53.4778
20.6586 49.876
20.84 49.2341
21.0215 48.8557
21.203 51.2458
21.3846 49.2025
21.5662 49.4968
21.7479 53.438
21.9297 65.0501
22.1115 56.4002
22.2933 50.0464
22.4753 49.0785
22.6572 49.3619
22.8393 52.8651
23.0214 57.4533
23.2037 49.1498
23.3859 50.4669
23.5682 57.3015
23.7505 48.2663
23.9329 45.586
24.1154 44.3679
24.2979 43.6358
24.4805 43.2833
24.6631 43.0292
24.8458 42.5942
25.0286 43.3387
25.2114 45.0365
25.3943 44.7724
25.5773 41.1047
25.7605 40.541
25.9436 41.1405
26.1268 41.9708
26.31 40.3719
26.4933 41.114
26.6767 42.5367
26.8601 40.7299
27.0437 39.0754
27.2272 38.8546
27.4109 38.6809
27.5946 38.8533
27.7784 38.2049
27.9623 38.826
28.1462 39.0845
28.3304 37.2676
28.5145 36.1418
28.6987 35.8699
28.8829 35.6414
29.0673 34.9594
29.2517 34.5794
29.4361 34.2862
29.6207 33.3717
29.8053 33.1535
29.99 32.7828
30.1748 32.6425
30.3597 32.5129
30.5447 32.3925
30.7297 32.4765
30.915 31.8072
31.1002 31.2492
31.2855 31.1056
31.4708 31.0571
31.6563 30.4663
31.8418 30.4495
32.0275 30.1666
32.2132 29.5543
32.399 29.1324
32.5848 28.6833
32.7708 28.3803
32.9569 28.2293
33.143 27.9923
33.3293 27.5627
33.5158 27.2303
33.7022 26.7612
33.8887 26.4677
34.0753 26.1817
34.262 25.8216
34.4488 25.5422
34.6357 25.1284
34.8227 24.8955
35.0098 24.7815
35.1969 24.3874
35.3842 24.1565
35.5716 23.9479
35.759 23.5715
35.9468 23.3425
36.1345 23.0835
36.3222 22.7995
36.5101 22.6389
36.6981 22.3001
36.8861 22.0269
37.0743 21.6819
37.2626 21.4065
37.451 21.1269
37.6395 21.0657
37.8281 20.6546
38.0168 20.3091
38.2056 20.1144
38.3945 19.8406
38.5837 19.5588
38.7728 19.3508
38.9621 19.0951
39.1514 18.8728
39.3409 18.5801
39.5304 18.3801
39.7201 18.1688
39.9099 17.9481
40.0999 17.6572
40.2899 17.4762
40.48 17.2213
40.6703 17.0865
40.8607 16.8416
41.0512 16.6152
41.242 16.3278
41.4327 16.1636
41.6236 15.9427
41.8146 15.7557
42.0057 15.5193
42.1969 15.2821
42.3882 15.1226
42.5797 14.9254
42.7713 14.7085
42.963 14.5192
43.1549 14.3496
43.3468 14.0393
43.5389 13.8938
43.7312 13.7273
43.9237 13.551
44.1162 13.3433
44.3088 13.1928
44.5016 12.9902
44.6945 12.8306
44.8875 12.6136
45.0806 12.4519
45.2739 12.2604
45.4673 12.1293
45.6609 11.9241
45.8546 11.7995
46.0484 11.5958
46.2424 11.4207
46.4365 11.2691
46.631 11.1054
46.8254 10.9112
47.0199 10.7753
47.2146 10.6191
47.4095 10.4295
47.6044 10.3016
47.7996 10.142
47.9948 9.98318
48.1902 9.81699
48.3858 9.71349
48.5815 9.58169
48.7774 9.47711
48.9734 9.33389
49.1696 9.16905
49.3661 9.02617
49.5626 8.89332
49.7592 8.70072
49.956 8.61544
50.153 8.48003
50.3501 8.36826
50.5474 8.26825
50.7448 8.08533
50.9424 7.9729
51.1402 7.88046
51.3381 7.69124
51.5362 7.61132
51.7344 7.49413
51.9328 7.32511
52.1316 7.20615
52.3304 7.12329
52.5293 6.99695
52.7284 6.85888
52.9276 6.77889
53.1271 6.68374
53.3267 6.56125
53.5265 6.41305
53.7264 6.33793
53.9266 6.19574
54.1269 6.06454
54.3274 6.04383
54.528 5.85496
54.7289 5.71845
54.9301 5.50998
55.1314 5.36775
55.3328 5.18061
55.5344 4.99842
55.7361 4.87924