File: XRD/Ni3Fe_FD0725.xy
TT I
1.27165 7.55006
1.45013 6.28681
1.62863 4.97401
1.80712 4.46861
1.98562 4.51541
2.16411 5.54064
2.34263 4.89841
2.52115 6.48959
2.69965 8.74528
2.87818 8.63448
3.05672 10.6408
3.23527 15.0358
3.4138 19.0121
3.59237 23.5398
3.77094 25.8359
3.9495 29.6107
4.12809 34.5864
4.30669 180.173
4.4853 61.775
4.6639 55.4933
4.84253 67.2722
5.02118 86.7751
5.19981 342.798
5.37848 185.71
5.55716 101.992
5.73586 92.2271
5.91455 94.0318
6.09328 4480.88
6.27201 82.2275
6.45075 67.4914
6.62952 62.273
6.8083 58.5632
6.98711 55.5068
7.16591 55.3036
7.34475 83.0161
7.5236 54.7301
7.70247 56.3693
7.88135 57.8194
8.06026 62.2279
8.23919 69.3597
8.41812 84.7414
8.59709 1220.42
8.77609 98.7662
8.9551 90.3853
9.13412 82.2541
9.31318 82.3214
9.49226 84.4578
9.67134 97.1773
9.85047 99.7656
10.0296 341.411
10.2088 400.64
10.388 104.522
10.5672 510.55
10.7465 86.7445
10.9257 78.1971
11.105 71.6913
11.2844 69.6279
11.4637 64.8786
11.6431 63.4054
11.8225 62.5418
12.002 63.5997
12.1814 155.579
12.3609 69.5481
12.5405 64.2273
12.72 69.3091
12.8996 70.8869
13.0792 79.1685
13.2589 243.954
13.4386 125.559
13.6183 255.356
13.7981 97.1509
13.9779 75.7646
14.1577 72.0486
14.3376 71.0509
14.5175 68.7275
14.6974 70.2663
14.8774 111.726
15.0574 146.869
15.2374 70.5039
15.4175 66.2341
15.5976 65.4974
15.7778 95.28
15.958 153.382
16.1382 62.1299
16.3185 58.3838
16.4988 55.3917
16.6792 54.5027
16.8596 55.1692
17.04 55.6983
17.2205 66.8151
17.401 70.5448
17.5815 58.934
17.7622 61.2084
17.9428 73.6099
18.1237 137.767
18.3044 91.1554
18.4852 77.1719
18.666 60.4153
18.8469 57.9987
19.0278 56.6498
19.2088 59.3137
19.3898 75.73
19.5709 54.0713
19.752 53.1509
19.9332 55.9299
20.1144 69.4799
20.2957 64.0611
20.477 53.5756
20.6586 49.6014
20.84 48.8215
21.0215 48.6862
21.203 51.0885
21.3846 48.7595
21.5662 48.6383
21.7479 52.5016
21.9297 64.5182
22.1115 55.8411
22.2933 49.8446
22.4753 48.6738
22.6572 48.682
22.8393 52.1399
23.0214 57.0253
23.2037 48.631
23.3859 49.5824
23.5682 56.6584
23.7505 48.3357
23.9329 45.0841
24.1154 43.9095
24.2979 43.3299
24.4805 42.8809
24.6631 42.8559
24.8458 42.188
25.0286 42.7778
25.2114 44.4689
25.3943 44.5023
25.5773 40.9669
25.7605 40.4122
25.9436 40.7953
26.1268 41.5429
26.31 40.0403
26.4933 40.6633
26.6767 41.8757
26.8601 40.427
27.0437 38.8171
27.2272 38.3735
27.4109 38.404
27.5946 38.2906
27.7784 37.9007
27.9623 38.3155
28.1462 38.783
28.3304 37.0699
28.5145 35.8682
28.6987 35.6875
28.8829 35.2713
29.0673 34.6815
29.2517 34.3221
29.4361 34.1296
29.6207 32.9477
29.8053 32.859
29.99 32.485
30.1748 32.3088
30.3597 32.2112
30.5447 32.0812
30.7297 32.0818
30.915 31.591
31.1002 31.0421
31.2855 30.9492
31.4708 30.7505
31.6563 30.3253
31.8418 30.0802
32.0275 29.8731
32.2132 29.2751
32.399 28.8601
32.5848 28.3338
32.7708 28.0126
32.9569 27.8832
33.143 27.7416
33.3293 27.2452
33.5158 26.984
33.7022 26.5592
33.8887 26.2573
34.0753 25.9484
34.262 25.6334
34.4488 25.2124
34.6357 24.8994
34.8227 24.6381
35.0098 24.4019
35.1969 24.1761
35.3842 23.8896
35.5716 23.7136
35.759 23.3927
35.9468 23.0644
36.1345 22.8713
36.3222 22.6104
36.5101 22.3769
36.6981 22.0682
36.8861 21.8292
37.0743 21.4555
37.2626 21.1942
37.451 20.8785
37.6395 20.7824
37.8281 20.4691
38.0168 20.1852
38.2056 19.8547
38.3945 19.6181
38.5837 19.4559
38.7728 19.1655
38.9621 18.93
39.1514 18.6474
39.3409 18.4146
39.5304 18.1752
39.7201 18.049
39.9099 17.8377
40.0999 17.5437
40.2899 17.2712
40.48 17.0702
40.6703 16.8837
40.8607 16.6796
41.0512 16.4234
41.242 16.2447
41.4327 15.9976
41.6236 15.8172
41.8146 15.5943
42.0057 15.4351
42.1969 15.2104
42.3882 15.032
42.5797 14.7643
42.7713 14.5619
42.963 14.4128
43.1549 14.1997
43.3468 13.9503
43.5389 13.8662
43.7312 13.6164
43.9237 13.4464
44.1162 13.232
44.3088 13.044
44.5016 12.8646
44.6945 12.6879
44.8875 12.5804
45.0806 12.3468
45.2739 12.1758
45.4673 12.0298
45.6609 11.8334
45.8546 11.6446
46.0484 11.5586
46.2424 11.3456
46.4365 11.2364
46.631 10.9924
46.8254 10.8654
47.0199 10.6663
47.2146 10.5195
47.4095 10.3861
47.6044 10.2121
47.7996 10.078
47.9948 9.92752
48.1902 9.80141
48.3858 9.66184
48.5815 9.50596
48.7774 9.35311
48.9734 9.21354
49.1696 9.07512
49.3661 8.91538
49.5626 8.76676
49.7592 8.70993
49.956 8.59593
50.153 8.44739
50.3501 8.26784
50.5474 8.16607
50.7448 8.03378
50.9424 7.90902
51.1402 7.81276
51.3381 7.63392
51.5362 7.55784
51.7344 7.42594
51.9328 7.28224
52.1316 7.14862
52.3304 7.05594
52.5293 6.9356
52.7284 6.79665
52.9276 6.67448
53.1271 6.63614
53.3267 6.48952
53.5265 6.37711
53.7264 6.28109
53.9266 6.20306
54.1269 6.04924
54.3274 5.93731
54.528 5.80188
54.7289 5.68971
54.9301 5.43521
55.1314 5.32271
55.3328 5.13752
55.5344 4.95824
55.7361 4.8081