File: XRD/Ni3Fe_FD0104.xy
TT I
1.27165 8.67634
1.45013 7.58476
1.62863 6.07927
1.80712 5.66694
1.98562 5.14396
2.16411 5.19471
2.34263 4.38353
2.52115 3.73803
2.69965 5.36652
2.87818 7.52508
3.05672 10.7859
3.23527 14.7921
3.4138 18.6221
3.59237 21.6055
3.77094 25.0308
3.9495 28.4019
4.12809 32.529
4.30669 37.4485
4.4853 44.284
4.6639 53.0382
4.84253 66.0342
5.02118 93.0848
5.19981 656.312
5.37848 635.214
5.55716 110.867
5.73586 97.2269
5.91455 110.84
6.09328 2245.17
6.27201 94.3224
6.45075 66.4593
6.62952 59.0694
6.8083 55.1942
6.98711 52.6606
7.16591 51.6279
7.34475 51.497
7.5236 58.2366
7.70247 53.2269
7.88135 55.5164
8.06026 59.7129
8.23919 67.2936
8.41812 83.8755
8.59709 773.516
8.77609 126.632
8.9551 85.1658
9.13412 80.8453
9.31318 92.8948
9.49226 82.4355
9.67134 87.7831
9.85047 98.0911
10.0296 585.303
10.2088 1152.21
10.388 105.175
10.5672 271.923
10.7465 93.8442
10.9257 75.1057
11.105 69.7028
11.2844 65.4086
11.4637 62.6485
11.6431 61.2479
11.8225 60.3438
12.002 68.4523
12.1814 105.811
12.3609 80.7094
12.5405 62.3188
12.72 64.1554
12.8996 68.7657
13.0792 78.7827
13.2589 187.125
13.4386 243.743
13.6183 171.573
13.7981 178.002
13.9779 75.0561
14.1577 76.0928
14.3376 68.1318
14.5175 67.3756
14.6974 68.9153
14.8774 119.783
15.0574 205.506
15.2374 68.4355
15.4175 65.2178
15.5976 64.8192
15.7778 107.74
15.958 176.842
16.1382 61.6789
16.3185 56.6795
16.4988 54.1812
16.6792 53.2494
16.8596 53.1914
17.04 54.599
17.2205 63.4121
17.401 80.7448
17.5815 58.2817
17.7622 60.5322
17.9428 84.9433
18.1237 102.752
18.3044 87.118
18.4852 98.5474
18.666 60.168
18.8469 57.2513
19.0278 55.7826
19.2088 61.5482
19.3898 65.2299
19.5709 56.5211
19.752 52.4966
19.9332 57.8129
20.1144 63.9164
20.2957 59.5562
20.477 60.3976
20.6586 49.1978
20.84 48.4604
21.0215 48.4212
21.203 48.4683
21.3846 50.2167
21.5662 48.1788
21.7479 53.4074
21.9297 59.0308
22.1115 55.6977
22.2933 52.5903
22.4753 48.1478
22.6572 48.3377
22.8393 51.1369
23.0214 54.8229
23.2037 49.3679
23.3859 51.3157
23.5682 51.4021
23.7505 54.3378
23.9329 45.1833
24.1154 43.7314
24.2979 42.9494
24.4805 42.3397
24.6631 42.4864
24.8458 41.9166
25.0286 42.2779
25.2114 43.4096
25.3943 43.6564
25.5773 41.4715
25.7605 40.1326
25.9436 40.2669
26.1268 40.7143
26.31 40.6298
26.4933 40.2138
26.6767 40.9588
26.8601 40.8589
27.0437 39.1008
27.2272 38.4431
27.4109 38.0162
27.5946 38.0038
27.7784 37.988
27.9623 37.8572
28.1462 38.5288
28.3304 37.4015
28.5145 35.8601
28.6987 35.3558
28.8829 34.9447
29.0673 34.8189
29.2517 33.932
29.4361 33.6447
29.6207 33.1334
29.8053 32.5771
29.99 32.3371
30.1748 32.006
30.3597 32.1972
30.5447 31.8341
30.7297 31.6696
30.915 31.694
31.1002 31.1031
31.2855 30.5687
31.4708 30.4358
31.6563 30.4114
31.8418 29.9137
32.0275 29.6847
32.2132 29.279
32.399 28.7272
32.5848 28.3853
32.7708 27.8132
32.9569 27.8205
33.143 27.4435
33.3293 27.1908
33.5158 26.9326
33.7022 26.3769
33.8887 26.02
34.0753 25.8144
34.262 25.4225
34.4488 25.0975
34.6357 24.784
34.8227 24.4869
35.0098 24.2237
35.1969 23.9871
35.3842 23.6898
35.5716 23.6145
35.759 23.3443
35.9468 22.9248
36.1345 22.6644
36.3222 22.5251
36.5101 22.2447
36.6981 21.9077
36.8861 21.6475
37.0743 21.3019
37.2626 20.9858
37.451 20.8237
37.6395 20.6238
37.8281 20.3065
38.0168 20.0635
38.2056 19.8371
38.3945 19.4835
38.5837 19.2727
38.7728 19.0788
38.9621 18.8037
39.1514 18.4685
39.3409 18.3417
39.5304 18.0637
39.7201 17.8647
39.9099 17.7027
40.0999 17.4549
40.2899 17.2405
40.48 16.9844
40.6703 16.6908
40.8607 16.5672
41.0512 16.3484
41.242 16.1142
41.4327 15.9166
41.6236 15.676
41.8146 15.4759
42.0057 15.3174
42.1969 15.0959
42.3882 14.9177
42.5797 14.6419
42.7713 14.4639
42.963 14.2504
43.1549 14.1025
43.3468 13.9313
43.5389 13.7021
43.7312 13.516
43.9237 13.3618
44.1162 13.1586
44.3088 12.955
44.5016 12.7241
44.6945 12.5738
44.8875 12.4532
45.0806 12.2415
45.2739 12.1046
45.4673 11.9098
45.6609 11.7747
45.8546 11.5716
46.0484 11.4147
46.2424 11.2489
46.4365 11.0917
46.631 10.9124
46.8254 10.7115
47.0199 10.6075
47.2146 10.4572
47.4095 10.2748
47.6044 10.1209
47.7996 9.93926
47.9948 9.83426
48.1902 9.70624
48.3858 9.55957
48.5815 9.40539
48.7774 9.36512
48.9734 9.17628
49.1696 9.03016
49.3661 8.8483
49.5626 8.73777
49.7592 8.62621
49.956 8.52088
50.153 8.3801
50.3501 8.25328
50.5474 8.10554
50.7448 8.00423
50.9424 7.86196
51.1402 7.75009
51.3381 7.60571
51.5362 7.52533
51.7344 7.40053
51.9328 7.2414
52.1316 7.13145
52.3304 7.01863
52.5293 6.90473
52.7284 6.78827
52.9276 6.6461
53.1271 6.58372
53.3267 6.45578
53.5265 6.29883
53.7264 6.24541
53.9266 6.11261
54.1269 6.03062
54.3274 5.89121
54.528 5.73183
54.7289 5.5001
54.9301 5.32762
55.1314 5.23443
55.3328 4.98792
55.5344 4.80882
55.7361 4.70791