File: XRD/Ni3Fe_FD0209.xy
TT I
1.27165 7.723
1.45013 6.51332
1.62863 6.58767
1.80712 5.23259
1.98562 5.41382
2.16411 4.91444
2.34263 4.80991
2.52115 4.2419
2.69965 5.71368
2.87818 7.85615
3.05672 11.0738
3.23527 15.1397
3.4138 18.9269
3.59237 22.332
3.77094 25.9539
3.9495 29.9637
4.12809 34.8287
4.30669 40.7692
4.4853 48.6744
4.6639 58.6769
4.84253 72.0292
5.02118 97.5507
5.19981 888.237
5.37848 285.006
5.55716 113.043
5.73586 101.593
5.91455 111.816
6.09328 3588.73
6.27201 90.3215
6.45075 71.5156
6.62952 64.4095
6.8083 59.9187
6.98711 57.6008
7.16591 56.7082
7.34475 55.5453
7.5236 56.8927
7.70247 58.288
7.88135 60.7778
8.06026 65.6657
8.23919 73.6518
8.41812 91.1586
8.59709 1051.95
8.77609 112.164
8.9551 91.0514
9.13412 87.1952
9.31318 88.5309
9.49226 90.0426
9.67134 95.8796
9.85047 107.107
10.0296 526.94
10.2088 589.64
10.388 114.985
10.5672 432.773
10.7465 93.0179
10.9257 81.0579
11.105 75.2774
11.2844 70.9467
11.4637 68.199
11.6431 66.613
11.8225 65.6692
12.002 68.8875
12.1814 137.563
12.3609 70.4647
12.5405 67.5449
12.72 69.9843
12.8996 75.0015
13.0792 86.2464
13.2589 226.299
13.4386 153.756
13.6183 221.823
13.7981 115.659
13.9779 80.3962
14.1577 75.9915
14.3376 73.0952
14.5175 73.0772
14.6974 74.8051
14.8774 119.34
15.0574 178.563
15.2374 73.0157
15.4175 70.0675
15.5976 70.1675
15.7778 103.976
15.958 177.954
16.1382 64.3358
16.3185 60.4753
16.4988 58.1362
16.6792 57.3538
16.8596 57.814
17.04 59.5259
17.2205 68.8048
17.401 78.3986
17.5815 62.4108
17.7622 64.9662
17.9428 83.3519
18.1237 137.103
18.3044 90.2231
18.4852 85.1151
18.666 63.826
18.8469 61.0081
19.0278 59.9259
19.2088 63.1989
19.3898 76.2072
19.5709 57.3252
19.752 56.2961
19.9332 59.6869
20.1144 72.6499
20.2957 64.335
20.477 57.2487
20.6586 52.3002
20.84 51.543
21.0215 51.3716
21.203 52.7475
21.3846 51.8192
21.5662 51.9411
21.7479 55.7101
21.9297 66.7375
22.1115 57.6685
22.2933 52.8317
22.4753 51.2086
22.6572 52.3364
22.8393 54.5108
23.0214 59.9846
23.2037 51.5346
23.3859 52.8176
23.5682 57.4214
23.7505 51.7571
23.9329 47.5915
24.1154 46.3151
24.2979 45.6785
24.4805 45.0912
24.6631 45.0841
24.8458 44.607
25.0286 45.2855
25.2114 46.5845
25.3943 46.8306
25.5773 43.077
25.7605 42.6547
25.9436 42.7691
26.1268 43.6533
26.31 42.3289
26.4933 42.6176
26.6767 44.02
26.8601 42.4779
27.0437 40.902
27.2272 40.4369
27.4109 40.2857
27.5946 40.4303
27.7784 40.0135
27.9623 40.081
28.1462 40.7283
28.3304 39.0334
28.5145 37.6881
28.6987 37.4575
28.8829 37.0539
29.0673 36.3479
29.2517 35.9487
29.4361 35.894
29.6207 34.8763
29.8053 34.5938
29.99 34.176
30.1748 34.0005
30.3597 33.8678
30.5447 33.7211
30.7297 33.7525
30.915 33.2805
31.1002 32.7216
31.2855 32.4063
31.4708 32.2891
31.6563 31.9695
31.8418 31.5757
32.0275 31.2962
32.2132 30.8569
32.399 30.3795
32.5848 29.8662
32.7708 29.6146
32.9569 29.3716
33.143 29.1762
33.3293 28.7608
33.5158 28.3654
33.7022 27.9139
33.8887 27.6408
34.0753 27.299
34.262 26.9251
34.4488 26.5625
34.6357 26.2705
34.8227 26.0054
35.0098 25.7769
35.1969 25.4187
35.3842 25.0845
35.5716 24.893
35.759 24.5479
35.9468 24.2071
36.1345 24.0537
36.3222 23.7645
36.5101 23.5112
36.6981 23.1925
36.8861 22.8459
37.0743 22.5901
37.2626 22.2669
37.451 22.0427
37.6395 21.8916
37.8281 21.578
38.0168 21.1905
38.2056 20.9265
38.3945 20.6459
38.5837 20.3839
38.7728 20.2093
38.9621 19.883
39.1514 19.6219
39.3409 19.3704
39.5304 19.121
39.7201 18.9796
39.9099 18.7254
40.0999 18.4814
40.2899 18.2095
40.48 17.9715
40.6703 17.7298
40.8607 17.6099
41.0512 17.3337
41.242 17.0476
41.4327 16.8805
41.6236 16.6063
41.8146 16.4301
42.0057 16.1499
42.1969 15.8919
42.3882 15.7463
42.5797 15.5653
42.7713 15.296
42.963 15.0697
43.1549 14.9615
43.3468 14.7214
43.5389 14.4927
43.7312 14.259
43.9237 14.117
44.1162 13.9162
44.3088 13.6382
44.5016 13.5258
44.6945 13.3044
44.8875 13.1333
45.0806 12.9587
45.2739 12.7851
45.4673 12.5598
45.6609 12.3938
45.8546 12.1968
46.0484 12.0904
46.2424 11.9075
46.4365 11.7308
46.631 11.5352
46.8254 11.3831
47.0199 11.1694
47.2146 11.0629
47.4095 10.9057
47.6044 10.6981
47.7996 10.5477
47.9948 10.4035
48.1902 10.2696
48.3858 10.0971
48.5815 9.98779
48.7774 9.83804
48.9734 9.68747
49.1696 9.52762
49.3661 9.34456
49.5626 9.19543
49.7592 9.1086
49.956 8.97871
50.153 8.82426
50.3501 8.67673
50.5474 8.55273
50.7448 8.43585
50.9424 8.29851
51.1402 8.17212
51.3381 8.01498
51.5362 7.94429
51.7344 7.73718
51.9328 7.65652
52.1316 7.49107
52.3304 7.38639
52.5293 7.26724
52.7284 7.15425
52.9276 7.02696
53.1271 6.89319
53.3267 6.79194
53.5265 6.66867
53.7264 6.5099
53.9266 6.46969
54.1269 6.31181
54.3274 6.20588
54.528 6.02854
54.7289 5.83907
54.9301 5.69141
55.1314 5.60081
55.3328 5.34708
55.5344 5.11728
55.7361 5.00779