File: XRD/Ni3Fe_FD0024.xy
TT I
1.27165 34.2236
1.45013 29.0238
1.62863 26.3969
1.80712 24.0171
1.98562 23.2498
2.16411 24.9574
2.34263 25.8393
2.52115 23.7667
2.69965 28.2705
2.87818 38.2098
3.05672 65.4395
3.23527 75.8903
3.4138 41.4265
3.59237 38.7489
3.77094 39.5318
3.9495 37.8312
4.12809 50.9024
4.30669 89.1335
4.4853 61.0641
4.6639 45.9257
4.84253 52.3869
5.02118 85.764
5.19981 273.755
5.37848 3769.5
5.55716 155.947
5.73586 100.175
5.91455 111.017
6.09328 458.518
6.27201 312.588
6.45075 72.191
6.62952 55.7701
6.8083 54.6886
6.98711 45.0533
7.16591 47.4958
7.34475 74.0145
7.5236 56.6776
7.70247 45.7736
7.88135 37.5266
8.06026 38.7774
8.23919 44.3376
8.41812 56.7058
8.59709 158.951
8.77609 652.875
8.9551 77.4305
9.13412 58.7632
9.31318 248.961
9.49226 52.8851
9.67134 53.0768
9.85047 60.4205
10.0296 99.9885
10.2088 493.138
10.388 130.864
10.5672 91.2879
10.7465 267.839
10.9257 48.9168
11.105 42.8332
11.2844 41.6438
11.4637 38.2167
11.6431 37.673
11.8225 36.7036
12.002 72.356
12.1814 46.9914
12.3609 94.7338
12.5405 44.7768
12.72 41.3743
12.8996 39.7427
13.0792 42.6117
13.2589 63.4135
13.4386 149.929
13.6183 91.7247
13.7981 159.858
13.9779 61.7501
14.1577 47.8276
14.3376 47.5291
14.5175 38.1947
14.6974 38.3033
14.8774 43.2925
15.0574 60.459
15.2374 90.7241
15.4175 41.2498
15.5976 38.5866
15.7778 41.1919
15.958 54.1015
16.1382 116.134
16.3185 39.6198
16.4988 33.8629
16.6792 31.8575
16.8596 31.8703
17.04 39.6028
17.2205 33.712
17.401 36.5369
17.5815 47.4124
17.7622 35.2403
17.9428 40.0716
18.1237 43.0296
18.3044 89.992
18.4852 55.9564
18.666 64.1091
18.8469 36.1114
19.0278 33.6201
19.2088 33.683
19.3898 39.6364
19.5709 46.9291
19.752 35.6481
19.9332 31.8379
20.1144 32.3457
20.2957 42.7543
20.477 38.8725
20.6586 38.6333
20.84 31.8208
21.0215 29.6885
21.203 28.6869
21.3846 29.2029
21.5662 32.0131
21.7479 29.5783
21.9297 31.0836
22.1115 40.9097
22.2933 42.1654
22.4753 35.3446
22.6572 30.0621
22.8393 30.4471
23.0214 31.1614
23.2037 39.0054
23.3859 33.5682
23.5682 34.261
23.7505 34.2098
23.9329 41.0106
24.1154 29.2879
24.2979 27.3592
24.4805 26.572
24.6631 26.4746
24.8458 27.637
25.0286 26.1614
25.2114 26.2719
25.3943 28.713
25.5773 30.2757
25.7605 28.6578
25.9436 26.7096
26.1268 25.5201
26.31 26.6007
26.4933 27.7249
26.6767 25.8061
26.8601 27.3742
27.0437 30.0985
27.2272 26.7237
27.4109 24.6814
27.5946 24.5662
27.7784 24.9845
27.9623 25.186
28.1462 25.6174
28.3304 27.009
28.5145 27.0209
28.6987 24.813
28.8829 22.9946
29.0673 22.6433
29.2517 23.3361
29.4361 22.1485
29.6207 21.9283
29.8053 22.6873
29.99 21.427
30.1748 21.2802
30.3597 21.0727
30.5447 21.4446
30.7297 21.1047
30.915 21.2534
31.1002 22.7665
31.2855 21.581
31.4708 20.5083
31.6563 20.4995
31.8418 21.3068
32.0275 20.436
32.2132 20.4534
32.399 20.7644
32.5848 19.6635
32.7708 19.0157
32.9569 18.8003
33.143 18.8478
33.3293 18.4115
33.5158 18.8294
33.7022 18.8936
33.8887 17.9411
34.0753 17.6892
34.262 17.5974
34.4488 17.2493
34.6357 16.998
34.8227 16.9351
35.0098 16.5586
35.1969 16.3726
35.3842 16.2647
35.5716 16.1525
35.759 16.4722
35.9468 16.5511
36.1345 15.9673
36.3222 15.6088
36.5101 15.5728
36.6981 15.4537
36.8861 15.2084
37.0743 15.1841
37.2626 14.7602
37.451 14.5338
37.6395 14.3735
37.8281 14.1581
38.0168 13.9812
38.2056 13.8894
38.3945 13.5796
38.5837 13.472
38.7728 13.4367
38.9621 13.1858
39.1514 13.1173
39.3409 12.864
39.5304 12.7234
39.7201 12.5443
39.9099 12.3626
40.0999 12.2943
40.2899 12.2191
40.48 11.9997
40.6703 11.9327
40.8607 11.7535
41.0512 11.6448
41.242 11.5463
41.4327 11.3977
41.6236 11.1635
41.8146 11.0797
42.0057 10.9348
42.1969 10.8681
42.3882 10.6833
42.5797 10.4669
42.7713 10.36
42.963 10.2406
43.1549 10.0603
43.3468 9.90295
43.5389 9.81346
43.7312 9.65177
43.9237 9.57795
44.1162 9.42093
44.3088 9.29683
44.5016 9.19478
44.6945 9.08505
44.8875 8.94507
45.0806 8.85242
45.2739 8.69574
45.4673 8.61956
45.6609 8.49767
45.8546 8.36607
46.0484 8.26075
46.2424 8.1505
46.4365 8.0278
46.631 7.91126
46.8254 7.81935
47.0199 7.69816
47.2146 7.61286
47.4095 7.4592
47.6044 7.35523
47.7996 7.24918
47.9948 7.19754
48.1902 7.01346
48.3858 6.98123
48.5815 6.86841
48.7774 6.74305
48.9734 6.66537
49.1696 6.56433
49.3661 6.46736
49.5626 6.34359
49.7592 6.30578
49.956 6.23108
50.153 6.12891
50.3501 6.03421
50.5474 5.94899
50.7448 5.89573
50.9424 5.7758
51.1402 5.67997
51.3381 5.60666
51.5362 5.53565
51.7344 5.40089
51.9328 5.35303
52.1316 5.27471
52.3304 5.21171
52.5293 5.08908
52.7284 5.03618
52.9276 4.96868
53.1271 4.89491
53.3267 4.78739
53.5265 4.69239
53.7264 4.61319
53.9266 4.54929
54.1269 4.44379
54.3274 4.33282
54.528 4.23592
54.7289 4.13589
54.9301 3.97277
55.1314 3.86995
55.3328 3.70849
55.5344 3.57568
55.7361 3.54798