File: XRD/Ni3Fe_FD0948.xy
TT I
1.27165 7.36419
1.45013 5.95134
1.62863 5.39887
1.80712 4.65454
1.98562 4.68292
2.16411 5.07991
2.34263 5.04258
2.52115 6.5458
2.69965 7.8377
2.87818 8.5601
3.05672 11.3031
3.23527 15.2414
3.4138 18.4779
3.59237 22.9126
3.77094 25.6335
3.9495 29.9061
4.12809 33.5347
4.30669 98.2294
4.4853 53.1706
4.6639 54.8991
4.84253 67.4825
5.02118 87.7701
5.19981 326.542
5.37848 192.879
5.55716 101.539
5.73586 91.8258
5.91455 93.581
6.09328 4541.72
6.27201 79.1999
6.45075 69.1225
6.62952 62.2426
6.8083 58.7166
6.98711 54.848
7.16591 56.9394
7.34475 65.6851
7.5236 53.5909
7.70247 56.5573
7.88135 57.1433
8.06026 61.8477
8.23919 68.4215
8.41812 82.6127
8.59709 1184.43
8.77609 96.774
8.9551 88.6887
9.13412 82.2282
9.31318 83.9397
9.49226 83.9046
9.67134 94.2616
9.85047 100.209
10.0296 330.89
10.2088 361.762
10.388 102.708
10.5672 532.157
10.7465 85.1301
10.9257 77.1492
11.105 70.5842
11.2844 67.5359
11.4637 64.2236
11.6431 62.5937
11.8225 61.8192
12.002 63.0932
12.1814 157.848
12.3609 66.0151
12.5405 64.2277
12.72 66.897
12.8996 70.4987
13.0792 78.5145
13.2589 244.43
13.4386 118.003
13.6183 256.611
13.7981 94.2082
13.9779 74.6784
14.1577 70.7537
14.3376 69.3043
14.5175 67.8622
14.6974 69.293
14.8774 110.759
15.0574 141.972
15.2374 68.3353
15.4175 65.3783
15.5976 64.7191
15.7778 94.3396
15.958 147.535
16.1382 60.3527
16.3185 56.988
16.4988 54.5249
16.6792 53.4466
16.8596 54.0074
17.04 55.0388
17.2205 66.3984
17.401 68.9801
17.5815 58.443
17.7622 60.0396
17.9428 72.1579
18.1237 136.541
18.3044 90.3029
18.4852 74.4623
18.666 59.3024
18.8469 57.1556
19.0278 55.8134
19.2088 58.1725
19.3898 74.0473
19.5709 53.2625
19.752 52.5503
19.9332 55.2064
20.1144 69.0053
20.2957 63.7549
20.477 52.2444
20.6586 48.9721
20.84 48.0528
21.0215 47.7343
21.203 50.2771
21.3846 48.0962
21.5662 48.2528
21.7479 51.7865
21.9297 63.4938
22.1115 55.3454
22.2933 48.8493
22.4753 47.8386
22.6572 48.0111
22.8393 51.2154
23.0214 55.9357
23.2037 47.9697
23.3859 48.9157
23.5682 56.4745
23.7505 47.3962
23.9329 44.4005
24.1154 43.3191
24.2979 42.6253
24.4805 42.2703
24.6631 41.9648
24.8458 41.5241
25.0286 42.0919
25.2114 43.94
25.3943 43.7123
25.5773 40.2387
25.7605 39.6684
25.9436 40.2468
26.1268 41.0715
26.31 39.3438
26.4933 40.0357
26.6767 41.5128
26.8601 39.7188
27.0437 38.1749
27.2272 37.8684
27.4109 37.7506
27.5946 37.7031
27.7784 37.1508
27.9623 37.7719
28.1462 38.1869
28.3304 36.5521
28.5145 35.4044
28.6987 35.1025
28.8829 34.7304
29.0673 34.159
29.2517 33.8535
29.4361 33.5197
29.6207 32.5818
29.8053 32.2813
29.99 32.0589
30.1748 31.9672
30.3597 31.713
30.5447 31.6722
30.7297 31.6356
30.915 31.0079
31.1002 30.6176
31.2855 30.2319
31.4708 30.3142
31.6563 29.9106
31.8418 29.773
32.0275 29.4661
32.2132 28.8974
32.399 28.4142
32.5848 28.0145
32.7708 27.6872
32.9569 27.5173
33.143 27.3279
33.3293 26.9863
33.5158 26.5657
33.7022 26.1554
33.8887 25.8339
34.0753 25.5492
34.262 25.2485
34.4488 24.9163
34.6357 24.5384
34.8227 24.2706
35.0098 24.1089
35.1969 23.8251
35.3842 23.4832
35.5716 23.3677
35.759 23.1125
35.9468 22.7381
36.1345 22.5102
36.3222 22.2978
36.5101 22.0405
36.6981 21.6896
36.8861 21.3984
37.0743 21.1626
37.2626 20.8587
37.451 20.6232
37.6395 20.4825
37.8281 20.0982
38.0168 19.8822
38.2056 19.5756
38.3945 19.292
38.5837 19.1042
38.7728 18.8791
38.9621 18.6805
39.1514 18.4095
39.3409 18.1256
39.5304 17.8699
39.7201 17.7388
39.9099 17.4934
40.0999 17.3252
40.2899 17.099
40.48 16.8357
40.6703 16.667
40.8607 16.4248
41.0512 16.219
41.242 15.9609
41.4327 15.7672
41.6236 15.5183
41.8146 15.3966
42.0057 15.1593
42.1969 14.937
42.3882 14.8031
42.5797 14.6057
42.7713 14.3383
42.963 14.1715
43.1549 13.9845
43.3468 13.7438
43.5389 13.5901
43.7312 13.3561
43.9237 13.2203
44.1162 13.0572
44.3088 12.8858
44.5016 12.6602
44.6945 12.4687
44.8875 12.3309
45.0806 12.0976
45.2739 11.9495
45.4673 11.8547
45.6609 11.627
45.8546 11.476
46.0484 11.3161
46.2424 11.1203
46.4365 11.0158
46.631 10.8652
46.8254 10.6884
47.0199 10.5309
47.2146 10.37
47.4095 10.2312
47.6044 10.0787
47.7996 9.93158
47.9948 9.74124
48.1902 9.61753
48.3858 9.45422
48.5815 9.35357
48.7774 9.24013
48.9734 9.07808
49.1696 8.96746
49.3661 8.82441
49.5626 8.63415
49.7592 8.57143
49.956 8.40811
50.153 8.28574
50.3501 8.17172
50.5474 8.01594
50.7448 7.9217
50.9424 7.78378
51.1402 7.68295
51.3381 7.56927
51.5362 7.39561
51.7344 7.24786
51.9328 7.1728
52.1316 7.06012
52.3304 6.99762
52.5293 6.84451
52.7284 6.72125
52.9276 6.61227
53.1271 6.55266
53.3267 6.38552
53.5265 6.29164
53.7264 6.17461
53.9266 6.07454
54.1269 5.96507
54.3274 5.83139
54.528 5.70982
54.7289 5.49289
54.9301 5.40722
55.1314 5.21195
55.3328 5.02667
55.5344 4.92332
55.7361 4.74021