File: XRD/Ni3Fe_FD0772.xy
TT I
1.27165 7.45684
1.45013 5.76252
1.62863 5.27742
1.80712 4.96709
1.98562 4.83663
2.16411 4.3428
2.34263 5.72536
2.52115 7.50746
2.69965 8.36616
2.87818 8.84735
3.05672 11.3408
3.23527 15.3296
3.4138 19.4281
3.59237 24.2477
3.77094 26.2503
3.9495 29.9789
4.12809 35.4032
4.30669 284.251
4.4853 71.8138
4.6639 54.778
4.84253 66.4141
5.02118 85.0004
5.19981 301.33
5.37848 189.018
5.55716 100.995
5.73586 90.9297
5.91455 91.4633
6.09328 4179.92
6.27201 83.3622
6.45075 66.778
6.62952 62.9551
6.8083 59.0014
6.98711 56.1236
7.16591 55.6892
7.34475 105.343
7.5236 54.7708
7.70247 56.2504
7.88135 57.6217
8.06026 61.5729
8.23919 68.9523
8.41812 84.4069
8.59709 1078.1
8.77609 99.1337
8.9551 93.2763
9.13412 80.9177
9.31318 81.4143
9.49226 83.6906
9.67134 100.363
9.85047 98.9359
10.0296 297.302
10.2088 410.322
10.388 103.908
10.5672 514.88
10.7465 86.096
10.9257 78.2432
11.105 71.4879
11.2844 70.8967
11.4637 64.3427
11.6431 63.3889
11.8225 61.8881
12.002 62.8726
12.1814 145.387
12.3609 72.2047
12.5405 64.0479
12.72 70.7403
12.8996 70.2265
13.0792 77.489
13.2589 222.326
13.4386 127.392
13.6183 232.701
13.7981 98.7583
13.9779 75.3565
14.1577 72.416
14.3376 71.7227
14.5175 68.4928
14.6974 69.7661
14.8774 104.46
15.0574 152.477
15.2374 71.2349
15.4175 65.9285
15.5976 65.2398
15.7778 90.1594
15.958 160.677
16.1382 63.1066
16.3185 58.5129
16.4988 55.174
16.6792 54.2257
16.8596 55.109
17.04 55.2761
17.2205 65.5117
17.401 70.9901
17.5815 58.8217
17.7622 60.6999
17.9428 71.5577
18.1237 138.792
18.3044 88.4039
18.4852 78.688
18.666 60.1185
18.8469 57.4424
19.0278 56.6352
19.2088 58.8742
19.3898 76.7123
19.5709 53.8585
19.752 53.0023
19.9332 55.3802
20.1144 69.4175
20.2957 62.982
20.477 53.6958
20.6586 49.3832
20.84 48.5065
21.0215 48.2565
21.203 50.3894
21.3846 48.7936
21.5662 48.3597
21.7479 51.7419
21.9297 64.2849
22.1115 55.8148
22.2933 49.6668
22.4753 48.7688
22.6572 48.3914
22.8393 51.3045
23.0214 57.4198
23.2037 48.2747
23.3859 49.0912
23.5682 56.5743
23.7505 48.2344
23.9329 45.0594
24.1154 43.8882
24.2979 43.2268
24.4805 42.6138
24.6631 42.6009
24.8458 41.8047
25.0286 42.3093
25.2114 44.2933
25.3943 44.5024
25.5773 40.6526
25.7605 40.0697
25.9436 40.5411
26.1268 41.4191
26.31 39.8543
26.4933 40.3864
26.6767 42.0364
26.8601 40.2443
27.0437 38.8009
27.2272 38.1788
27.4109 38.1597
27.5946 38.185
27.7784 37.5784
27.9623 38.1378
28.1462 38.545
28.3304 36.976
28.5145 35.6904
28.6987 35.5415
28.8829 35.2491
29.0673 34.5724
29.2517 34.1829
29.4361 33.986
29.6207 32.8999
29.8053 32.7498
29.99 32.3364
30.1748 32.248
30.3597 32.0447
30.5447 31.9342
30.7297 32.0665
30.915 31.4607
31.1002 30.944
31.2855 30.6466
31.4708 30.6037
31.6563 30.2218
31.8418 29.9879
32.0275 29.7268
32.2132 29.1769
32.399 28.7499
32.5848 28.3293
32.7708 28.0743
32.9569 27.8596
33.143 27.5706
33.3293 27.2318
33.5158 26.9063
33.7022 26.5218
33.8887 26.2013
34.0753 25.8187
34.262 25.5184
34.4488 25.1746
34.6357 24.8327
34.8227 24.6183
35.0098 24.3305
35.1969 24.1363
35.3842 23.7979
35.5716 23.6964
35.759 23.3835
35.9468 22.9825
36.1345 22.8567
36.3222 22.4882
36.5101 22.2963
36.6981 21.9909
36.8861 21.7428
37.0743 21.3581
37.2626 21.2114
37.451 20.9029
37.6395 20.7885
37.8281 20.3393
38.0168 20.0681
38.2056 19.8542
38.3945 19.5504
38.5837 19.3395
38.7728 19.092
38.9621 18.8375
39.1514 18.6517
39.3409 18.3707
39.5304 18.1764
39.7201 17.9911
39.9099 17.7667
40.0999 17.4909
40.2899 17.3023
40.48 17.0458
40.6703 16.8109
40.8607 16.7064
41.0512 16.4483
41.242 16.201
41.4327 16.0062
41.6236 15.7882
41.8146 15.5992
42.0057 15.3432
42.1969 15.1313
42.3882 14.9619
42.5797 14.7421
42.7713 14.5715
42.963 14.3171
43.1549 14.1512
43.3468 13.9432
43.5389 13.8356
43.7312 13.5484
43.9237 13.4084
44.1162 13.269
44.3088 13.0859
44.5016 12.8796
44.6945 12.6611
44.8875 12.4889
45.0806 12.328
45.2739 12.1422
45.4673 11.9759
45.6609 11.7821
45.8546 11.6427
46.0484 11.463
46.2424 11.3288
46.4365 11.1803
46.631 11.021
46.8254 10.7843
47.0199 10.6473
47.2146 10.4846
47.4095 10.3596
47.6044 10.2234
47.7996 10.0524
47.9948 9.90232
48.1902 9.76131
48.3858 9.6012
48.5815 9.51476
48.7774 9.3689
48.9734 9.21501
49.1696 9.07729
49.3661 8.93411
49.5626 8.80676
49.7592 8.66886
49.956 8.57053
50.153 8.39974
50.3501 8.27482
50.5474 8.14068
50.7448 8.06711
50.9424 7.93735
51.1402 7.78345
51.3381 7.61772
51.5362 7.55419
51.7344 7.39868
51.9328 7.26898
52.1316 7.13951
52.3304 7.03749
52.5293 6.92842
52.7284 6.82695
52.9276 6.66136
53.1271 6.597
53.3267 6.45871
53.5265 6.3564
53.7264 6.23263
53.9266 6.15267
54.1269 6.05835
54.3274 5.91861
54.528 5.76963
54.7289 5.65728
54.9301 5.46501
55.1314 5.33252
55.3328 5.12784
55.5344 4.96497
55.7361 4.79224