File: XRD/Ni3Fe_FD0727.xy
TT I
1.27165 7.48789
1.45013 6.03886
1.62863 5.34469
1.80712 4.70837
1.98562 4.46271
2.16411 4.79649
2.34263 5.21622
2.52115 6.07751
2.69965 7.45288
2.87818 8.75923
3.05672 11.3869
3.23527 15.4265
3.4138 19.2837
3.59237 23.9251
3.77094 26.0032
3.9495 29.6192
4.12809 34.6462
4.30669 187.113
4.4853 62.358
4.6639 55.2054
4.84253 67.4633
5.02118 86.7351
5.19981 336.943
5.37848 184.328
5.55716 101.69
5.73586 91.8836
5.91455 93.3304
6.09328 4482.23
6.27201 82.359
6.45075 66.8777
6.62952 62.5065
6.8083 58.2392
6.98711 55.4985
7.16591 55.0684
7.34475 84.4321
7.5236 54.6754
7.70247 56.0794
7.88135 57.6171
8.06026 61.8802
8.23919 69.0225
8.41812 84.5472
8.59709 1193.07
8.77609 98.8655
8.9551 90.2634
9.13412 81.5765
9.31318 82.0158
9.49226 84.6018
9.67134 97.1091
9.85047 99.5382
10.0296 338.439
10.2088 403.734
10.388 104.012
10.5672 510.515
10.7465 86.3523
10.9257 77.9202
11.105 71.2676
11.2844 69.814
11.4637 64.5798
11.6431 63.3953
11.8225 62.2108
12.002 63.0341
12.1814 155.825
12.3609 69.8249
12.5405 64.254
12.72 68.9889
12.8996 70.6504
13.0792 78.3847
13.2589 241.433
13.4386 126.26
13.6183 251.385
13.7981 97.5122
13.9779 75.7295
14.1577 71.9134
14.3376 71.1641
14.5175 68.6074
14.6974 70.1978
14.8774 111.018
15.0574 147.057
15.2374 70.4174
15.4175 65.972
15.5976 65.4713
15.7778 94.7775
15.958 153.37
16.1382 62.1124
16.3185 58.2396
16.4988 55.34
16.6792 54.2133
16.8596 54.9872
17.04 55.6166
17.2205 66.5734
17.401 70.5247
17.5815 58.8935
17.7622 61.1176
17.9428 73.2174
18.1237 138.552
18.3044 91.0216
18.4852 77.0467
18.666 60.1824
18.8469 57.9104
19.0278 56.6691
19.2088 59.143
19.3898 75.5462
19.5709 53.9735
19.752 52.9477
19.9332 56.0488
20.1144 69.2696
20.2957 63.7277
20.477 53.5419
20.6586 49.5364
20.84 48.7032
21.0215 48.3157
21.203 50.5939
21.3846 48.7263
21.5662 48.5475
21.7479 52.3996
21.9297 64.4298
22.1115 55.9318
22.2933 49.7286
22.4753 48.7183
22.6572 48.7637
22.8393 51.8633
23.0214 56.7026
23.2037 48.6997
23.3859 49.5948
23.5682 56.7361
23.7505 48.3578
23.9329 44.9955
24.1154 43.9747
24.2979 43.1607
24.4805 42.8257
24.6631 42.6607
24.8458 42.116
25.0286 42.7524
25.2114 44.3965
25.3943 44.249
25.5773 40.7073
25.7605 40.1613
25.9436 40.6824
26.1268 41.4859
26.31 40.0388
26.4933 40.6699
26.6767 41.921
26.8601 40.2954
27.0437 38.775
27.2272 38.2886
27.4109 38.3688
27.5946 38.2586
27.7784 37.7522
27.9623 38.3743
28.1462 38.7708
28.3304 37.0061
28.5145 35.8687
28.6987 35.5649
28.8829 35.297
29.0673 34.4834
29.2517 34.1162
29.4361 34.0005
29.6207 33.0203
29.8053 32.8299
29.99 32.4961
30.1748 32.2806
30.3597 32.1135
30.5447 32.1327
30.7297 31.9673
30.915 31.4657
31.1002 31.0048
31.2855 30.746
31.4708 30.7406
31.6563 30.2462
31.8418 30.0237
32.0275 29.7904
32.2132 29.2596
32.399 28.7788
32.5848 28.4622
32.7708 27.9768
32.9569 27.9105
33.143 27.6697
33.3293 27.2928
33.5158 26.8969
33.7022 26.5121
33.8887 26.2452
34.0753 25.9311
34.262 25.5859
34.4488 25.2513
34.6357 24.8507
34.8227 24.6523
35.0098 24.3232
35.1969 24.0986
35.3842 23.9307
35.5716 23.6548
35.759 23.3476
35.9468 23.0288
36.1345 22.8346
36.3222 22.5802
36.5101 22.3127
36.6981 22.0048
36.8861 21.7746
37.0743 21.3555
37.2626 21.1559
37.451 20.9044
37.6395 20.7459
37.8281 20.4072
38.0168 20.1498
38.2056 19.8606
38.3945 19.6287
38.5837 19.3524
38.7728 19.0969
38.9621 18.8968
39.1514 18.6259
39.3409 18.396
39.5304 18.201
39.7201 17.9723
39.9099 17.7693
40.0999 17.5224
40.2899 17.2695
40.48 17.0234
40.6703 16.9075
40.8607 16.6763
41.0512 16.4888
41.242 16.2005
41.4327 16.0063
41.6236 15.7615
41.8146 15.5764
42.0057 15.3493
42.1969 15.1872
42.3882 14.9922
42.5797 14.7618
42.7713 14.5809
42.963 14.3877
43.1549 14.2051
43.3468 13.968
43.5389 13.8126
43.7312 13.5972
43.9237 13.3943
44.1162 13.1961
44.3088 13.0193
44.5016 12.8164
44.6945 12.7043
44.8875 12.4939
45.0806 12.3804
45.2739 12.1748
45.4673 12.027
45.6609 11.8157
45.8546 11.6521
46.0484 11.5094
46.2424 11.3068
46.4365 11.1851
46.631 10.9959
46.8254 10.8127
47.0199 10.6632
47.2146 10.5189
47.4095 10.3566
47.6044 10.1977
47.7996 10.0637
47.9948 9.89407
48.1902 9.75489
48.3858 9.62598
48.5815 9.48108
48.7774 9.31711
48.9734 9.20405
49.1696 9.09306
49.3661 8.94295
49.5626 8.80181
49.7592 8.66002
49.956 8.5353
50.153 8.39968
50.3501 8.24169
50.5474 8.14065
50.7448 8.0202
50.9424 7.91183
51.1402 7.78941
51.3381 7.65161
51.5362 7.50902
51.7344 7.38908
51.9328 7.31166
52.1316 7.14579
52.3304 7.06323
52.5293 6.91351
52.7284 6.83164
52.9276 6.68856
53.1271 6.61526
53.3267 6.43578
53.5265 6.38067
53.7264 6.25411
53.9266 6.17251
54.1269 6.0561
54.3274 5.94195
54.528 5.79626
54.7289 5.64857
54.9301 5.4542
55.1314 5.35823
55.3328 5.13404
55.5344 4.9791
55.7361 4.79285