File: XRD/Ni3Fe_FD0088.xy
TT I
1.27165 9.01442
1.45013 7.44492
1.62863 6.38935
1.80712 6.22658
1.98562 5.78993
2.16411 5.06566
2.34263 4.45902
2.52115 3.49202
2.69965 4.93748
2.87818 8.2357
3.05672 10.7669
3.23527 15.283
3.4138 18.3981
3.59237 21.3195
3.77094 24.9107
3.9495 28.3256
4.12809 31.7228
4.30669 37.1025
4.4853 44.1746
4.6639 53.4584
4.84253 66.0468
5.02118 96.7578
5.19981 746.202
5.37848 938.448
5.55716 117.405
5.73586 100.963
5.91455 117.913
6.09328 1792.18
6.27201 103.793
6.45075 67.5423
6.62952 59.288
6.8083 55.0809
6.98711 52.1984
7.16591 51.6729
7.34475 51.4119
7.5236 64.0301
7.70247 53.4627
7.88135 55.4046
8.06026 59.7867
8.23919 67.1795
8.41812 85.2435
8.59709 668.14
8.77609 143.434
8.9551 85.9025
9.13412 81.4299
9.31318 110.582
9.49226 82.3244
9.67134 87.6665
9.85047 98.4721
10.0296 608.611
10.2088 1346.46
10.388 107.04
10.5672 218.939
10.7465 102.102
10.9257 74.9435
11.105 68.736
11.2844 64.9058
11.4637 62.3476
11.6431 60.954
11.8225 60.234
12.002 76.2297
12.1814 95.4308
12.3609 87.2316
12.5405 61.879
12.72 63.7038
12.8996 68.2533
13.0792 79.6485
13.2589 171.046
13.4386 288.411
13.6183 152.601
13.7981 210.727
13.9779 75.2756
14.1577 81.785
14.3376 67.9406
14.5175 67.0226
14.6974 68.5877
14.8774 118.621
15.0574 207.486
15.2374 68.4976
15.4175 64.6106
15.5976 64.3472
15.7778 107.349
15.958 166.211
16.1382 63.595
16.3185 56.343
16.4988 53.8127
16.6792 52.8821
16.8596 53.0947
17.04 54.5491
17.2205 62.0167
17.401 80.6623
17.5815 57.7211
17.7622 60.7926
17.9428 85.7437
18.1237 90.5144
18.3044 88.5697
18.4852 102.661
18.666 60.2276
18.8469 57.1645
19.0278 55.6675
19.2088 61.246
19.3898 62.8528
19.5709 58.2831
19.752 52.3341
19.9332 57.5098
20.1144 60.9308
20.2957 58.92
20.477 62.2123
20.6586 48.7158
20.84 48.4581
21.0215 48.1074
21.203 47.9525
21.3846 50.2133
21.5662 47.8746
21.7479 52.8853
21.9297 55.9546
22.1115 56.3885
22.2933 53.4985
22.4753 47.8144
22.6572 48.0136
22.8393 50.3185
23.0214 52.8279
23.2037 50.0409
23.3859 51.2481
23.5682 49.5296
23.7505 55.88
23.9329 44.8473
24.1154 43.5045
24.2979 42.7275
24.4805 41.9118
24.6631 42.2539
24.8458 41.7118
25.0286 41.9631
25.2114 42.6922
25.3943 43.0388
25.5773 41.6699
25.7605 39.9148
25.9436 40.0041
26.1268 40.002
26.31 40.562
26.4933 39.9122
26.6767 40.198
26.8601 40.7618
27.0437 38.9716
27.2272 38.248
27.4109 37.7673
27.5946 37.5971
27.7784 37.9316
27.9623 37.4727
28.1462 38.0087
28.3304 37.2424
28.5145 35.6832
28.6987 35.0237
28.8829 34.6552
29.0673 34.4666
29.2517 33.6516
29.4361 33.3135
29.6207 33.0149
29.8053 32.3081
29.99 32.0615
30.1748 31.7047
30.3597 31.9536
30.5447 31.6081
30.7297 31.3813
30.915 31.456
31.1002 30.8485
31.2855 30.3485
31.4708 30.0917
31.6563 30.2137
31.8418 29.6001
32.0275 29.2832
32.2132 29.099
32.399 28.5822
32.5848 27.9613
32.7708 27.7227
32.9569 27.5723
33.143 27.3056
33.3293 26.8509
33.5158 26.7721
33.7022 26.1357
33.8887 25.8084
34.0753 25.614
34.262 25.1397
34.4488 24.8011
34.6357 24.5556
34.8227 24.2323
35.0098 24.0346
35.1969 23.7238
35.3842 23.4487
35.5716 23.339
35.759 23.1321
35.9468 22.7327
36.1345 22.4856
36.3222 22.3106
36.5101 22.0327
36.6981 21.7972
36.8861 21.4604
37.0743 21.081
37.2626 20.8761
37.451 20.6032
37.6395 20.4171
37.8281 20.1079
38.0168 19.8429
38.2056 19.5643
38.3945 19.3838
38.5837 19.1163
38.7728 18.8632
38.9621 18.5985
39.1514 18.3436
39.3409 18.1035
39.5304 17.9309
39.7201 17.8041
39.9099 17.5564
40.0999 17.2818
40.2899 17.0858
40.48 16.7882
40.6703 16.6236
40.8607 16.4264
41.0512 16.2305
41.242 15.978
41.4327 15.8018
41.6236 15.5205
41.8146 15.4205
42.0057 15.1963
42.1969 14.9846
42.3882 14.7975
42.5797 14.5557
42.7713 14.3874
42.963 14.1697
43.1549 13.9577
43.3468 13.7565
43.5389 13.5809
43.7312 13.3973
43.9237 13.1928
44.1162 13.0269
44.3088 12.8797
44.5016 12.6244
44.6945 12.5102
44.8875 12.3681
45.0806 12.1561
45.2739 11.9866
45.4673 11.8417
45.6609 11.6346
45.8546 11.5314
46.0484 11.3164
46.2424 11.1558
46.4365 11.025
46.631 10.8524
46.8254 10.6532
47.0199 10.5027
47.2146 10.4185
47.4095 10.2018
47.6044 10.0421
47.7996 9.93561
47.9948 9.77825
48.1902 9.61478
48.3858 9.48457
48.5815 9.35467
48.7774 9.26155
48.9734 9.11019
49.1696 8.9665
49.3661 8.83679
49.5626 8.68859
49.7592 8.56843
49.956 8.41707
50.153 8.2953
50.3501 8.17206
50.5474 8.06184
50.7448 7.96624
50.9424 7.81561
51.1402 7.69827
51.3381 7.54617
51.5362 7.45247
51.7344 7.30724
51.9328 7.19388
52.1316 7.09248
52.3304 6.97459
52.5293 6.86347
52.7284 6.78258
52.9276 6.62645
53.1271 6.51709
53.3267 6.39021
53.5265 6.30303
53.7264 6.2154
53.9266 6.08034
54.1269 5.92711
54.3274 5.7879
54.528 5.66761
54.7289 5.51832
54.9301 5.30159
55.1314 5.15665
55.3328 4.92558
55.5344 4.80429
55.7361 4.68904