File: XRD/Ni3Fe_FD0007.xy
TT I
1.27165 36.3076
1.45013 32.6295
1.62863 28.9857
1.80712 27.0758
1.98562 25.6821
2.16411 25.7355
2.34263 25.3595
2.52115 26.5445
2.69965 30.096
2.87818 39.5747
3.05672 65.9157
3.23527 81.2753
3.4138 45.7239
3.59237 39.5467
3.77094 41.9543
3.9495 43.8594
4.12809 54.4329
4.30669 78.0491
4.4853 69.8128
4.6639 55.9205
4.84253 60.4774
5.02118 91.3757
5.19981 250.057
5.37848 4126.14
5.55716 164.529
5.73586 99.823
5.91455 106.089
6.09328 397.452
6.27201 377.854
6.45075 73.671
6.62952 54.5721
6.8083 51.7265
6.98711 48.708
7.16591 51.5155
7.34475 69.9671
7.5236 64.2143
7.70247 53.3018
7.88135 39.5522
8.06026 39.9275
8.23919 44.0109
8.41812 54.1221
8.59709 139.013
8.77609 774.718
8.9551 81.3313
9.13412 58.4042
9.31318 234.964
9.49226 51.1997
9.67134 49.0985
9.85047 55.002
10.0296 86.0471
10.2088 361.183
10.388 160.774
10.5672 88.0006
10.7465 302.833
10.9257 48.9563
11.105 41.1874
11.2844 39.7432
11.4637 38.3986
11.6431 37.5792
11.8225 36.9038
12.002 61.7543
12.1814 45.681
12.3609 84.3123
12.5405 46.3886
12.72 38.7854
12.8996 38.9233
13.0792 40.5101
13.2589 61.3319
13.4386 115.356
13.6183 106.385
13.7981 123.571
13.9779 73.4716
14.1577 44.3785
14.3376 55.4924
14.5175 35.9929
14.6974 35.4678
14.8774 39.8709
15.0574 54.0411
15.2374 120.147
15.4175 41.1771
15.5976 36.9605
15.7778 38.8166
15.958 49.8052
16.1382 137.902
16.3185 41.2641
16.4988 32.4602
16.6792 30.5918
16.8596 30.4563
17.04 37.6075
17.2205 31.939
17.401 34.0861
17.5815 52.6939
17.7622 33.8986
17.9428 41.5646
18.1237 41.7119
18.3044 75.2296
18.4852 62.6157
18.666 78.097
18.8469 36.0803
19.0278 32.1469
19.2088 31.7336
19.3898 36.6943
19.5709 45.6147
19.752 39.0079
19.9332 30.75
20.1144 31.4594
20.2957 38.5923
20.477 41.1809
20.6586 44.6517
20.84 30.5943
21.0215 29.9475
21.203 27.5577
21.3846 27.7509
21.5662 32.6166
21.7479 28.6342
21.9297 30.0828
22.1115 37.5236
22.2933 49.1163
22.4753 39.1707
22.6572 29.4846
22.8393 29.2041
23.0214 31.1178
23.2037 35.7662
23.3859 38.0302
23.5682 34.5059
23.7505 32.8041
23.9329 48.0632
24.1154 29.6559
24.2979 27.142
24.4805 25.4288
24.6631 25.3603
24.8458 27.7641
25.0286 25.5067
25.2114 25.3396
25.3943 27.7874
25.5773 30.8325
25.7605 32.0516
25.9436 26.4766
26.1268 25.0922
26.31 25.5295
26.4933 29.4989
26.6767 25.6675
26.8601 26.5041
27.0437 32.6052
27.2272 28.6563
27.4109 24.4278
27.5946 23.9058
27.7784 24.2475
27.9623 25.7652
28.1462 25.276
28.3304 26.5965
28.5145 29.5581
28.6987 26.5519
28.8829 23.0298
29.0673 22.0272
29.2517 23.0172
29.4361 22.1289
29.6207 21.5626
29.8053 22.9744
29.99 21.1857
30.1748 20.9065
30.3597 21.094
30.5447 20.9435
30.7297 21.2839
30.915 20.8899
31.1002 23.3626
31.2855 22.9998
31.4708 20.6341
31.6563 20.3281
31.8418 21.3464
32.0275 21.1987
32.2132 20.4598
32.399 21.5965
32.5848 20.156
32.7708 18.8701
32.9569 18.533
33.143 18.8362
33.3293 18.2874
33.5158 18.6283
33.7022 19.4458
33.8887 18.4121
34.0753 17.6952
34.262 17.5506
34.4488 17.3673
34.6357 16.8857
34.8227 17.1218
35.0098 16.5608
35.1969 16.1901
35.3842 16.1865
35.5716 16.2051
35.759 16.5332
35.9468 17.267
36.1345 16.5352
36.3222 15.8185
36.5101 15.5782
36.6981 15.7777
36.8861 15.2737
37.0743 15.4165
37.2626 15.1063
37.451 14.6535
37.6395 14.4902
37.8281 14.273
38.0168 14.0762
38.2056 14.0852
38.3945 13.8242
38.5837 13.438
38.7728 13.5514
38.9621 13.351
39.1514 13.2609
39.3409 13.0293
39.5304 12.7785
39.7201 12.6238
39.9099 12.499
40.0999 12.311
40.2899 12.3664
40.48 12.2526
40.6703 12.062
40.8607 11.9218
41.0512 11.7508
41.242 11.769
41.4327 11.5519
41.6236 11.2511
41.8146 11.1641
42.0057 11.0381
42.1969 10.9516
42.3882 10.9295
42.5797 10.5883
42.7713 10.3823
42.963 10.2887
43.1549 10.1238
43.3468 9.96761
43.5389 9.81534
43.7312 9.70594
43.9237 9.57761
44.1162 9.57089
44.3088 9.43877
44.5016 9.247
44.6945 9.18429
44.8875 9.10203
45.0806 8.94821
45.2739 8.84317
45.4673 8.72156
45.6609 8.58073
45.8546 8.50806
46.0484 8.36381
46.2424 8.29154
46.4365 8.16613
46.631 8.0289
46.8254 7.88236
47.0199 7.8379
47.2146 7.67808
47.4095 7.5591
47.6044 7.44285
47.7996 7.34171
47.9948 7.28386
48.1902 7.1331
48.3858 7.01697
48.5815 6.94855
48.7774 6.87384
48.9734 6.74115
49.1696 6.65604
49.3661 6.50449
49.5626 6.45087
49.7592 6.39065
49.956 6.31533
50.153 6.21466
50.3501 6.08132
50.5474 6.07005
50.7448 5.96273
50.9424 5.86131
51.1402 5.78041
51.3381 5.69499
51.5362 5.62028
51.7344 5.49988
51.9328 5.40523
52.1316 5.29065
52.3304 5.25546
52.5293 5.18997
52.7284 5.05339
52.9276 4.99598
53.1271 4.94189
53.3267 4.83821
53.5265 4.7721
53.7264 4.6519
53.9266 4.56052
54.1269 4.51474
54.3274 4.40008
54.528 4.32656
54.7289 4.17565
54.9301 4.04978
55.1314 3.90117
55.3328 3.7324
55.5344 3.60004
55.7361 3.52718