File: XRD/Ni3Fe_FD0984.xy
TT I
1.27165 7.29627
1.45013 6.17423
1.62863 5.28652
1.80712 4.78485
1.98562 4.53531
2.16411 5.22591
2.34263 5.37162
2.52115 6.77756
2.69965 8.16075
2.87818 9.17944
3.05672 11.1856
3.23527 14.9407
3.4138 18.9879
3.59237 24.2559
3.77094 26.0322
3.9495 29.4823
4.12809 34.4958
4.30669 235.091
4.4853 66.8312
4.6639 54.1229
4.84253 65.7704
5.02118 84.4599
5.19981 271.033
5.37848 172.831
5.55716 99.3772
5.73586 90.2024
5.91455 90.3186
6.09328 4568.64
6.27201 80.9423
6.45075 66.0333
6.62952 61.6445
6.8083 57.6098
6.98711 55.1673
7.16591 54.8892
7.34475 93.8831
7.5236 54.1286
7.70247 55.372
7.88135 56.9744
8.06026 61.3739
8.23919 68.41
8.41812 82.6717
8.59709 1118.84
8.77609 96.0624
8.9551 90.2752
9.13412 80.2068
9.31318 80.6581
9.49226 82.667
9.67134 97.379
9.85047 97.1927
10.0296 289.907
10.2088 368.248
10.388 101.944
10.5672 532.015
10.7465 84.4461
10.9257 77.2449
11.105 70.6108
11.2844 69.2024
11.4637 63.3231
11.6431 62.3963
11.8225 61.4475
12.002 62.0796
12.1814 150.406
12.3609 69.5871
12.5405 63.1438
12.72 69.0674
12.8996 69.3423
13.0792 76.696
13.2589 227.675
13.4386 119.522
13.6183 242.394
13.7981 94.7302
13.9779 74.2635
14.1577 70.8922
14.3376 70.4025
14.5175 67.1249
14.6974 68.7913
14.8774 103.955
15.0574 146.963
15.2374 69.8801
15.4175 64.8237
15.5976 64.3782
15.7778 89.5039
15.958 152.662
16.1382 61.529
16.3185 57.6098
16.4988 54.568
16.6792 53.3556
16.8596 54.2101
17.04 54.5775
17.2205 64.7775
17.401 68.7004
17.5815 58.0815
17.7622 59.8624
17.9428 70.2175
18.1237 138.476
18.3044 88.9076
18.4852 75.3155
18.666 59.2087
18.8469 56.904
19.0278 55.7105
19.2088 57.8156
19.3898 75.5784
19.5709 53.0823
19.752 52.2095
19.9332 54.5248
20.1144 68.6843
20.2957 63.2774
20.477 52.3581
20.6586 48.6758
20.84 47.869
21.0215 47.5732
21.203 50.0332
21.3846 47.9454
21.5662 47.7823
21.7479 51.1891
21.9297 63.4597
22.1115 55.2378
22.2933 48.6216
22.4753 47.8962
22.6572 47.7094
22.8393 50.5826
23.0214 56.3968
23.2037 47.7598
23.3859 48.51
23.5682 56.625
23.7505 47.2742
23.9329 44.254
24.1154 43.3098
24.2979 42.487
24.4805 42.1051
24.6631 42.1726
24.8458 41.2477
25.0286 41.8568
25.2114 43.7091
25.3943 43.7331
25.5773 40.084
25.7605 39.6988
25.9436 40.0131
26.1268 41.0951
26.31 39.341
26.4933 39.8465
26.6767 41.309
26.8601 39.6605
27.0437 38.1928
27.2272 37.7269
27.4109 37.565
27.5946 37.6971
27.7784 37.0065
27.9623 37.6607
28.1462 38.0743
28.3304 36.3878
28.5145 35.2429
28.6987 34.9041
28.8829 34.765
29.0673 33.9591
29.2517 33.6713
29.4361 33.5313
29.6207 32.3961
29.8053 32.2352
29.99 31.9132
30.1748 31.8411
30.3597 31.6309
30.5447 31.6216
30.7297 31.6698
30.915 30.903
31.1002 30.4928
31.2855 30.2168
31.4708 30.2049
31.6563 29.7185
31.8418 29.5844
32.0275 29.3735
32.2132 28.799
32.399 28.415
32.5848 27.8059
32.7708 27.6523
32.9569 27.4374
33.143 27.2442
33.3293 26.853
33.5158 26.604
33.7022 26.0752
33.8887 25.8467
34.0753 25.4431
34.262 25.1999
34.4488 24.8152
34.6357 24.5551
34.8227 24.2201
35.0098 24.0527
35.1969 23.7285
35.3842 23.4953
35.5716 23.249
35.759 22.9868
35.9468 22.7162
36.1345 22.4615
36.3222 22.2542
36.5101 21.9665
36.6981 21.705
36.8861 21.4086
37.0743 21.1259
37.2626 20.8426
37.451 20.6499
37.6395 20.4752
37.8281 20.1143
38.0168 19.8491
38.2056 19.5629
38.3945 19.3448
38.5837 19.066
38.7728 18.8329
38.9621 18.5902
39.1514 18.4067
39.3409 18.1347
39.5304 17.8884
39.7201 17.745
39.9099 17.5154
40.0999 17.2956
40.2899 17.0907
40.48 16.794
40.6703 16.6412
40.8607 16.3896
41.0512 16.2347
41.242 15.9163
41.4327 15.7575
41.6236 15.5523
41.8146 15.3306
42.0057 15.1837
42.1969 14.9439
42.3882 14.8211
42.5797 14.5364
42.7713 14.3757
42.963 14.1324
43.1549 13.9562
43.3468 13.7597
43.5389 13.5954
43.7312 13.3902
43.9237 13.2694
44.1162 13.0032
44.3088 12.8692
44.5016 12.7077
44.6945 12.4839
44.8875 12.3104
45.0806 12.156
45.2739 12.0305
45.4673 11.8246
45.6609 11.6497
45.8546 11.5128
46.0484 11.3152
46.2424 11.1897
46.4365 11.0056
46.631 10.8358
46.8254 10.6787
47.0199 10.4949
47.2146 10.3652
47.4095 10.243
47.6044 10.0524
47.7996 9.95755
47.9948 9.77599
48.1902 9.63172
48.3858 9.49698
48.5815 9.33575
48.7774 9.21124
48.9734 9.1028
49.1696 8.96809
49.3661 8.76279
49.5626 8.64345
49.7592 8.54591
49.956 8.40158
50.153 8.28574
50.3501 8.14606
50.5474 8.04216
50.7448 7.94493
50.9424 7.78041
51.1402 7.64031
51.3381 7.52821
51.5362 7.42033
51.7344 7.28756
51.9328 7.1712
52.1316 7.03153
52.3304 6.94055
52.5293 6.8506
52.7284 6.74002
52.9276 6.6233
53.1271 6.48311
53.3267 6.41632
53.5265 6.31349
53.7264 6.15864
53.9266 6.04194
54.1269 6.00624
54.3274 5.84002
54.528 5.70145
54.7289 5.56224
54.9301 5.36886
55.1314 5.30008
55.3328 5.03495
55.5344 4.8727
55.7361 4.68062