File: XRD/Ni3Fe_FD0734.xy
TT I
1.27165 7.1929
1.45013 6.18644
1.62863 4.91819
1.80712 5.07453
1.98562 4.53754
2.16411 4.65636
2.34263 5.40934
2.52115 7.06827
2.69965 8.46711
2.87818 8.64158
3.05672 11.0909
3.23527 15.0349
3.4138 19.1068
3.59237 23.8575
3.77094 26.2245
3.9495 29.5984
4.12809 34.7656
4.30669 207.169
4.4853 64.4604
4.6639 55.4831
4.84253 66.8547
5.02118 86.2312
5.19981 320.624
5.37848 184.088
5.55716 101.508
5.73586 91.8907
5.91455 93.021
6.09328 4604.02
6.27201 82.3378
6.45075 67.0059
6.62952 62.4721
6.8083 58.4018
6.98711 55.5366
7.16591 55.0061
7.34475 88.5702
7.5236 54.5882
7.70247 55.938
7.88135 57.756
8.06026 62.127
8.23919 69.2512
8.41812 84.356
8.59709 1163.45
8.77609 99.0695
8.9551 90.9082
9.13412 81.4005
9.31318 81.8962
9.49226 84.031
9.67134 97.5319
9.85047 99.3006
10.0296 327.286
10.2088 413.062
10.388 103.711
10.5672 514.254
10.7465 86.5238
10.9257 77.994
11.105 71.4878
11.2844 70.0636
11.4637 64.6571
11.6431 63.4711
11.8225 62.2446
12.002 63.0611
12.1814 153.646
12.3609 70.4732
12.5405 63.8485
12.72 69.5918
12.8996 70.6331
13.0792 78.3681
13.2589 237.925
13.4386 126.263
13.6183 248.428
13.7981 97.4353
13.9779 75.6483
14.1577 72.0388
14.3376 70.9884
14.5175 68.5611
14.6974 69.8972
14.8774 109.51
15.0574 149.668
15.2374 70.369
15.4175 65.8556
15.5976 65.3747
15.7778 93.5928
15.958 155.942
16.1382 62.4319
16.3185 58.3391
16.4988 55.1343
16.6792 54.4165
16.8596 54.8726
17.04 55.4834
17.2205 66.3273
17.401 70.5297
17.5815 58.8659
17.7622 61.1234
17.9428 72.7512
18.1237 138.387
18.3044 90.647
18.4852 77.29
18.666 60.2518
18.8469 57.9377
19.0278 56.5854
19.2088 59.3213
19.3898 75.976
19.5709 54.1053
19.752 53.1754
19.9332 55.7788
20.1144 69.4274
20.2957 63.7762
20.477 53.669
20.6586 49.471
20.84 48.6003
21.0215 48.3247
21.203 50.7175
21.3846 48.8406
21.5662 48.5142
21.7479 52.3145
21.9297 64.1058
22.1115 55.7657
22.2933 49.7455
22.4753 48.5236
22.6572 48.5287
22.8393 51.8475
23.0214 56.8896
23.2037 48.748
23.3859 49.5716
23.5682 56.7665
23.7505 48.34
23.9329 45.1034
24.1154 43.947
24.2979 43.2459
24.4805 42.7758
24.6631 42.4985
24.8458 42.1074
25.0286 42.6478
25.2114 44.387
25.3943 44.3004
25.5773 40.6889
25.7605 40.2533
25.9436 40.7316
26.1268 41.5444
26.31 39.9632
26.4933 40.5937
26.6767 42.0513
26.8601 40.2769
27.0437 38.6981
27.2272 38.505
27.4109 38.2243
27.5946 38.0639
27.7784 37.7163
27.9623 38.3613
28.1462 38.6958
28.3304 37.0107
28.5145 35.7598
28.6987 35.535
28.8829 35.1779
29.0673 34.5935
29.2517 34.3184
29.4361 33.9553
29.6207 32.9819
29.8053 32.7491
29.99 32.4768
30.1748 32.4035
30.3597 32.1657
30.5447 32.0615
30.7297 32.1479
30.915 31.5674
31.1002 31.0495
31.2855 30.7123
31.4708 30.6905
31.6563 30.2551
31.8418 30.0381
32.0275 29.7906
32.2132 29.2753
32.399 28.8345
32.5848 28.2686
32.7708 28.0864
32.9569 27.8844
33.143 27.669
33.3293 27.3021
33.5158 26.91
33.7022 26.5772
33.8887 26.2774
34.0753 25.9003
34.262 25.5572
34.4488 25.1658
34.6357 24.9214
34.8227 24.5599
35.0098 24.3409
35.1969 24.1428
35.3842 23.8497
35.5716 23.6732
35.759 23.4419
35.9468 23.069
36.1345 22.899
36.3222 22.6144
36.5101 22.4212
36.6981 22.1016
36.8861 21.7365
37.0743 21.4112
37.2626 21.1668
37.451 20.9158
37.6395 20.7459
37.8281 20.4391
38.0168 20.1825
38.2056 19.844
38.3945 19.6537
38.5837 19.3677
38.7728 19.1217
38.9621 18.9122
39.1514 18.681
39.3409 18.3832
39.5304 18.1882
39.7201 17.994
39.9099 17.776
40.0999 17.5618
40.2899 17.2843
40.48 17.0598
40.6703 16.82
40.8607 16.6642
41.0512 16.4916
41.242 16.1975
41.4327 16.0544
41.6236 15.7999
41.8146 15.5966
42.0057 15.355
42.1969 15.1843
42.3882 15.0076
42.5797 14.793
42.7713 14.5683
42.963 14.3992
43.1549 14.1439
43.3468 13.9611
43.5389 13.7809
43.7312 13.5861
43.9237 13.4123
44.1162 13.2484
44.3088 13.0857
44.5016 12.8533
44.6945 12.6961
44.8875 12.5147
45.0806 12.3049
45.2739 12.1744
45.4673 11.9711
45.6609 11.7863
45.8546 11.6461
46.0484 11.4855
46.2424 11.2995
46.4365 11.1788
46.631 10.9594
46.8254 10.8559
47.0199 10.6362
47.2146 10.5586
47.4095 10.3587
47.6044 10.1719
47.7996 10.068
47.9948 9.94166
48.1902 9.78052
48.3858 9.66459
48.5815 9.51202
48.7774 9.33995
48.9734 9.24689
49.1696 9.09066
49.3661 8.98177
49.5626 8.77009
49.7592 8.66981
49.956 8.53884
50.153 8.39803
50.3501 8.28376
50.5474 8.16326
50.7448 8.05975
50.9424 7.88787
51.1402 7.80681
51.3381 7.64791
51.5362 7.52353
51.7344 7.4299
51.9328 7.25504
52.1316 7.14409
52.3304 7.07001
52.5293 6.92959
52.7284 6.81259
52.9276 6.69489
53.1271 6.60929
53.3267 6.45495
53.5265 6.37271
53.7264 6.25143
53.9266 6.15452
54.1269 6.02653
54.3274 5.94816
54.528 5.81409
54.7289 5.64056
54.9301 5.44111
55.1314 5.32858
55.3328 5.14944
55.5344 4.89061
55.7361 4.79418