File: XRD/Ni3Fe_FD1007.xy
TT I
1.27165 6.62432
1.45013 5.98885
1.62863 4.98282
1.80712 4.98214
1.98562 4.84927
2.16411 4.8673
2.34263 5.40987
2.52115 7.73354
2.69965 9.06226
2.87818 8.7751
3.05672 11.2724
3.23527 15.1982
3.4138 18.7437
3.59237 23.4245
3.77094 25.3803
3.9495 29.0295
4.12809 33.6367
4.30669 292.215
4.4853 70.2077
4.6639 52.1393
4.84253 63.5169
5.02118 80.5882
5.19981 247.575
5.37848 176.692
5.55716 95.9615
5.73586 86.2659
5.91455 86.1908
6.09328 4305.62
6.27201 77.8748
6.45075 64.1932
6.62952 60.0487
6.8083 56.6724
6.98711 53.2887
7.16591 52.817
7.34475 113.86
7.5236 52.5377
7.70247 53.92
7.88135 55.4502
8.06026 59.0263
8.23919 66.351
8.41812 78.7598
8.59709 971.521
8.77609 94.5064
8.9551 88.9754
9.13412 77.5556
9.31318 77.846
9.49226 79.9341
9.67134 96.0517
9.85047 93.0074
10.0296 255.592
10.2088 443.339
10.388 100.027
10.5672 503.919
10.7465 82.4896
10.9257 74.5909
11.105 68.0869
11.2844 68.5634
11.4637 62.0014
11.6431 61.1127
11.8225 59.4971
12.002 60.0618
12.1814 140.158
12.3609 71.2669
12.5405 61.3981
12.72 69.9373
12.8996 67.3569
13.0792 74.1838
13.2589 204.507
13.4386 130.886
13.6183 219.452
13.7981 99.356
13.9779 72.4751
14.1577 69.362
14.3376 69.0372
14.5175 65.6545
14.6974 67.4398
14.8774 97.1737
15.0574 166.322
15.2374 68.4353
15.4175 63.3249
15.5976 62.7222
15.7778 84.381
15.958 172.971
16.1382 61.4585
16.3185 56.1747
16.4988 53.4817
16.6792 52.2474
16.8596 52.8666
17.04 53.4359
17.2205 62.5178
17.401 70.8788
17.5815 56.7234
17.7622 58.7736
17.9428 68.0958
18.1237 139.865
18.3044 85.9106
18.4852 79.4061
18.666 58.3088
18.8469 55.729
19.0278 54.8531
19.2088 56.8496
19.3898 76.0511
19.5709 52.4206
19.752 51.2063
19.9332 53.6161
20.1144 69.1835
20.2957 62.2561
20.477 53.0399
20.6586 48.0227
20.84 47.1136
21.0215 46.7134
21.203 49.0553
21.3846 47.5007
21.5662 46.8094
21.7479 50.1193
21.9297 64.4707
22.1115 55.1911
22.2933 48.6273
22.4753 47.446
22.6572 47.0074
22.8393 49.8237
23.0214 57.2359
23.2037 47.3225
23.3859 47.7665
23.5682 56.1242
23.7505 47.8173
23.9329 43.7784
24.1154 42.745
24.2979 42.1077
24.4805 41.6209
24.6631 41.6174
24.8458 40.9132
25.0286 41.2385
25.2114 43.4749
25.3943 44.019
25.5773 39.8058
25.7605 39.1899
25.9436 39.5264
26.1268 40.9458
26.31 38.9832
26.4933 39.4683
26.6767 41.3882
26.8601 39.5232
27.0437 37.8903
27.2272 37.5037
27.4109 37.3888
27.5946 37.4891
27.7784 36.7724
27.9623 37.3262
28.1462 38.1906
28.3304 36.3894
28.5145 34.9315
28.6987 34.672
28.8829 34.5696
29.0673 33.6796
29.2517 33.2616
29.4361 33.4332
29.6207 32.2443
29.8053 31.9365
29.99 31.6536
30.1748 31.6722
30.3597 31.3954
30.5447 31.3059
30.7297 31.4228
30.915 30.8373
31.1002 30.2511
31.2855 30.1062
31.4708 30.0745
31.6563 29.5756
31.8418 29.3957
32.0275 29.319
32.2132 28.7244
32.399 28.17
32.5848 27.7743
32.7708 27.3755
32.9569 27.3324
33.143 27.0947
33.3293 26.7029
33.5158 26.3379
33.7022 25.9082
33.8887 25.6484
34.0753 25.3901
34.262 25.027
34.4488 24.6358
34.6357 24.3666
34.8227 24.1722
35.0098 23.8549
35.1969 23.5259
35.3842 23.4094
35.5716 23.2825
35.759 22.9045
35.9468 22.5102
36.1345 22.3074
36.3222 22.0552
36.5101 21.8798
36.6981 21.6659
36.8861 21.306
37.0743 20.9697
37.2626 20.7517
37.451 20.4307
37.6395 20.3554
37.8281 20.028
38.0168 19.6605
38.2056 19.4724
38.3945 19.063
38.5837 18.9647
38.7728 18.7314
38.9621 18.445
39.1514 18.2258
39.3409 18.0093
39.5304 17.8244
39.7201 17.6292
39.9099 17.4812
40.0999 17.1678
40.2899 16.8865
40.48 16.7115
40.6703 16.5234
40.8607 16.3459
41.0512 16.0873
41.242 15.8707
41.4327 15.7017
41.6236 15.4477
41.8146 15.26
42.0057 15.0654
42.1969 14.841
42.3882 14.7059
42.5797 14.5023
42.7713 14.2672
42.963 14.0889
43.1549 13.8667
43.3468 13.7103
43.5389 13.4773
43.7312 13.3491
43.9237 13.1503
44.1162 12.9225
44.3088 12.7605
44.5016 12.5604
44.6945 12.4399
44.8875 12.2697
45.0806 12.0543
45.2739 11.9123
45.4673 11.7357
45.6609 11.5853
45.8546 11.4671
46.0484 11.2788
46.2424 11.1313
46.4365 10.9748
46.631 10.7726
46.8254 10.6522
47.0199 10.5085
47.2146 10.3372
47.4095 10.1835
47.6044 9.99516
47.7996 9.82974
47.9948 9.71805
48.1902 9.61798
48.3858 9.44356
48.5815 9.31165
48.7774 9.16806
48.9734 9.0566
49.1696 8.88557
49.3661 8.74851
49.5626 8.6286
49.7592 8.48918
49.956 8.38633
50.153 8.24608
50.3501 8.12608
50.5474 7.98988
50.7448 7.9024
50.9424 7.74054
51.1402 7.64419
51.3381 7.50999
51.5362 7.36322
51.7344 7.29659
51.9328 7.13207
52.1316 7.01768
52.3304 6.93038
52.5293 6.83803
52.7284 6.67628
52.9276 6.59465
53.1271 6.50635
53.3267 6.35991
53.5265 6.25335
53.7264 6.12728
53.9266 6.02705
54.1269 5.95524
54.3274 5.83624
54.528 5.64134
54.7289 5.52925
54.9301 5.36447
55.1314 5.25497
55.3328 5.01668
55.5344 4.85149
55.7361 4.68991