File: XRD/Ni3Fe_FD0412.xy
TT I
1.27165 7.64948
1.45013 5.66124
1.62863 5.85734
1.80712 4.74872
1.98562 4.33323
2.16411 5.08251
2.34263 5.23498
2.52115 6.19347
2.69965 7.29792
2.87818 8.41564
3.05672 10.9235
3.23527 15.3351
3.4138 19.3186
3.59237 24.6528
3.77094 26.4024
3.9495 30.537
4.12809 35.4524
4.30669 277.937
4.4853 73.1677
4.6639 56.207
4.84253 67.9247
5.02118 88.4579
5.19981 421.198
5.37848 224.613
5.55716 105.014
5.73586 94.1135
5.91455 96.9442
6.09328 3903.06
6.27201 86.8391
6.45075 68.7421
6.62952 64.8563
6.8083 59.9596
6.98711 56.9945
7.16591 56.8301
7.34475 105.925
7.5236 56.0027
7.70247 57.6565
7.88135 59.4463
8.06026 63.416
8.23919 71.1885
8.41812 87.6801
8.59709 1061.87
8.77609 104.446
8.9551 95.2721
9.13412 83.3218
9.31318 84.3322
9.49226 86.0329
9.67134 103.063
9.85047 101.745
10.0296 356.285
10.2088 513.715
10.388 108.197
10.5672 471.365
10.7465 88.641
10.9257 80.5822
11.105 73.4151
11.2844 73.1177
11.4637 66.1544
11.6431 65.008
11.8225 63.7086
12.002 65.174
12.1814 142.288
12.3609 74.6242
12.5405 65.8557
12.72 72.7059
12.8996 72.3722
13.0792 80.3097
13.2589 223.452
13.4386 138.855
13.6183 227.807
13.7981 106.4
13.9779 77.6672
14.1577 74.2722
14.3376 74.0629
14.5175 70.3314
14.6974 71.6231
14.8774 109.507
15.0574 165.267
15.2374 73.4963
15.4175 67.934
15.5976 67.3877
15.7778 94.9357
15.958 171.076
16.1382 64.9341
16.3185 60.3603
16.4988 56.9955
16.6792 55.6512
16.8596 56.5308
17.04 56.9797
17.2205 66.782
17.401 74.461
17.5815 60.5557
17.7622 62.3691
17.9428 75.3026
18.1237 137.282
18.3044 89.1769
18.4852 82.3869
18.666 61.7312
18.8469 59.1699
19.0278 58.2933
19.2088 60.9442
19.3898 77.5349
19.5709 55.4469
19.752 54.2624
19.9332 57.3346
20.1144 70.5747
20.2957 63.6747
20.477 55.6062
20.6586 50.7339
20.84 49.844
21.0215 49.8481
21.203 51.4262
21.3846 49.9886
21.5662 49.7281
21.7479 53.4353
21.9297 65.4914
22.1115 56.9693
22.2933 51.3004
22.4753 50.1087
22.6572 49.9071
22.8393 52.6328
23.0214 59.0471
23.2037 49.9816
23.3859 50.7705
23.5682 57.1583
23.7505 50.0478
23.9329 46.1831
24.1154 45.0774
24.2979 44.4247
24.4805 43.8938
24.6631 43.8574
24.8458 43.1943
25.0286 43.6395
25.2114 45.4104
25.3943 45.609
25.5773 41.9463
25.7605 41.3688
25.9436 41.6045
26.1268 42.5683
26.31 41.0875
26.4933 41.6406
26.6767 43.0803
26.8601 41.3275
27.0437 39.7887
27.2272 39.3346
27.4109 39.2858
27.5946 39.3789
27.7784 38.7038
27.9623 38.9582
28.1462 39.6653
28.3304 38.2094
28.5145 36.7242
28.6987 36.3902
28.8829 36.1443
29.0673 35.4751
29.2517 35.0257
29.4361 34.8349
29.6207 33.816
29.8053 33.6236
29.99 33.3857
30.1748 33.1442
30.3597 33.0845
30.5447 32.7787
30.7297 32.9258
30.915 32.3431
31.1002 31.8168
31.2855 31.4844
31.4708 31.382
31.6563 31.021
31.8418 30.7286
32.0275 30.6033
32.2132 30.0818
32.399 29.6521
32.5848 29.1447
32.7708 28.7642
32.9569 28.607
33.143 28.3808
33.3293 28.0586
33.5158 27.6665
33.7022 27.1984
33.8887 26.912
34.0753 26.6343
34.262 26.2024
34.4488 25.8253
34.6357 25.473
34.8227 25.2451
35.0098 24.9947
35.1969 24.7329
35.3842 24.5086
35.5716 24.3126
35.759 23.9173
35.9468 23.6486
36.1345 23.3612
36.3222 23.1074
36.5101 22.9912
36.6981 22.5807
36.8861 22.2569
37.0743 21.9972
37.2626 21.7085
37.451 21.5211
37.6395 21.2934
37.8281 20.9016
38.0168 20.6819
38.2056 20.3766
38.3945 20.0968
38.5837 19.9004
38.7728 19.5821
38.9621 19.3688
39.1514 19.125
39.3409 18.861
39.5304 18.614
39.7201 18.3785
39.9099 18.2048
40.0999 17.9359
40.2899 17.7966
40.48 17.5038
40.6703 17.3376
40.8607 17.0581
41.0512 16.8612
41.242 16.62
41.4327 16.4111
41.6236 16.1839
41.8146 15.9298
42.0057 15.7883
42.1969 15.5389
42.3882 15.4393
42.5797 15.1533
42.7713 14.9435
42.963 14.7545
43.1549 14.5157
43.3468 14.2673
43.5389 14.1524
43.7312 13.9223
43.9237 13.7647
44.1162 13.557
44.3088 13.3349
44.5016 13.158
44.6945 13.013
44.8875 12.7879
45.0806 12.6638
45.2739 12.4913
45.4673 12.321
45.6609 12.0791
45.8546 11.9589
46.0484 11.7695
46.2424 11.6174
46.4365 11.4384
46.631 11.2364
46.8254 11.1264
47.0199 10.9389
47.2146 10.7888
47.4095 10.6222
47.6044 10.4598
47.7996 10.2965
47.9948 10.1317
48.1902 10.0337
48.3858 9.91253
48.5815 9.74247
48.7774 9.61647
48.9734 9.44509
49.1696 9.30395
49.3661 9.14927
49.5626 9.02021
49.7592 8.90971
49.956 8.76039
50.153 8.64176
50.3501 8.48212
50.5474 8.35043
50.7448 8.20451
50.9424 8.11936
51.1402 7.96188
51.3381 7.84273
51.5362 7.70431
51.7344 7.59598
51.9328 7.39544
52.1316 7.30518
52.3304 7.21367
52.5293 7.11246
52.7284 6.98606
52.9276 6.90878
53.1271 6.7643
53.3267 6.62493
53.5265 6.51785
53.7264 6.40608
53.9266 6.29128
54.1269 6.1909
54.3274 6.04805
54.528 5.90842
54.7289 5.79714
54.9301 5.62491
55.1314 5.45264
55.3328 5.2824
55.5344 5.06438
55.7361 4.97158