File: XRD/Ni3Fe_FD0770.xy
TT I
1.27165 7.4113
1.45013 6.53364
1.62863 5.08318
1.80712 5.08978
1.98562 4.90163
2.16411 4.88683
2.34263 5.88929
2.52115 6.67861
2.69965 8.46938
2.87818 8.47599
3.05672 11.1163
3.23527 15.1115
3.4138 19.2199
3.59237 24.6471
3.77094 26.4174
3.9495 30.2829
4.12809 34.9088
4.30669 277.021
4.4853 71.3329
4.6639 55.0497
4.84253 66.2325
5.02118 85.5951
5.19981 303.649
5.37848 188.108
5.55716 100.853
5.73586 91.0217
5.91455 91.9854
6.09328 4244.27
6.27201 82.9938
6.45075 66.978
6.62952 62.9907
6.8083 58.7398
6.98711 55.7141
7.16591 55.4237
7.34475 103.9
7.5236 54.6719
7.70247 56.2478
7.88135 57.7548
8.06026 61.7574
8.23919 68.8853
8.41812 84.5453
8.59709 1089.94
8.77609 98.921
8.9551 92.6669
9.13412 81.2194
9.31318 81.6753
9.49226 83.587
9.67134 100.784
9.85047 98.4464
10.0296 298.977
10.2088 405.384
10.388 103.654
10.5672 512.574
10.7465 86.3321
10.9257 78.4835
11.105 71.6182
11.2844 71.0983
11.4637 64.7274
11.6431 63.3952
11.8225 62.1727
12.002 62.9209
12.1814 145.406
12.3609 72.1423
12.5405 63.9986
12.72 70.9487
12.8996 70.4695
13.0792 77.865
13.2589 223.63
13.4386 126.496
13.6183 233.716
13.7981 98.3064
13.9779 75.4902
14.1577 72.535
14.3376 71.5989
14.5175 68.2747
14.6974 69.8012
14.8774 104.901
15.0574 151.817
15.2374 71.4011
15.4175 65.8416
15.5976 65.2893
15.7778 90.2763
15.958 159.413
16.1382 63.0065
16.3185 58.769
16.4988 55.2193
16.6792 54.2572
16.8596 55.0598
17.04 55.3339
17.2205 65.6943
17.401 71.0964
17.5815 58.8596
17.7622 60.8819
17.9428 71.758
18.1237 138.711
18.3044 88.7389
18.4852 78.5251
18.666 60.0902
18.8469 57.5563
19.0278 56.4926
19.2088 58.9682
19.3898 76.7254
19.5709 53.8034
19.752 52.9901
19.9332 55.4997
20.1144 69.2406
20.2957 63.229
20.477 53.5791
20.6586 49.2559
20.84 48.4366
21.0215 48.1441
21.203 50.497
21.3846 48.7632
21.5662 48.3696
21.7479 51.8344
21.9297 64.3534
22.1115 55.6365
22.2933 49.7338
22.4753 48.6847
22.6572 48.3952
22.8393 51.0469
23.0214 57.2285
23.2037 48.4438
23.3859 49.1634
23.5682 56.4059
23.7505 48.1983
23.9329 45.0464
24.1154 43.7569
24.2979 43.1966
24.4805 42.704
24.6631 42.5902
24.8458 42.005
25.0286 42.3139
25.2114 44.3524
25.3943 44.5228
25.5773 40.7058
25.7605 40.2869
25.9436 40.5223
26.1268 41.5303
26.31 39.7969
26.4933 40.4088
26.6767 41.9307
26.8601 40.2561
27.0437 38.6256
27.2272 38.2193
27.4109 38.2829
27.5946 38.1693
27.7784 37.6363
27.9623 38.0435
28.1462 38.6404
28.3304 37.0263
28.5145 35.8109
28.6987 35.4479
28.8829 35.2949
29.0673 34.4766
29.2517 34.1517
29.4361 33.9618
29.6207 33.0097
29.8053 32.7075
29.99 32.404
30.1748 32.3436
30.3597 32.0592
30.5447 31.9809
30.7297 31.9427
30.915 31.5289
31.1002 30.9278
31.2855 30.6814
31.4708 30.6125
31.6563 30.2269
31.8418 29.9644
32.0275 29.6656
32.2132 29.1664
32.399 28.8458
32.5848 28.3431
32.7708 27.9937
32.9569 27.8228
33.143 27.6624
33.3293 27.3157
33.5158 26.8958
33.7022 26.4457
33.8887 26.141
34.0753 25.7987
34.262 25.5205
34.4488 25.1697
34.6357 24.7742
34.8227 24.5589
35.0098 24.4504
35.1969 24.0688
35.3842 23.9074
35.5716 23.5999
35.759 23.3473
35.9468 22.9967
36.1345 22.8142
36.3222 22.5266
36.5101 22.2949
36.6981 22.0268
36.8861 21.6908
37.0743 21.412
37.2626 21.0618
37.451 20.9665
37.6395 20.7301
37.8281 20.3748
38.0168 20.0919
38.2056 19.8653
38.3945 19.5869
38.5837 19.3394
38.7728 19.1248
38.9621 18.9261
39.1514 18.6213
39.3409 18.3828
39.5304 18.221
39.7201 17.926
39.9099 17.7434
40.0999 17.4542
40.2899 17.3016
40.48 17.0098
40.6703 16.8172
40.8607 16.6485
41.0512 16.4708
41.242 16.1685
41.4327 15.9655
41.6236 15.7829
41.8146 15.5284
42.0057 15.3619
42.1969 15.1001
42.3882 15.0145
42.5797 14.7689
42.7713 14.6057
42.963 14.3325
43.1549 14.2005
43.3468 13.9514
43.5389 13.8127
43.7312 13.5811
43.9237 13.3566
44.1162 13.1767
44.3088 13.0269
44.5016 12.8582
44.6945 12.6748
44.8875 12.4944
45.0806 12.2839
45.2739 12.1622
45.4673 11.9436
45.6609 11.8333
45.8546 11.681
46.0484 11.499
46.2424 11.2807
46.4365 11.1356
46.631 10.9479
46.8254 10.8202
47.0199 10.7325
47.2146 10.5571
47.4095 10.3554
47.6044 10.1871
47.7996 10.04
47.9948 9.89611
48.1902 9.76396
48.3858 9.62202
48.5815 9.50954
48.7774 9.36063
48.9734 9.23408
49.1696 9.05511
49.3661 8.94598
49.5626 8.79309
49.7592 8.69351
49.956 8.53272
50.153 8.40184
50.3501 8.27587
50.5474 8.11675
50.7448 8.03671
50.9424 7.92023
51.1402 7.7695
51.3381 7.63038
51.5362 7.53151
51.7344 7.39832
51.9328 7.27622
52.1316 7.14551
52.3304 7.04309
52.5293 6.89286
52.7284 6.85468
52.9276 6.69279
53.1271 6.58195
53.3267 6.4526
53.5265 6.34685
53.7264 6.2529
53.9266 6.14608
54.1269 6.01513
54.3274 5.92787
54.528 5.75072
54.7289 5.60218
54.9301 5.407
55.1314 5.36049
55.3328 5.09169
55.5344 4.90175
55.7361 4.81769