File: XRD/Ni3Fe_FD0508.xy
TT I
1.27165 7.93059
1.45013 6.88305
1.62863 5.39646
1.80712 4.76858
1.98562 4.72199
2.16411 4.37809
2.34263 5.4922
2.52115 6.57463
2.69965 7.22677
2.87818 8.47361
3.05672 11.0344
3.23527 15.4085
3.4138 18.9412
3.59237 24.2527
3.77094 26.256
3.9495 30.043
4.12809 35.3109
4.30669 220.556
4.4853 67.1351
4.6639 55.9634
4.84253 68.1027
5.02118 87.8065
5.19981 392.152
5.37848 205.252
5.55716 103.689
5.73586 93.5868
5.91455 96.0935
6.09328 4110.05
6.27201 84.9812
6.45075 68.4758
6.62952 63.4529
6.8083 59.4424
6.98711 56.746
7.16591 56.1403
7.34475 93.134
7.5236 55.4812
7.70247 57.086
7.88135 58.465
8.06026 63.2152
8.23919 70.1689
8.41812 86.7229
8.59709 1153.8
8.77609 102.234
8.9551 92.7874
9.13412 82.8656
9.31318 83.4927
9.49226 85.7545
9.67134 100.009
9.85047 101.009
10.0296 356.616
10.2088 446.748
10.388 106.311
10.5672 494.161
10.7465 88.1394
10.9257 79.4144
11.105 72.5199
11.2844 71.3251
11.4637 65.7841
11.6431 64.3417
11.8225 63.3288
12.002 64.6229
12.1814 153.017
12.3609 72.1354
12.5405 65.2223
12.72 70.8706
12.8996 71.616
13.0792 79.6023
13.2589 236.614
13.4386 131.862
13.6183 243.278
13.7981 103.506
13.9779 76.8132
14.1577 73.3193
14.3376 72.6169
14.5175 69.7251
14.6974 71.0276
14.8774 111.657
15.0574 154.35
15.2374 72.1559
15.4175 67.4475
15.5976 66.5704
15.7778 96.0366
15.958 160.021
16.1382 63.5666
16.3185 59.5817
16.4988 56.0562
16.6792 55.2464
16.8596 56.0103
17.04 56.544
17.2205 67.1051
17.401 72.6739
17.5815 60.102
17.7622 61.9258
17.9428 74.6897
18.1237 137.247
18.3044 91.1211
18.4852 80.7174
18.666 61.0888
18.8469 58.8875
19.0278 57.6512
19.2088 60.4011
19.3898 76.4562
19.5709 55.0354
19.752 53.8468
19.9332 57.1265
20.1144 70.1176
20.2957 64.0124
20.477 54.655
20.6586 50.2994
20.84 49.3911
21.0215 49.1242
21.203 51.3823
21.3846 49.7117
21.5662 49.5102
21.7479 53.2741
21.9297 64.8534
22.1115 56.4604
22.2933 50.5838
22.4753 49.5118
22.6572 49.5407
22.8393 52.3672
23.0214 58.021
23.2037 49.4938
23.3859 50.3885
23.5682 56.8367
23.7505 49.2199
23.9329 45.9533
24.1154 44.7275
24.2979 43.9943
24.4805 43.5623
24.6631 43.4216
24.8458 42.7661
25.0286 43.4055
25.2114 45.1994
25.3943 45.2028
25.5773 41.543
25.7605 40.9596
25.9436 41.2802
26.1268 42.2526
26.31 40.7956
26.4933 41.2324
26.6767 42.5775
26.8601 41.0306
27.0437 39.381
27.2272 39.0288
27.4109 38.8091
27.5946 38.8854
27.7784 38.371
27.9623 38.835
28.1462 39.3538
28.3304 37.6947
28.5145 36.5163
28.6987 36.093
28.8829 35.9064
29.0673 35.11
29.2517 34.7888
29.4361 34.5448
29.6207 33.5311
29.8053 33.3395
29.99 32.908
30.1748 32.8098
30.3597 32.7153
30.5447 32.5428
30.7297 32.6338
30.915 31.9656
31.1002 31.5526
31.2855 31.1621
31.4708 31.2277
31.6563 30.8342
31.8418 30.5002
32.0275 30.3561
32.2132 29.782
32.399 29.3829
32.5848 28.9511
32.7708 28.4861
32.9569 28.3567
33.143 28.0842
33.3293 27.7057
33.5158 27.4279
33.7022 26.9599
33.8887 26.6
34.0753 26.3231
34.262 25.9868
34.4488 25.6139
34.6357 25.2834
34.8227 25.0342
35.0098 24.7267
35.1969 24.4597
35.3842 24.2609
35.5716 24.0358
35.759 23.8098
35.9468 23.3536
36.1345 23.1859
36.3222 22.9445
36.5101 22.731
36.6981 22.4186
36.8861 22.0777
37.0743 21.7848
37.2626 21.5167
37.451 21.1968
37.6395 21.1297
37.8281 20.7575
38.0168 20.4223
38.2056 20.2174
38.3945 19.8843
38.5837 19.7085
38.7728 19.445
38.9621 19.1627
39.1514 18.9055
39.3409 18.7383
39.5304 18.459
39.7201 18.2768
39.9099 18.1222
40.0999 17.861
40.2899 17.5621
40.48 17.303
40.6703 17.1401
40.8607 16.98
41.0512 16.6941
41.242 16.3924
41.4327 16.2795
41.6236 16.0488
41.8146 15.8682
42.0057 15.6029
42.1969 15.3386
42.3882 15.2599
42.5797 15.0155
42.7713 14.7881
42.963 14.5758
43.1549 14.4184
43.3468 14.1518
43.5389 13.9881
43.7312 13.7938
43.9237 13.6449
44.1162 13.4385
44.3088 13.2652
44.5016 13.0465
44.6945 12.8536
44.8875 12.7176
45.0806 12.5257
45.2739 12.3248
45.4673 12.1671
45.6609 12.0315
45.8546 11.8514
46.0484 11.6689
46.2424 11.4495
46.4365 11.3725
46.631 11.1538
46.8254 10.9655
47.0199 10.8749
47.2146 10.6914
47.4095 10.4903
47.6044 10.3771
47.7996 10.2195
47.9948 10.0221
48.1902 9.90242
48.3858 9.80268
48.5815 9.67609
48.7774 9.49595
48.9734 9.3605
49.1696 9.24378
49.3661 9.0403
49.5626 8.95472
49.7592 8.79967
49.956 8.6675
50.153 8.53023
50.3501 8.39196
50.5474 8.29337
50.7448 8.15241
50.9424 8.04173
51.1402 7.89178
51.3381 7.77967
51.5362 7.61743
51.7344 7.52674
51.9328 7.37695
52.1316 7.26902
52.3304 7.16728
52.5293 7.03407
52.7284 6.92794
52.9276 6.81348
53.1271 6.68847
53.3267 6.56454
53.5265 6.45183
53.7264 6.35673
53.9266 6.20786
54.1269 6.14707
54.3274 6.00705
54.528 5.89826
54.7289 5.71287
54.9301 5.53883
55.1314 5.45245
55.3328 5.22093
55.5344 5.04198
55.7361 4.8865