File: XRD/Ni3Fe_FD0365.xy
TT I
1.27165 7.45525
1.45013 6.17629
1.62863 5.47053
1.80712 5.34348
1.98562 4.64061
2.16411 3.82944
2.34263 4.37037
2.52115 5.86923
2.69965 7.45805
2.87818 8.29402
3.05672 10.6535
3.23527 14.8913
3.4138 18.8409
3.59237 23.4018
3.77094 26.33
3.9495 29.9225
4.12809 34.5587
4.30669 109.875
4.4853 55.0495
4.6639 56.5783
4.84253 70.1747
5.02118 92.0152
5.19981 619.039
5.37848 221.26
5.55716 106.845
5.73586 96.5594
5.91455 101.823
6.09328 4061.26
6.27201 84.9949
6.45075 69.4924
6.62952 63.5916
6.8083 59.9539
6.98711 56.7613
7.16591 56.5593
7.34475 70.0153
7.5236 55.4966
7.70247 57.3954
7.88135 59.0414
8.06026 64.0366
8.23919 71.3933
8.41812 87.4541
8.59709 1194.2
8.77609 103.847
8.9551 90.8122
9.13412 84.624
9.31318 86.0422
9.49226 87.3188
9.67134 96.6038
9.85047 103.808
10.0296 446.892
10.2088 454.306
10.388 109.958
10.5672 482.453
10.7465 89.0887
10.9257 79.6222
11.105 73.4065
11.2844 70.5003
11.4637 66.3642
11.6431 65.1886
11.8225 63.9745
12.002 66.5267
12.1814 151.941
12.3609 69.4351
12.5405 66.3444
12.72 69.8773
12.8996 73.1925
13.0792 83.2844
13.2589 248.274
13.4386 132.306
13.6183 245.283
13.7981 101.916
13.9779 77.9738
14.1577 74.0705
14.3376 72.4073
14.5175 71.0236
14.6974 72.7086
14.8774 120.561
15.0574 152.879
15.2374 71.589
15.4175 68.2652
15.5976 68.1122
15.7778 103.597
15.958 160.817
16.1382 63.1778
16.3185 59.5048
16.4988 56.9922
16.6792 55.8661
16.8596 56.3586
17.04 58.0883
17.2205 69.2656
17.401 73.2619
17.5815 61.007
17.7622 63.1878
17.9428 79.1401
18.1237 139.807
18.3044 91.8635
18.4852 79.1256
18.666 62.0454
18.8469 59.6729
19.0278 58.4557
19.2088 61.745
19.3898 76.9147
19.5709 55.6865
19.752 54.752
19.9332 58.4712
20.1144 71.4917
20.2957 64.4873
20.477 55.0928
20.6586 51.0076
20.84 50.1099
21.0215 50.052
21.203 51.8237
21.3846 50.4535
21.5662 50.5777
21.7479 54.8824
21.9297 66.094
22.1115 57.2736
22.2933 51.3039
22.4753 50.0744
22.6572 50.7408
22.8393 53.6903
23.0214 58.9201
23.2037 50.3819
23.3859 51.6592
23.5682 57.768
23.7505 49.6428
23.9329 46.4692
24.1154 45.2032
24.2979 44.6743
24.4805 43.9813
24.6631 43.9682
24.8458 43.5281
25.0286 44.2007
25.2114 46.0278
25.3943 45.8601
25.5773 41.9567
25.7605 41.6056
25.9436 41.973
26.1268 42.8374
26.31 41.2782
26.4933 41.9592
26.6767 43.2776
26.8601 41.5063
27.0437 40.0785
27.2272 39.6395
27.4109 39.4375
27.5946 39.3599
27.7784 39.0353
27.9623 39.3853
28.1462 39.813
28.3304 38.1483
28.5145 36.844
28.6987 36.6741
28.8829 36.2912
29.0673 35.5309
29.2517 35.1654
29.4361 34.9863
29.6207 34.0736
29.8053 33.7314
29.99 33.3797
30.1748 33.3449
30.3597 33.1401
30.5447 32.9639
30.7297 33.0772
30.915 32.3436
31.1002 31.9871
31.2855 31.6571
31.4708 31.5588
31.6563 31.1713
31.8418 30.9438
32.0275 30.7035
32.2132 30.265
32.399 29.6434
32.5848 29.1961
32.7708 28.9318
32.9569 28.7853
33.143 28.5414
33.3293 28.0324
33.5158 27.6417
33.7022 27.2678
33.8887 26.9837
34.0753 26.6157
34.262 26.2953
34.4488 26.027
34.6357 25.6064
34.8227 25.3483
35.0098 25.1964
35.1969 24.8103
35.3842 24.5867
35.5716 24.358
35.759 24.1234
35.9468 23.7758
36.1345 23.4857
36.3222 23.2341
36.5101 23.044
36.6981 22.6645
36.8861 22.3843
37.0743 22.0522
37.2626 21.8347
37.451 21.5458
37.6395 21.3803
37.8281 21.0167
38.0168 20.7636
38.2056 20.5184
38.3945 20.2028
38.5837 19.9428
38.7728 19.7136
38.9621 19.4881
39.1514 19.1517
39.3409 18.9424
39.5304 18.7046
39.7201 18.5298
39.9099 18.3374
40.0999 17.9982
40.2899 17.7855
40.48 17.6021
40.6703 17.3798
40.8607 17.1433
41.0512 16.8986
41.242 16.6772
41.4327 16.4805
41.6236 16.2454
41.8146 16.049
42.0057 15.7987
42.1969 15.579
42.3882 15.3657
42.5797 15.1904
42.7713 15.0075
42.963 14.767
43.1549 14.5425
43.3468 14.3266
43.5389 14.1764
43.7312 13.9493
43.9237 13.8013
44.1162 13.5904
44.3088 13.4351
44.5016 13.1889
44.6945 13.0463
44.8875 12.9312
45.0806 12.6958
45.2739 12.4808
45.4673 12.3089
45.6609 12.1507
45.8546 12.0045
46.0484 11.8144
46.2424 11.6146
46.4365 11.473
46.631 11.2687
46.8254 11.1226
47.0199 10.9329
47.2146 10.8378
47.4095 10.6302
47.6044 10.4902
47.7996 10.3268
47.9948 10.1752
48.1902 10.0361
48.3858 9.91845
48.5815 9.76992
48.7774 9.62658
48.9734 9.48696
49.1696 9.338
49.3661 9.16588
49.5626 9.05034
49.7592 8.91961
49.956 8.77199
50.153 8.66505
50.3501 8.48442
50.5474 8.3874
50.7448 8.26096
50.9424 8.11201
51.1402 7.99685
51.3381 7.87752
51.5362 7.74138
51.7344 7.59227
51.9328 7.48013
52.1316 7.36353
52.3304 7.27791
52.5293 7.11143
52.7284 7.03941
52.9276 6.9068
53.1271 6.77925
53.3267 6.65661
53.5265 6.51809
53.7264 6.4452
53.9266 6.28159
54.1269 6.16172
54.3274 6.06832
54.528 5.91726
54.7289 5.7865
54.9301 5.605
55.1314 5.47548
55.3328 5.27279
55.5344 5.08984
55.7361 4.93127