File: XRD/Ni3Fe_FD1055.xy
TT I
1.27165 6.8996
1.45013 5.08987
1.62863 4.45915
1.80712 4.12986
1.98562 4.72376
2.16411 4.37469
2.34263 5.04067
2.52115 7.84156
2.69965 8.22061
2.87818 8.0121
3.05672 10.6839
3.23527 14.4287
3.4138 18.0257
3.59237 21.4922
3.77094 24.5839
3.9495 27.9305
4.12809 32.2752
4.30669 56.4361
4.4853 46.3285
4.6639 52.7752
4.84253 64.1069
5.02118 82.9737
5.19981 232.111
5.37848 211.935
5.55716 97.1577
5.73586 88.4986
5.91455 88.4778
6.09328 4545.24
6.27201 75.7229
6.45075 63.7195
6.62952 57.8424
6.8083 54.6824
6.98711 52.6004
7.16591 51.9327
7.34475 56.1193
7.5236 58.5803
7.70247 53.2397
7.88135 55.0825
8.06026 59.1136
8.23919 65.6114
8.41812 77.8536
8.59709 1090.97
8.77609 94.909
8.9551 82.7032
9.13412 78.8242
9.31318 89.1221
9.49226 81.0423
9.67134 86.4518
9.85047 94.3708
10.0296 350.663
10.2088 439.675
10.388 98.1987
10.5672 507.524
10.7465 85.9182
10.9257 73.5962
11.105 68.4176
11.2844 64.8763
11.4637 62.0946
11.6431 60.7569
11.8225 59.7894
12.002 66.7921
12.1814 146.57
12.3609 64.5886
12.5405 61.5716
12.72 64.089
12.8996 67.8996
13.0792 76.7493
13.2589 229.111
13.4386 127.57
13.6183 237.501
13.7981 100.788
13.9779 73.2718
14.1577 75.1727
14.3376 67.2901
14.5175 66.5066
14.6974 67.4186
14.8774 110.23
15.0574 160.881
15.2374 66.5484
15.4175 64.0989
15.5976 63.5432
15.7778 94.6161
15.958 169.08
16.1382 59.9157
16.3185 55.7086
16.4988 53.5248
16.6792 52.7873
16.8596 52.9108
17.04 53.8264
17.2205 64.7325
17.401 72.3217
17.5815 57.4659
17.7622 60.1302
17.9428 73.3258
18.1237 142.164
18.3044 88.9352
18.4852 78.9524
18.666 58.9926
18.8469 56.4732
19.0278 55.263
19.2088 58.1174
19.3898 76.1543
19.5709 53.1237
19.752 51.7894
19.9332 55.1902
20.1144 70.5693
20.2957 63.536
20.477 52.9166
20.6586 48.3589
20.84 47.8654
21.0215 47.4478
21.203 49.6308
21.3846 47.977
21.5662 47.5769
21.7479 51.7518
21.9297 65.3951
22.1115 55.8853
22.2933 49.0031
22.4753 47.4701
22.6572 47.7413
22.8393 51.1783
23.0214 57.3694
23.2037 47.8219
23.3859 49.2233
23.5682 57.1151
23.7505 48.0933
23.9329 44.2854
24.1154 43.1529
24.2979 42.3448
24.4805 41.9568
24.6631 42.0745
24.8458 41.3444
25.0286 42.025
25.2114 44.286
25.3943 44.325
25.5773 40.2584
25.7605 39.5755
25.9436 40.1089
26.1268 41.2425
26.31 39.4385
26.4933 40.0099
26.6767 41.8545
26.8601 40.1067
27.0437 38.2829
27.2272 37.8943
27.4109 37.756
27.5946 37.9324
27.7784 37.1911
27.9623 37.9752
28.1462 38.6863
28.3304 36.8197
28.5145 35.4158
28.6987 35.0428
28.8829 34.9282
29.0673 34.1109
29.2517 33.7219
29.4361 33.689
29.6207 32.57
29.8053 32.299
29.99 32.1339
30.1748 31.8374
30.3597 31.7207
30.5447 31.7358
30.7297 31.8954
30.915 31.1909
31.1002 30.7044
31.2855 30.4204
31.4708 30.4476
31.6563 29.998
31.8418 29.8443
32.0275 29.5379
32.2132 29.0154
32.399 28.5863
32.5848 28.0742
32.7708 27.6688
32.9569 27.6333
33.143 27.4267
33.3293 27.0626
33.5158 26.6208
33.7022 26.1714
33.8887 25.9764
34.0753 25.6733
34.262 25.3011
34.4488 24.948
34.6357 24.5284
34.8227 24.3902
35.0098 24.1693
35.1969 23.8774
35.3842 23.6592
35.5716 23.4782
35.759 23.1235
35.9468 22.8068
36.1345 22.6056
36.3222 22.3144
36.5101 22.1474
36.6981 21.7787
36.8861 21.5127
37.0743 21.1836
37.2626 20.9515
37.451 20.6849
37.6395 20.5517
37.8281 20.1734
38.0168 19.9302
38.2056 19.6613
38.3945 19.4404
38.5837 19.1707
38.7728 18.9393
38.9621 18.6175
39.1514 18.4299
39.3409 18.2613
39.5304 18.0261
39.7201 17.8438
39.9099 17.6508
40.0999 17.3129
40.2899 17.1028
40.48 16.9272
40.6703 16.748
40.8607 16.4645
41.0512 16.2919
41.242 16.0803
41.4327 15.8952
41.6236 15.6275
41.8146 15.4211
42.0057 15.2377
42.1969 14.9916
42.3882 14.8504
42.5797 14.6226
42.7713 14.4235
42.963 14.2432
43.1549 14.0118
43.3468 13.7968
43.5389 13.6452
43.7312 13.4551
43.9237 13.2497
44.1162 13.0615
44.3088 12.9136
44.5016 12.7304
44.6945 12.5545
44.8875 12.4061
45.0806 12.2123
45.2739 12.0482
45.4673 11.8726
45.6609 11.6922
45.8546 11.5213
46.0484 11.3485
46.2424 11.1799
46.4365 11.0363
46.631 10.8197
46.8254 10.7164
47.0199 10.5239
47.2146 10.3704
47.4095 10.2101
47.6044 10.089
47.7996 9.93605
47.9948 9.81233
48.1902 9.64033
48.3858 9.52511
48.5815 9.40934
48.7774 9.23074
48.9734 9.11189
49.1696 9.00028
49.3661 8.84315
49.5626 8.64716
49.7592 8.55088
49.956 8.45281
50.153 8.31184
50.3501 8.1596
50.5474 8.03139
50.7448 7.94011
50.9424 7.78562
51.1402 7.69831
51.3381 7.54813
51.5362 7.41941
51.7344 7.32097
51.9328 7.19725
52.1316 7.05084
52.3304 6.98657
52.5293 6.83487
52.7284 6.75596
52.9276 6.64653
53.1271 6.55761
53.3267 6.43417
53.5265 6.28276
53.7264 6.16454
53.9266 6.07756
54.1269 5.98389
54.3274 5.80911
54.528 5.70849
54.7289 5.59641
54.9301 5.40363
55.1314 5.27327
55.3328 5.05194
55.5344 4.94688
55.7361 4.75004