File: XRD/Ni3Fe_FD1042.xy
TT I
1.27165 7.38011
1.45013 6.09195
1.62863 4.66059
1.80712 4.22621
1.98562 4.72645
2.16411 3.79209
2.34263 4.98218
2.52115 7.86913
2.69965 8.58237
2.87818 9.25711
3.05672 10.9938
3.23527 14.4215
3.4138 18.3574
3.59237 21.2923
3.77094 24.4989
3.9495 28.0479
4.12809 32.3962
4.30669 57.256
4.4853 46.1976
4.6639 52.009
4.84253 64.1727
5.02118 82.9136
5.19981 232.918
5.37848 213.966
5.55716 96.9839
5.73586 87.7864
5.91455 88.8024
6.09328 4532.99
6.27201 75.9223
6.45075 63.3672
6.62952 57.965
6.8083 54.7011
6.98711 52.169
7.16591 51.2065
7.34475 55.8107
7.5236 59.5952
7.70247 53.1264
7.88135 54.8166
8.06026 58.9609
8.23919 65.4955
8.41812 77.5845
8.59709 1081.12
8.77609 94.7993
8.9551 82.5466
9.13412 79.0762
9.31318 90.0678
9.49226 80.8733
9.67134 86.6024
9.85047 93.7994
10.0296 346.912
10.2088 435.794
10.388 97.3116
10.5672 505.267
10.7465 86.3525
10.9257 73.2852
11.105 68.0729
11.2844 64.7121
11.4637 61.7451
11.6431 60.4959
11.8225 59.6714
12.002 67.1856
12.1814 146.609
12.3609 64.5902
12.5405 61.4703
12.72 63.5743
12.8996 67.5531
13.0792 76.616
13.2589 227.666
13.4386 127.005
13.6183 236.327
13.7981 100.303
13.9779 73.0634
14.1577 75.9194
14.3376 67.2478
14.5175 66.3106
14.6974 67.4661
14.8774 109.161
15.0574 160.402
15.2374 66.4182
15.4175 63.898
15.5976 63.4194
15.7778 93.8376
15.958 166.833
16.1382 59.6755
16.3185 55.4859
16.4988 53.2524
16.6792 52.5496
16.8596 52.92
17.04 53.6879
17.2205 64.6542
17.401 71.5967
17.5815 57.2609
17.7622 59.8388
17.9428 72.7798
18.1237 141.817
18.3044 88.7049
18.4852 78.9609
18.666 58.8173
18.8469 56.4246
19.0278 55.0296
19.2088 57.9873
19.3898 76.0862
19.5709 52.9136
19.752 51.5932
19.9332 54.878
20.1144 70.2849
20.2957 63.4253
20.477 52.6994
20.6586 48.2774
20.84 47.9063
21.0215 47.2289
21.203 49.4606
21.3846 47.8025
21.5662 47.4402
21.7479 51.5648
21.9297 65.3989
22.1115 55.558
22.2933 48.9371
22.4753 47.4903
22.6572 47.6522
22.8393 51.0535
23.0214 57.2861
23.2037 47.672
23.3859 49.2518
23.5682 57.12
23.7505 48.0684
23.9329 44.2668
24.1154 43.1746
24.2979 42.4676
24.4805 42.0496
24.6631 42.0309
24.8458 41.2449
25.0286 41.8766
25.2114 44.115
25.3943 44.2138
25.5773 40.0594
25.7605 39.5486
25.9436 40.0509
26.1268 41.1896
26.31 39.3653
26.4933 40.0489
26.6767 41.7541
26.8601 40.0175
27.0437 38.245
27.2272 37.7198
27.4109 37.6897
27.5946 37.8151
27.7784 37.2094
27.9623 37.7712
28.1462 38.5541
28.3304 36.7071
28.5145 35.1596
28.6987 34.95
28.8829 34.6661
29.0673 34.054
29.2517 33.791
29.4361 33.5359
29.6207 32.4455
29.8053 32.2568
29.99 31.9436
30.1748 31.8386
30.3597 31.579
30.5447 31.6388
30.7297 31.8127
30.915 31.1767
31.1002 30.6067
31.2855 30.375
31.4708 30.3776
31.6563 29.9226
31.8418 29.6497
32.0275 29.5894
32.2132 28.8126
32.399 28.3803
32.5848 28.0238
32.7708 27.6763
32.9569 27.5332
33.143 27.4228
33.3293 26.8623
33.5158 26.5866
33.7022 26.112
33.8887 25.8854
34.0753 25.5385
34.262 25.1787
34.4488 24.8939
34.6357 24.4971
34.8227 24.2495
35.0098 24.0786
35.1969 23.7811
35.3842 23.5873
35.5716 23.3911
35.759 23.063
35.9468 22.7213
36.1345 22.5743
36.3222 22.3116
36.5101 22.0966
36.6981 21.7502
36.8861 21.4292
37.0743 21.1265
37.2626 20.8977
37.451 20.687
37.6395 20.505
37.8281 20.1589
38.0168 19.8677
38.2056 19.5726
38.3945 19.3888
38.5837 19.1437
38.7728 18.8999
38.9621 18.6211
39.1514 18.3788
39.3409 18.2039
39.5304 17.9292
39.7201 17.7213
39.9099 17.5267
40.0999 17.2837
40.2899 17.0859
40.48 16.8399
40.6703 16.6344
40.8607 16.4595
41.0512 16.2394
41.242 15.9747
41.4327 15.7799
41.6236 15.537
41.8146 15.4221
42.0057 15.1839
42.1969 14.9541
42.3882 14.8071
42.5797 14.527
42.7713 14.3691
42.963 14.1737
43.1549 13.9669
43.3468 13.7571
43.5389 13.7011
43.7312 13.3714
43.9237 13.2168
44.1162 13.0745
44.3088 12.865
44.5016 12.6501
44.6945 12.5222
44.8875 12.3462
45.0806 12.1682
45.2739 11.9988
45.4673 11.8434
45.6609 11.6115
45.8546 11.4949
46.0484 11.3338
46.2424 11.1833
46.4365 11.0238
46.631 10.8583
46.8254 10.7032
47.0199 10.5368
47.2146 10.3744
47.4095 10.2453
47.6044 10.0964
47.7996 9.89077
47.9948 9.73682
48.1902 9.63783
48.3858 9.49569
48.5815 9.37848
48.7774 9.20179
48.9734 9.09071
49.1696 8.95675
49.3661 8.82842
49.5626 8.68385
49.7592 8.53916
49.956 8.41
50.153 8.25515
50.3501 8.11962
50.5474 8.00725
50.7448 7.92115
50.9424 7.77326
51.1402 7.68808
51.3381 7.54043
51.5362 7.40675
51.7344 7.29308
51.9328 7.1903
52.1316 7.0193
52.3304 6.93642
52.5293 6.85233
52.7284 6.72619
52.9276 6.59706
53.1271 6.53198
53.3267 6.36135
53.5265 6.24185
53.7264 6.15246
53.9266 6.09271
54.1269 5.9665
54.3274 5.86092
54.528 5.69958
54.7289 5.60095
54.9301 5.43128
55.1314 5.24159
55.3328 5.07068
55.5344 4.91846
55.7361 4.77581