File: XRD/Ni3Fe_FD0923.xy
TT I
1.27165 7.31892
1.45013 6.4745
1.62863 5.46198
1.80712 5.26077
1.98562 4.66662
2.16411 4.81577
2.34263 5.80845
2.52115 7.8097
2.69965 9.15101
2.87818 8.93747
3.05672 11.5661
3.23527 15.3487
3.4138 18.316
3.59237 23.2924
3.77094 26.0095
3.9495 29.4322
4.12809 33.7112
4.30669 104.608
4.4853 53.5151
4.6639 54.9406
4.84253 68.1743
5.02118 86.225
5.19981 369.753
5.37848 191.415
5.55716 101.21
5.73586 91.736
5.91455 94.1128
6.09328 4689.14
6.27201 78.7859
6.45075 69.0545
6.62952 62.1982
6.8083 58.7578
6.98711 55.0465
7.16591 55.7652
7.34475 67.0521
7.5236 53.5201
7.70247 56.3436
7.88135 56.9253
8.06026 61.9146
8.23919 68.4431
8.41812 82.5711
8.59709 1204.36
8.77609 95.6719
8.9551 89.2282
9.13412 82.096
9.31318 83.8234
9.49226 83.7342
9.67134 94.5579
9.85047 100.157
10.0296 331.431
10.2088 322.107
10.388 103.31
10.5672 549.11
10.7465 84.7348
10.9257 76.9728
11.105 70.456
11.2844 67.7202
11.4637 63.8527
11.6431 62.3476
11.8225 61.7808
12.002 63.3496
12.1814 158.681
12.3609 65.7964
12.5405 63.9451
12.72 67.0156
12.8996 70.4883
13.0792 79.2892
13.2589 246.102
13.4386 114.292
13.6183 258.564
13.7981 91.4639
13.9779 74.6236
14.1577 70.7464
14.3376 69.1808
14.5175 67.7396
14.6974 69.5404
14.8774 110.135
15.0574 136.947
15.2374 68.4781
15.4175 65.3605
15.5976 64.8783
15.7778 94.3783
15.958 144.649
16.1382 60.3851
16.3185 56.9918
16.4988 54.4932
16.6792 53.525
16.8596 53.9777
17.04 54.9815
17.2205 65.858
17.401 67.3405
17.5815 58.3465
17.7622 60.6448
17.9428 72.3593
18.1237 139.836
18.3044 90.8268
18.4852 73.0966
18.666 59.234
18.8469 57.0505
19.0278 55.8134
19.2088 58.2268
19.3898 74.8618
19.5709 53.1651
19.752 52.3112
19.9332 55.2771
20.1144 69.2919
20.2957 64.0789
20.477 51.8771
20.6586 48.7937
20.84 48.0575
21.0215 47.9403
21.203 50.1239
21.3846 47.9554
21.5662 48.2002
21.7479 51.9138
21.9297 64.0565
22.1115 55.5558
22.2933 48.562
22.4753 47.8639
22.6572 48.1135
22.8393 51.3299
23.0214 55.8957
23.2037 48.0667
23.3859 48.8491
23.5682 57.0903
23.7505 46.7608
23.9329 44.4846
24.1154 43.3902
24.2979 42.6309
24.4805 42.3061
24.6631 42.0192
24.8458 41.6056
25.0286 42.184
25.2114 44.0081
25.3943 43.6718
25.5773 40.178
25.7605 39.6965
25.9436 40.2646
26.1268 40.9906
26.31 39.3427
26.4933 40.1526
26.6767 41.4586
26.8601 39.7313
27.0437 38.2885
27.2272 37.8538
27.4109 37.75
27.5946 37.824
27.7784 37.3039
27.9623 37.8835
28.1462 38.055
28.3304 36.4832
28.5145 35.3809
28.6987 34.9415
28.8829 34.8369
29.0673 34.0259
29.2517 33.7626
29.4361 33.4528
29.6207 32.5491
29.8053 32.3598
29.99 32.1205
30.1748 31.9558
30.3597 31.5874
30.5447 31.6558
30.7297 31.7764
30.915 31.0481
31.1002 30.5778
31.2855 30.3606
31.4708 30.3649
31.6563 29.7353
31.8418 29.6593
32.0275 29.3703
32.2132 28.7568
32.399 28.4227
32.5848 28.0884
32.7708 27.7075
32.9569 27.5678
33.143 27.3225
33.3293 26.9168
33.5158 26.5635
33.7022 26.1384
33.8887 25.9249
34.0753 25.6197
34.262 25.1925
34.4488 24.8767
34.6357 24.5992
34.8227 24.3206
35.0098 24.0558
35.1969 23.781
35.3842 23.593
35.5716 23.3717
35.759 23.0514
35.9468 22.682
36.1345 22.4573
36.3222 22.2429
36.5101 22.0811
36.6981 21.776
36.8861 21.4256
37.0743 21.1177
37.2626 20.8683
37.451 20.6549
37.6395 20.4252
37.8281 20.1224
38.0168 19.8664
38.2056 19.6367
38.3945 19.3823
38.5837 19.1479
38.7728 18.8507
38.9621 18.6804
39.1514 18.4
39.3409 18.1314
39.5304 17.8889
39.7201 17.747
39.9099 17.6006
40.0999 17.3363
40.2899 17.0668
40.48 16.7983
40.6703 16.6543
40.8607 16.4291
41.0512 16.3142
41.242 15.9725
41.4327 15.7741
41.6236 15.5924
41.8146 15.3745
42.0057 15.1534
42.1969 14.9935
42.3882 14.8057
42.5797 14.5423
42.7713 14.3777
42.963 14.1993
43.1549 13.9694
43.3468 13.7183
43.5389 13.6174
43.7312 13.4066
43.9237 13.1943
44.1162 13.0246
44.3088 12.87
44.5016 12.683
44.6945 12.4677
44.8875 12.3223
45.0806 12.1434
45.2739 11.9932
45.4673 11.8517
45.6609 11.6904
45.8546 11.4762
46.0484 11.3401
46.2424 11.1637
46.4365 11.0289
46.631 10.8409
46.8254 10.6906
47.0199 10.5305
47.2146 10.3703
47.4095 10.1952
47.6044 10.0457
47.7996 9.90762
47.9948 9.76728
48.1902 9.61922
48.3858 9.51825
48.5815 9.37944
48.7774 9.25752
48.9734 9.11681
49.1696 8.94414
49.3661 8.80394
49.5626 8.67815
49.7592 8.52794
49.956 8.38654
50.153 8.27557
50.3501 8.15132
50.5474 8.04121
50.7448 7.92906
50.9424 7.8085
51.1402 7.66596
51.3381 7.53224
51.5362 7.4611
51.7344 7.28768
51.9328 7.18119
52.1316 7.02592
52.3304 6.95925
52.5293 6.86678
52.7284 6.71806
52.9276 6.62537
53.1271 6.49434
53.3267 6.36142
53.5265 6.26649
53.7264 6.17457
53.9266 6.04337
54.1269 5.94889
54.3274 5.84258
54.528 5.69602
54.7289 5.56817
54.9301 5.32784
55.1314 5.26794
55.3328 5.09217
55.5344 4.90471
55.7361 4.78166