File: XRD/Ni3Fe_FD0872.xy
TT I
1.27165 6.97211
1.45013 5.80611
1.62863 5.1753
1.80712 4.8129
1.98562 5.25049
2.16411 4.81366
2.34263 5.41206
2.52115 7.60364
2.69965 8.28542
2.87818 8.83105
3.05672 11.9026
3.23527 15.5375
3.4138 19.0193
3.59237 24.3975
3.77094 26.55
3.9495 29.6395
4.12809 34.9411
4.30669 247.086
4.4853 67.0907
4.6639 54.6006
4.84253 66.383
5.02118 84.2622
5.19981 290.127
5.37848 179.007
5.55716 100.153
5.73586 90.4706
5.91455 91.2395
6.09328 4348.03
6.27201 81.6381
6.45075 66.5405
6.62952 62.4756
6.8083 58.2876
6.98711 55.349
7.16591 55.1748
7.34475 96.9891
7.5236 54.462
7.70247 55.7103
7.88135 57.1195
8.06026 61.6849
8.23919 68.5709
8.41812 83.5737
8.59709 1112.3
8.77609 97.4677
8.9551 91.1879
9.13412 80.9185
9.31318 80.9582
9.49226 83.1286
9.67134 98.625
9.85047 97.9408
10.0296 296.155
10.2088 403.881
10.388 102.796
10.5672 527.619
10.7465 85.2678
10.9257 77.9394
11.105 70.7074
11.2844 70.1042
11.4637 64.1715
11.6431 62.6191
11.8225 61.7108
12.002 62.2161
12.1814 150.173
12.3609 70.4914
12.5405 63.6448
12.72 69.7172
12.8996 69.8947
13.0792 77.0693
13.2589 225.172
13.4386 123.363
13.6183 240.672
13.7981 95.6184
13.9779 74.6545
14.1577 71.6629
14.3376 70.7216
14.5175 67.681
14.6974 69.2879
14.8774 104.464
15.0574 145.721
15.2374 70.2368
15.4175 65.3075
15.5976 64.4787
15.7778 89.8474
15.958 157.296
16.1382 62.234
16.3185 58.0137
16.4988 54.7014
16.6792 53.7537
16.8596 54.5577
17.04 54.8167
17.2205 65.2986
17.401 69.8633
17.5815 58.2017
17.7622 60.2393
17.9428 70.923
18.1237 138.611
18.3044 88.8514
18.4852 76.569
18.666 59.5964
18.8469 57.029
19.0278 56.2296
19.2088 58.1917
19.3898 76.3553
19.5709 53.6502
19.752 52.4501
19.9332 55.1609
20.1144 69.0857
20.2957 63.3631
20.477 52.9804
20.6586 48.9588
20.84 48.0457
21.0215 47.8171
21.203 50.2099
21.3846 48.2134
21.5662 48.0428
21.7479 51.4702
21.9297 64.039
22.1115 55.3916
22.2933 49.2076
22.4753 48.3173
22.6572 48.011
22.8393 50.8433
23.0214 56.8705
23.2037 48.0176
23.3859 48.7522
23.5682 56.5595
23.7505 47.7471
23.9329 44.6279
24.1154 43.4836
24.2979 42.8147
24.4805 42.3139
24.6631 42.2841
24.8458 41.685
25.0286 42.1539
25.2114 44.0001
25.3943 44.0412
25.5773 40.5257
25.7605 39.8066
25.9436 40.3315
26.1268 41.001
26.31 39.6544
26.4933 40.236
26.6767 41.5939
26.8601 39.88
27.0437 38.2348
27.2272 37.9046
27.4109 37.8138
27.5946 37.9709
27.7784 37.3255
27.9623 37.8451
28.1462 38.3591
28.3304 36.6508
28.5145 35.4875
28.6987 35.1279
28.8829 34.982
29.0673 34.2152
29.2517 33.8881
29.4361 33.669
29.6207 32.7491
29.8053 32.4699
29.99 32.1505
30.1748 32.0151
30.3597 31.769
30.5447 31.7423
30.7297 31.9684
30.915 31.087
31.1002 30.7074
31.2855 30.5318
31.4708 30.3969
31.6563 30.0241
31.8418 29.8195
32.0275 29.4989
32.2132 29.0118
32.399 28.5849
32.5848 28.1325
32.7708 27.7928
32.9569 27.7101
33.143 27.4872
33.3293 27.0597
33.5158 26.7094
33.7022 26.2667
33.8887 26.0096
34.0753 25.6997
34.262 25.2702
34.4488 24.8969
34.6357 24.613
34.8227 24.4483
35.0098 24.175
35.1969 23.8681
35.3842 23.648
35.5716 23.4811
35.759 23.1698
35.9468 22.7674
36.1345 22.566
36.3222 22.4397
36.5101 22.1353
36.6981 21.8142
36.8861 21.5358
37.0743 21.2786
37.2626 21.0322
37.451 20.8021
37.6395 20.5452
37.8281 20.3625
38.0168 19.9202
38.2056 19.7061
38.3945 19.4186
38.5837 19.2173
38.7728 18.9718
38.9621 18.7121
39.1514 18.3971
39.3409 18.2435
39.5304 17.9737
39.7201 17.8102
39.9099 17.6211
40.0999 17.3478
40.2899 17.1309
40.48 16.9229
40.6703 16.6823
40.8607 16.5292
41.0512 16.3712
41.242 16.0054
41.4327 15.9178
41.6236 15.5697
41.8146 15.5121
42.0057 15.2654
42.1969 15.0312
42.3882 14.8866
42.5797 14.6178
42.7713 14.4155
42.963 14.2691
43.1549 14.0523
43.3468 13.8684
43.5389 13.6679
43.7312 13.4913
43.9237 13.2801
44.1162 13.0912
44.3088 12.9173
44.5016 12.7507
44.6945 12.5293
44.8875 12.4287
45.0806 12.2166
45.2739 12.0241
45.4673 11.8637
45.6609 11.6729
45.8546 11.5673
46.0484 11.3612
46.2424 11.2095
46.4365 11.0475
46.631 10.8756
46.8254 10.7028
47.0199 10.5897
47.2146 10.4359
47.4095 10.2708
47.6044 10.1281
47.7996 9.96492
47.9948 9.79713
48.1902 9.66971
48.3858 9.5656
48.5815 9.42472
48.7774 9.29615
48.9734 9.12511
49.1696 9.00385
49.3661 8.82877
49.5626 8.73772
49.7592 8.57843
49.956 8.47989
50.153 8.33987
50.3501 8.22027
50.5474 8.09403
50.7448 7.96903
50.9424 7.86275
51.1402 7.69065
51.3381 7.57609
51.5362 7.49091
51.7344 7.32356
51.9328 7.19837
52.1316 7.1165
52.3304 7.00378
52.5293 6.84001
52.7284 6.76347
52.9276 6.63423
53.1271 6.55959
53.3267 6.44653
53.5265 6.30568
53.7264 6.21414
53.9266 6.11356
54.1269 5.9712
54.3274 5.89471
54.528 5.76799
54.7289 5.5556
54.9301 5.4382
55.1314 5.27105
55.3328 5.07492
55.5344 4.88064
55.7361 4.77284