File: XRD/Ni3Fe_FD0933.xy
TT I
1.27165 7.14491
1.45013 5.96099
1.62863 5.14951
1.80712 4.18559
1.98562 4.17421
2.16411 4.61767
2.34263 4.63286
2.52115 7.01403
2.69965 8.84091
2.87818 9.22218
3.05672 11.0675
3.23527 15.6291
3.4138 18.6329
3.59237 23.0703
3.77094 25.5662
3.9495 29.113
4.12809 33.6919
4.30669 92.1208
4.4853 52.4391
4.6639 54.6982
4.84253 67.8979
5.02118 85.9411
5.19981 370.247
5.37848 194.614
5.55716 100.793
5.73586 92.1275
5.91455 93.5577
6.09328 4666.66
6.27201 78.6003
6.45075 69.8014
6.62952 62.4107
6.8083 59.6228
6.98711 54.8778
7.16591 55.7154
7.34475 64.8426
7.5236 53.5337
7.70247 56.4793
7.88135 56.9057
8.06026 61.7911
8.23919 68.3633
8.41812 82.0559
8.59709 1204.9
8.77609 95.7585
8.9551 89.0802
9.13412 82.2741
9.31318 84.3352
9.49226 83.9224
9.67134 94.7562
9.85047 100.646
10.0296 329.978
10.2088 323.9
10.388 103.182
10.5672 547.544
10.7465 84.5867
10.9257 76.9893
11.105 70.4882
11.2844 67.2275
11.4637 63.5661
11.6431 62.4889
11.8225 62.1004
12.002 63.5917
12.1814 159.612
12.3609 65.3211
12.5405 63.9751
12.72 66.996
12.8996 70.7296
13.0792 79.7839
13.2589 246.745
13.4386 114.343
13.6183 259.726
13.7981 91.603
13.9779 74.4975
14.1577 70.6899
14.3376 68.8649
14.5175 67.7874
14.6974 69.6772
14.8774 110.729
15.0574 136.283
15.2374 68.4652
15.4175 65.3095
15.5976 64.7011
15.7778 93.7157
15.958 145.065
16.1382 60.3357
16.3185 56.6191
16.4988 54.4815
16.6792 53.2975
16.8596 53.981
17.04 55.089
17.2205 66.2347
17.401 67.4394
17.5815 58.3036
17.7622 60.356
17.9428 72.418
18.1237 140.322
18.3044 90.6974
18.4852 72.4828
18.666 59.2483
18.8469 57.1324
19.0278 55.5459
19.2088 58.0038
19.3898 74.8528
19.5709 53.2003
19.752 52.4617
19.9332 55.3424
20.1144 69.2932
20.2957 64.1656
20.477 51.7658
20.6586 48.6845
20.84 48.0482
21.0215 47.7106
21.203 50.2093
21.3846 48.0537
21.5662 48.2565
21.7479 51.891
21.9297 64.0233
22.1115 55.6843
22.2933 48.5764
22.4753 47.8847
22.6572 48.067
22.8393 51.3111
23.0214 55.9611
23.2037 47.8673
23.3859 48.8885
23.5682 56.9747
23.7505 46.9758
23.9329 44.4123
24.1154 43.2886
24.2979 42.6462
24.4805 42.3295
24.6631 42.0075
24.8458 41.4679
25.0286 42.136
25.2114 43.829
25.3943 43.8337
25.5773 40.1743
25.7605 39.8039
25.9436 40.3394
26.1268 41.0539
26.31 39.2463
26.4933 40.0918
26.6767 41.5404
26.8601 39.8124
27.0437 38.2147
27.2272 37.8586
27.4109 37.7176
27.5946 37.5623
27.7784 37.252
27.9623 37.9233
28.1462 38.2386
28.3304 36.3717
28.5145 35.2619
28.6987 34.9877
28.8829 34.8063
29.0673 34.0721
29.2517 33.8313
29.4361 33.6193
29.6207 32.5397
29.8053 32.2495
29.99 32.024
30.1748 31.8962
30.3597 31.7681
30.5447 31.7039
30.7297 31.5998
30.915 31.019
31.1002 30.6025
31.2855 30.3797
31.4708 30.2946
31.6563 29.8316
31.8418 29.662
32.0275 29.3766
32.2132 28.7901
32.399 28.3782
32.5848 28.0081
32.7708 27.703
32.9569 27.5331
33.143 27.3461
33.3293 26.8991
33.5158 26.5369
33.7022 26.1396
33.8887 25.8891
34.0753 25.512
34.262 25.2743
34.4488 24.9073
34.6357 24.6843
34.8227 24.2604
35.0098 24.027
35.1969 23.8053
35.3842 23.6101
35.5716 23.2885
35.759 23.0474
35.9468 22.7511
36.1345 22.4896
36.3222 22.2352
36.5101 22.0722
36.6981 21.7247
36.8861 21.3598
37.0743 21.0571
37.2626 20.855
37.451 20.5854
37.6395 20.4908
37.8281 20.0703
38.0168 19.8848
38.2056 19.5979
38.3945 19.3725
38.5837 19.084
38.7728 18.8023
38.9621 18.624
39.1514 18.3639
39.3409 18.1279
39.5304 17.9173
39.7201 17.7519
39.9099 17.5235
40.0999 17.2793
40.2899 17.047
40.48 16.8091
40.6703 16.566
40.8607 16.4261
41.0512 16.1938
41.242 15.9695
41.4327 15.8202
41.6236 15.5132
41.8146 15.4028
42.0057 15.186
42.1969 14.9479
42.3882 14.8441
42.5797 14.5911
42.7713 14.3323
42.963 14.1787
43.1549 13.9734
43.3468 13.7375
43.5389 13.5822
43.7312 13.3961
43.9237 13.229
44.1162 13.0053
44.3088 12.8506
44.5016 12.6435
44.6945 12.4783
44.8875 12.3484
45.0806 12.0918
45.2739 12.0039
45.4673 11.7832
45.6609 11.665
45.8546 11.5327
46.0484 11.3283
46.2424 11.1628
46.4365 11.0114
46.631 10.8252
46.8254 10.6717
47.0199 10.5007
47.2146 10.3594
47.4095 10.208
47.6044 10.0687
47.7996 9.89238
47.9948 9.73679
48.1902 9.59869
48.3858 9.49145
48.5815 9.39274
48.7774 9.20408
48.9734 9.09124
49.1696 8.94535
49.3661 8.78006
49.5626 8.64671
49.7592 8.54509
49.956 8.42707
50.153 8.27923
50.3501 8.15137
50.5474 8.04716
50.7448 7.90901
50.9424 7.75726
51.1402 7.67297
51.3381 7.51564
51.5362 7.41163
51.7344 7.29234
51.9328 7.18421
52.1316 7.04344
52.3304 6.93034
52.5293 6.85768
52.7284 6.73865
52.9276 6.61781
53.1271 6.52104
53.3267 6.3923
53.5265 6.24601
53.7264 6.18181
53.9266 6.03492
54.1269 5.98336
54.3274 5.79747
54.528 5.73271
54.7289 5.62596
54.9301 5.40336
55.1314 5.27592
55.3328 5.02519
55.5344 4.89132
55.7361 4.74296