File: XRD/Ni3Fe_FD0661.xy
TT I
1.27165 7.18303
1.45013 6.37534
1.62863 5.25901
1.80712 4.97479
1.98562 4.71766
2.16411 4.78961
2.34263 5.91213
2.52115 6.91364
2.69965 8.3365
2.87818 8.44255
3.05672 11.511
3.23527 14.9025
3.4138 18.9632
3.59237 23.9709
3.77094 26.5358
3.9495 29.4917
4.12809 34.2566
4.30669 217.769
4.4853 65.4807
4.6639 55.4428
4.84253 66.934
5.02118 86.741
5.19981 331.216
5.37848 185.375
5.55716 101.359
5.73586 91.7225
5.91455 93.688
6.09328 4570.41
6.27201 82.8013
6.45075 66.8804
6.62952 62.3213
6.8083 58.3881
6.98711 55.964
7.16591 54.9231
7.34475 92.4053
7.5236 54.5254
7.70247 55.9834
7.88135 57.6319
8.06026 61.8944
8.23919 69.535
8.41812 85.5731
8.59709 1180.6
8.77609 99.2632
8.9551 91.0845
9.13412 81.9608
9.31318 82.085
9.49226 83.934
9.67134 98.2896
9.85047 99.5469
10.0296 335.426
10.2088 394.396
10.388 104.046
10.5672 515.536
10.7465 86.014
10.9257 78.2977
11.105 71.7314
11.2844 70.401
11.4637 64.8227
11.6431 63.2553
11.8225 62.3151
12.002 63.4816
12.1814 153.214
12.3609 70.0444
12.5405 64.3463
12.72 69.7925
12.8996 70.5691
13.0792 78.5795
13.2589 237.625
13.4386 120.669
13.6183 248.059
13.7981 94.9043
13.9779 75.7467
14.1577 72.2049
14.3376 71.5991
14.5175 68.5338
14.6974 70.4901
14.8774 109.185
15.0574 145.778
15.2374 70.9409
15.4175 66.205
15.5976 65.5676
15.7778 93.5189
15.958 156.503
16.1382 62.6275
16.3185 58.4886
16.4988 55.5184
16.6792 54.4194
16.8596 54.9765
17.04 55.6661
17.2205 66.4458
17.401 70.7321
17.5815 59.1686
17.7622 61.1024
17.9428 73.198
18.1237 143.25
18.3044 90.4573
18.4852 77.0441
18.666 60.1777
18.8469 57.7941
19.0278 56.8479
19.2088 59.485
19.3898 77.4236
19.5709 53.936
19.752 53.2539
19.9332 56.0994
20.1144 70.0609
20.2957 63.9128
20.477 53.4173
20.6586 49.5681
20.84 48.7549
21.0215 48.493
21.203 50.7474
21.3846 48.641
21.5662 48.683
21.7479 52.5622
21.9297 65.1117
22.1115 55.9925
22.2933 49.7557
22.4753 48.8637
22.6572 48.6565
22.8393 51.8922
23.0214 57.452
23.2037 48.6889
23.3859 49.6767
23.5682 57.245
23.7505 48.1715
23.9329 45.1036
24.1154 43.9815
24.2979 43.3296
24.4805 42.8372
24.6631 42.8041
24.8458 42.104
25.0286 42.8761
25.2114 44.7346
25.3943 44.7434
25.5773 40.9098
25.7605 40.4776
25.9436 40.7297
26.1268 41.8763
26.31 40.0384
26.4933 40.6729
26.6767 42.2683
26.8601 40.4937
27.0437 38.8841
27.2272 38.502
27.4109 38.3138
27.5946 38.3513
27.7784 37.8251
27.9623 38.4416
28.1462 38.9051
28.3304 37.1429
28.5145 35.8633
28.6987 35.5963
28.8829 35.4001
29.0673 34.6821
29.2517 34.3977
29.4361 34.1824
29.6207 33.102
29.8053 32.8946
29.99 32.4554
30.1748 32.4694
30.3597 32.2315
30.5447 32.1241
30.7297 32.2119
30.915 31.5963
31.1002 31.0616
31.2855 30.9123
31.4708 30.6925
31.6563 30.4532
31.8418 30.1863
32.0275 29.918
32.2132 29.4121
32.399 28.8395
32.5848 28.5137
32.7708 28.1548
32.9569 27.9214
33.143 27.8438
33.3293 27.4674
33.5158 27.0209
33.7022 26.5201
33.8887 26.3543
34.0753 25.9354
34.262 25.688
34.4488 25.2339
34.6357 24.9943
34.8227 24.7069
35.0098 24.4761
35.1969 24.104
35.3842 23.944
35.5716 23.7434
35.759 23.4852
35.9468 23.1395
36.1345 22.8375
36.3222 22.6631
36.5101 22.4455
36.6981 22.0958
36.8861 21.8437
37.0743 21.5165
37.2626 21.2147
37.451 21.0048
37.6395 20.8344
37.8281 20.4637
38.0168 20.2783
38.2056 20.0193
38.3945 19.7305
38.5837 19.474
38.7728 19.2121
38.9621 18.9477
39.1514 18.7356
39.3409 18.453
39.5304 18.2134
39.7201 18.052
39.9099 17.8815
40.0999 17.5622
40.2899 17.3837
40.48 17.0811
40.6703 16.9415
40.8607 16.7809
41.0512 16.4841
41.242 16.2411
41.4327 16.0296
41.6236 15.8413
41.8146 15.6624
42.0057 15.4522
42.1969 15.2116
42.3882 15.0625
42.5797 14.8243
42.7713 14.5997
42.963 14.4292
43.1549 14.2287
43.3468 14.04
43.5389 13.8781
43.7312 13.6275
43.9237 13.4687
44.1162 13.2219
44.3088 13.0713
44.5016 12.8854
44.6945 12.7549
44.8875 12.5362
45.0806 12.3778
45.2739 12.2074
45.4673 12.0799
45.6609 11.8623
45.8546 11.643
46.0484 11.5489
46.2424 11.3969
46.4365 11.1873
46.631 11.0612
46.8254 10.8471
47.0199 10.7193
47.2146 10.5582
47.4095 10.3911
47.6044 10.2455
47.7996 10.1114
47.9948 9.95705
48.1902 9.8046
48.3858 9.70715
48.5815 9.5447
48.7774 9.41373
48.9734 9.25403
49.1696 9.09623
49.3661 8.96326
49.5626 8.82193
49.7592 8.67072
49.956 8.56207
50.153 8.42318
50.3501 8.27411
50.5474 8.16539
50.7448 8.04846
50.9424 7.93736
51.1402 7.8075
51.3381 7.6723
51.5362 7.561
51.7344 7.42999
51.9328 7.31577
52.1316 7.16873
52.3304 7.07753
52.5293 6.93262
52.7284 6.82789
52.9276 6.72228
53.1271 6.62818
53.3267 6.51101
53.5265 6.385
53.7264 6.31018
53.9266 6.19096
54.1269 6.06074
54.3274 5.96603
54.528 5.85463
54.7289 5.62953
54.9301 5.47044
55.1314 5.36685
55.3328 5.14233
55.5344 4.96488
55.7361 4.85999