File: XRD/Ni3Fe_FD0870.xy
TT I
1.27165 7.8189
1.45013 5.76483
1.62863 5.01687
1.80712 5.39763
1.98562 4.7284
2.16411 5.20428
2.34263 5.91084
2.52115 7.72569
2.69965 8.70866
2.87818 8.90069
3.05672 11.5786
3.23527 14.8834
3.4138 18.7135
3.59237 23.8105
3.77094 26.1861
3.9495 29.7234
4.12809 34.7184
4.30669 245.099
4.4853 67.7287
4.6639 54.7901
4.84253 66.2258
5.02118 85.1027
5.19981 290.025
5.37848 179.115
5.55716 99.9893
5.73586 90.6174
5.91455 90.9083
6.09328 4330.52
6.27201 81.7677
6.45075 66.3468
6.62952 62.1405
6.8083 57.9617
6.98711 55.5898
7.16591 54.9547
7.34475 96.5478
7.5236 54.2141
7.70247 55.7236
7.88135 57.3255
8.06026 61.3851
8.23919 68.547
8.41812 83.562
8.59709 1110.77
8.77609 97.3192
8.9551 91.079
9.13412 80.4564
9.31318 81.4507
9.49226 82.9722
9.67134 98.3197
9.85047 97.7067
10.0296 294.556
10.2088 407.803
10.388 102.841
10.5672 522.138
10.7465 85.388
10.9257 77.5392
11.105 70.9555
11.2844 69.6864
11.4637 64.083
11.6431 62.7307
11.8225 61.8592
12.002 62.5193
12.1814 150.447
12.3609 70.4224
12.5405 63.6109
12.72 69.5271
12.8996 69.8058
13.0792 77.2338
13.2589 226.078
13.4386 123.585
13.6183 241.471
13.7981 96.2663
13.9779 74.5954
14.1577 71.5231
14.3376 70.9214
14.5175 67.9233
14.6974 69.1768
14.8774 104.185
15.0574 146.409
15.2374 70.404
15.4175 65.1381
15.5976 64.4167
15.7778 89.9647
15.958 156.42
16.1382 61.9888
16.3185 58.0296
16.4988 54.776
16.6792 53.6409
16.8596 54.3871
17.04 54.6984
17.2205 65.0894
17.401 70.0495
17.5815 58.1877
17.7622 60.2657
17.9428 71.0644
18.1237 139.018
18.3044 89.0445
18.4852 76.7967
18.666 59.7713
18.8469 56.9963
19.0278 56.0208
19.2088 58.335
19.3898 76.3019
19.5709 53.2818
19.752 52.5155
19.9332 55.0879
20.1144 69.3383
20.2957 63.4241
20.477 53.0274
20.6586 49.0779
20.84 47.9851
21.0215 47.8968
21.203 50.2637
21.3846 48.3463
21.5662 47.8871
21.7479 51.4896
21.9297 63.6902
22.1115 55.3136
22.2933 49.025
22.4753 48.3131
22.6572 48.0239
22.8393 50.999
23.0214 56.8127
23.2037 48.1399
23.3859 48.9363
23.5682 56.4794
23.7505 47.6728
23.9329 44.6326
24.1154 43.4949
24.2979 42.7342
24.4805 42.3751
24.6631 42.1917
24.8458 41.6212
25.0286 42.1933
25.2114 43.9702
25.3943 44.1659
25.5773 40.3435
25.7605 39.8065
25.9436 40.2066
26.1268 41.3083
26.31 39.4439
26.4933 40.229
26.6767 41.6625
26.8601 39.9029
27.0437 38.3398
27.2272 37.9726
27.4109 37.9214
27.5946 37.7932
27.7784 37.3069
27.9623 37.8463
28.1462 38.3366
28.3304 36.706
28.5145 35.5612
28.6987 35.041
28.8829 35.0751
29.0673 34.2148
29.2517 33.7905
29.4361 33.6256
29.6207 32.733
29.8053 32.6049
29.99 32.2312
30.1748 31.999
30.3597 31.8825
30.5447 31.7514
30.7297 31.8399
30.915 31.1476
31.1002 30.7508
31.2855 30.5085
31.4708 30.3522
31.6563 29.905
31.8418 29.7016
32.0275 29.4845
32.2132 29.0405
32.399 28.5567
32.5848 28.1381
32.7708 27.7846
32.9569 27.6478
33.143 27.3807
33.3293 27.0623
33.5158 26.6954
33.7022 26.259
33.8887 26.0912
34.0753 25.6221
34.262 25.3645
34.4488 25.0098
34.6357 24.6536
34.8227 24.3881
35.0098 24.1947
35.1969 23.9028
35.3842 23.5817
35.5716 23.4049
35.759 23.2081
35.9468 22.8327
36.1345 22.6572
36.3222 22.3281
36.5101 22.1597
36.6981 21.8461
36.8861 21.5413
37.0743 21.2173
37.2626 21.0406
37.451 20.6915
37.6395 20.5698
37.8281 20.2314
38.0168 19.9296
38.2056 19.693
38.3945 19.4777
38.5837 19.2456
38.7728 18.9277
38.9621 18.7377
39.1514 18.4444
39.3409 18.2272
39.5304 18.0078
39.7201 17.8673
39.9099 17.6933
40.0999 17.4158
40.2899 17.1142
40.48 16.9213
40.6703 16.6925
40.8607 16.5415
41.0512 16.2753
41.242 16.0516
41.4327 15.8882
41.6236 15.6383
41.8146 15.4467
42.0057 15.2294
42.1969 14.9818
42.3882 14.8206
42.5797 14.6236
42.7713 14.4572
42.963 14.1857
43.1549 14.0717
43.3468 13.8462
43.5389 13.6719
43.7312 13.4336
43.9237 13.3171
44.1162 13.1731
44.3088 12.9467
44.5016 12.7018
44.6945 12.6055
44.8875 12.426
45.0806 12.2465
45.2739 12.0468
45.4673 11.8818
45.6609 11.7221
45.8546 11.5769
46.0484 11.3633
46.2424 11.2509
46.4365 11.0952
46.631 10.8564
46.8254 10.7202
47.0199 10.583
47.2146 10.4571
47.4095 10.3185
47.6044 10.0888
47.7996 9.95161
47.9948 9.82464
48.1902 9.66837
48.3858 9.52805
48.5815 9.40417
48.7774 9.26385
48.9734 9.12588
49.1696 8.99119
49.3661 8.84863
49.5626 8.68703
49.7592 8.57061
49.956 8.4767
50.153 8.31189
50.3501 8.21988
50.5474 8.07396
50.7448 7.98963
50.9424 7.8212
51.1402 7.7318
51.3381 7.59595
51.5362 7.4189
51.7344 7.32405
51.9328 7.19063
52.1316 7.08907
52.3304 7.01042
52.5293 6.87089
52.7284 6.79793
52.9276 6.63471
53.1271 6.55246
53.3267 6.43953
53.5265 6.33601
53.7264 6.19415
53.9266 6.12914
54.1269 5.98971
54.3274 5.88683
54.528 5.71944
54.7289 5.59058
54.9301 5.42816
55.1314 5.31091
55.3328 5.04995
55.5344 4.88962
55.7361 4.7264