File: XRD/Ni3Fe_FD0460.xy
TT I
1.27165 7.13257
1.45013 5.86847
1.62863 5.17584
1.80712 4.94906
1.98562 4.88337
2.16411 5.08343
2.34263 5.42146
2.52115 6.4195
2.69965 7.73092
2.87818 9.05068
3.05672 10.8847
3.23527 15.2315
3.4138 18.6474
3.59237 23.7549
3.77094 26.2577
3.9495 29.7102
4.12809 34.3401
4.30669 133.289
4.4853 58.0767
4.6639 56.4443
4.84253 69.0908
5.02118 90.0491
5.19981 520.749
5.37848 204.57
5.55716 105.247
5.73586 95.1481
5.91455 98.9993
6.09328 4239.7
6.27201 83.7582
6.45075 68.9745
6.62952 63.2756
6.8083 59.3227
6.98711 56.5186
7.16591 56.0362
7.34475 75.6217
7.5236 55.0263
7.70247 56.9424
7.88135 58.8594
8.06026 63.1288
8.23919 70.5841
8.41812 87.0682
8.59709 1216.03
8.77609 101.816
8.9551 90.4854
9.13412 83.7442
9.31318 84.9922
9.49226 86.1916
9.67134 96.7131
9.85047 102.268
10.0296 410.037
10.2088 409.782
10.388 108.266
10.5672 493.22
10.7465 88.2801
10.9257 78.7303
11.105 72.8582
11.2844 70.1132
11.4637 65.8709
11.6431 64.378
11.8225 63.2836
12.002 65.7294
12.1814 156.241
12.3609 69.4411
12.5405 65.3838
12.72 69.731
12.8996 72.3972
13.0792 81.8679
13.2589 250.326
13.4386 124.369
13.6183 253.874
13.7981 97.7152
13.9779 76.9916
14.1577 73.6699
14.3376 71.7446
14.5175 70.3992
14.6974 71.7929
14.8774 117.965
15.0574 147.933
15.2374 71.1386
15.4175 67.271
15.5976 67.2558
15.7778 100.946
15.958 155.543
16.1382 62.8202
16.3185 59.2258
16.4988 56.3771
16.6792 55.3864
16.8596 55.7488
17.04 57.0391
17.2205 68.6223
17.401 71.6604
17.5815 60.2158
17.7622 62.2622
17.9428 76.9937
18.1237 139.95
18.3044 91.8784
18.4852 77.883
18.666 61.4324
18.8469 58.8984
19.0278 57.6386
19.2088 60.9846
19.3898 76.7178
19.5709 54.8942
19.752 54.2159
19.9332 57.6193
20.1144 70.6273
20.2957 64.4986
20.477 54.1741
20.6586 50.5104
20.84 49.6682
21.0215 49.5344
21.203 51.6518
21.3846 49.6162
21.5662 49.7562
21.7479 53.824
21.9297 65.3972
22.1115 56.6118
22.2933 50.5959
22.4753 49.6808
22.6572 49.7374
22.8393 53.1001
23.0214 57.9404
23.2037 49.7732
23.3859 50.8218
23.5682 57.3161
23.7505 49.1999
23.9329 45.7905
24.1154 44.8272
24.2979 44.0581
24.4805 43.6639
24.6631 43.6289
24.8458 42.9635
25.0286 43.6468
25.2114 45.5819
25.3943 45.182
25.5773 41.5389
25.7605 41.1839
25.9436 41.4541
26.1268 42.2962
26.31 40.7656
26.4933 41.4697
26.6767 42.7987
26.8601 41.0108
27.0437 39.4508
27.2272 39.04
27.4109 39.0303
27.5946 38.9951
27.7784 38.5857
27.9623 38.9055
28.1462 39.3521
28.3304 37.7429
28.5145 36.4927
28.6987 36.1331
28.8829 35.8652
29.0673 35.2853
29.2517 34.8908
29.4361 34.6259
29.6207 33.6702
29.8053 33.455
29.99 33.1316
30.1748 32.9605
30.3597 32.8497
30.5447 32.6418
30.7297 32.7858
30.915 32.1488
31.1002 31.6415
31.2855 31.3953
31.4708 31.2803
31.6563 30.7404
31.8418 30.6805
32.0275 30.4119
32.2132 29.8928
32.399 29.3818
32.5848 28.8976
32.7708 28.5488
32.9569 28.4282
33.143 28.1907
33.3293 27.8576
33.5158 27.4595
33.7022 27.0266
33.8887 26.7458
34.0753 26.3628
34.262 26.0838
34.4488 25.6602
34.6357 25.3132
34.8227 25.1211
35.0098 24.8095
35.1969 24.5417
35.3842 24.3405
35.5716 24.1459
35.759 23.8063
35.9468 23.5145
36.1345 23.2197
36.3222 23.0645
36.5101 22.7749
36.6981 22.486
36.8861 22.0997
37.0743 21.855
37.2626 21.5169
37.451 21.3191
37.6395 21.1244
37.8281 20.7667
38.0168 20.5601
38.2056 20.2911
38.3945 20.0007
38.5837 19.6948
38.7728 19.4716
38.9621 19.2725
39.1514 18.9592
39.3409 18.7381
39.5304 18.5701
39.7201 18.3254
39.9099 18.0888
40.0999 17.8171
40.2899 17.595
40.48 17.3703
40.6703 17.2507
40.8607 17.0038
41.0512 16.7778
41.242 16.5152
41.4327 16.3442
41.6236 16.0795
41.8146 15.8836
42.0057 15.6466
42.1969 15.4244
42.3882 15.2715
42.5797 15.0702
42.7713 14.8508
42.963 14.6389
43.1549 14.4543
43.3468 14.2294
43.5389 14.0469
43.7312 13.8541
43.9237 13.6052
44.1162 13.4401
44.3088 13.2066
44.5016 13.125
44.6945 12.9324
44.8875 12.7532
45.0806 12.5175
45.2739 12.329
45.4673 12.2565
45.6609 12.0215
45.8546 11.9075
46.0484 11.6974
46.2424 11.5336
46.4365 11.3651
46.631 11.1246
46.8254 11.0242
47.0199 10.8474
47.2146 10.7231
47.4095 10.5363
47.6044 10.3514
47.7996 10.2481
47.9948 10.0937
48.1902 9.93911
48.3858 9.79961
48.5815 9.64721
48.7774 9.52774
48.9734 9.38767
49.1696 9.22652
49.3661 9.08288
49.5626 8.93582
49.7592 8.8318
49.956 8.68945
50.153 8.58932
50.3501 8.4094
50.5474 8.30496
50.7448 8.14668
50.9424 8.03898
51.1402 7.87935
51.3381 7.82065
51.5362 7.6299
51.7344 7.55326
51.9328 7.38516
52.1316 7.27466
52.3304 7.17943
52.5293 7.06555
52.7284 6.89706
52.9276 6.8569
53.1271 6.71631
53.3267 6.58762
53.5265 6.49731
53.7264 6.33177
53.9266 6.25268
54.1269 6.13408
54.3274 6.03439
54.528 5.86578
54.7289 5.72995
54.9301 5.52968
55.1314 5.45894
55.3328 5.26571
55.5344 4.9973
55.7361 4.88602