File: XRD/Ni3Fe_FD0236.xy
TT I
1.27165 8.49647
1.45013 6.39197
1.62863 6.38414
1.80712 4.98482
1.98562 4.80544
2.16411 4.61695
2.34263 4.63195
2.52115 5.01119
2.69965 6.3238
2.87818 8.07621
3.05672 10.7321
3.23527 14.9926
3.4138 19.0063
3.59237 22.4021
3.77094 25.9864
3.9495 30.077
4.12809 35.1119
4.30669 40.4176
4.4853 48.8627
4.6639 58.6065
4.84253 72.074
5.02118 97.0939
5.19981 892.024
5.37848 272.608
5.55716 112.653
5.73586 101.172
5.91455 109.959
6.09328 3688.47
6.27201 89.1793
6.45075 71.201
6.62952 64.3796
6.8083 60.0353
6.98711 57.4288
7.16591 57.1602
7.34475 55.8927
7.5236 56.1999
7.70247 58.0991
7.88135 60.2853
8.06026 65.3623
8.23919 73.6601
8.41812 90.6812
8.59709 1080.64
8.77609 110.734
8.9551 90.776
9.13412 87.0176
9.31318 88.7437
9.49226 89.8085
9.67134 95.6163
9.85047 107.105
10.0296 517.943
10.2088 548.385
10.388 115.625
10.5672 453.263
10.7465 92.2455
10.9257 80.8001
11.105 75.0799
11.2844 70.7174
11.4637 67.7397
11.6431 66.2658
11.8225 65.5505
12.002 68.9017
12.1814 142.391
12.3609 69.9476
12.5405 67.4143
12.72 69.7994
12.8996 74.7137
13.0792 86.4557
13.2589 231.355
13.4386 148.406
13.6183 228.021
13.7981 110.08
13.9779 80.0182
14.1577 75.2561
14.3376 73.2443
14.5175 72.7807
14.6974 74.595
14.8774 120.454
15.0574 168.555
15.2374 72.4546
15.4175 69.858
15.5976 69.9163
15.7778 103.843
15.958 173.003
16.1382 63.9228
16.3185 60.1269
16.4988 57.9763
16.6792 57.1354
16.8596 57.533
17.04 59.5104
17.2205 68.9515
17.401 76.6046
17.5815 62.2312
17.7622 64.569
17.9428 82.6988
18.1237 138.986
18.3044 90.3376
18.4852 82.8421
18.666 63.2946
18.8469 60.7759
19.0278 59.6975
19.2088 62.9193
19.3898 76.2829
19.5709 56.9368
19.752 56.0279
19.9332 59.5425
20.1144 72.6056
20.2957 64.5408
20.477 56.7126
20.6586 52.1133
20.84 51.3245
21.0215 51.125
21.203 52.4826
21.3846 51.5901
21.5662 51.7047
21.7479 55.694
21.9297 66.6205
22.1115 57.6392
22.2933 52.5968
22.4753 50.8003
22.6572 51.9099
22.8393 54.1385
23.0214 59.7142
23.2037 51.4521
23.3859 52.6625
23.5682 57.6243
23.7505 51.0862
23.9329 47.4393
24.1154 46.1257
24.2979 45.4262
24.4805 44.8391
24.6631 44.8876
24.8458 44.4423
25.0286 44.9608
25.2114 46.4023
25.3943 46.4581
25.5773 42.8362
25.7605 42.3884
25.9436 42.5739
26.1268 43.6144
26.31 42.2724
26.4933 42.5251
26.6767 43.7997
26.8601 42.3476
27.0437 40.7282
27.2272 40.374
27.4109 40.1832
27.5946 40.1549
27.7784 39.8144
27.9623 39.9291
28.1462 40.5772
28.3304 38.9888
28.5145 37.5863
28.6987 37.2624
28.8829 36.9858
29.0673 36.4057
29.2517 35.958
29.4361 35.6023
29.6207 34.6696
29.8053 34.4128
29.99 34.1036
30.1748 33.9165
30.3597 33.7182
30.5447 33.5822
30.7297 33.5476
30.915 33.1788
31.1002 32.5615
31.2855 32.2913
31.4708 32.1908
31.6563 31.7877
31.8418 31.4121
32.0275 31.2236
32.2132 30.5726
32.399 30.2538
32.5848 29.7812
32.7708 29.3322
32.9569 29.4032
33.143 29.0249
33.3293 28.6521
33.5158 28.294
33.7022 27.8264
33.8887 27.5464
34.0753 27.1278
34.262 26.8229
34.4488 26.4705
34.6357 26.0864
34.8227 25.8647
35.0098 25.5949
35.1969 25.328
35.3842 25.1125
35.5716 24.8539
35.759 24.5137
35.9468 24.1252
36.1345 23.8972
36.3222 23.7391
36.5101 23.4324
36.6981 23.0496
36.8861 22.7917
37.0743 22.3935
37.2626 22.1768
37.451 21.914
37.6395 21.7692
37.8281 21.4421
38.0168 21.1357
38.2056 20.8277
38.3945 20.4914
38.5837 20.2617
38.7728 20.115
38.9621 19.8059
39.1514 19.519
39.3409 19.3174
39.5304 19.0073
39.7201 18.8472
39.9099 18.6533
40.0999 18.3509
40.2899 18.1598
40.48 17.8566
40.6703 17.6924
40.8607 17.514
41.0512 17.2551
41.242 16.9648
41.4327 16.8616
41.6236 16.4978
41.8146 16.3915
42.0057 16.1056
42.1969 15.8674
42.3882 15.6777
42.5797 15.5108
42.7713 15.2659
42.963 15.0434
43.1549 14.8317
43.3468 14.6017
43.5389 14.472
43.7312 14.1811
43.9237 14.0089
44.1162 13.8478
44.3088 13.601
44.5016 13.4278
44.6945 13.2896
44.8875 13.0824
45.0806 12.8943
45.2739 12.7035
45.4673 12.5515
45.6609 12.3318
45.8546 12.1976
46.0484 12.0078
46.2424 11.8132
46.4365 11.6464
46.631 11.4787
46.8254 11.2706
47.0199 11.1418
47.2146 11.022
47.4095 10.8264
47.6044 10.6568
47.7996 10.5036
47.9948 10.3585
48.1902 10.2289
48.3858 10.0855
48.5815 9.92656
48.7774 9.78423
48.9734 9.65508
49.1696 9.48517
49.3661 9.36161
49.5626 9.21152
49.7592 9.07812
49.956 8.91274
50.153 8.77858
50.3501 8.64922
50.5474 8.50793
50.7448 8.39604
50.9424 8.2512
51.1402 8.13249
51.3381 7.99403
51.5362 7.85519
51.7344 7.71787
51.9328 7.5974
52.1316 7.45228
52.3304 7.37031
52.5293 7.24796
52.7284 7.18035
52.9276 7.00626
53.1271 6.87867
53.3267 6.76385
53.5265 6.63644
53.7264 6.53801
53.9266 6.42744
54.1269 6.31832
54.3274 6.15659
54.528 6.02251
54.7289 5.85369
54.9301 5.71501
55.1314 5.5021
55.3328 5.29868
55.5344 5.12763
55.7361 5.0166