File: XRD/Ni3Fe_FD0717.xy
TT I
1.27165 7.48587
1.45013 6.39695
1.62863 5.49941
1.80712 4.9026
1.98562 4.81398
2.16411 5.08818
2.34263 5.5515
2.52115 7.42858
2.69965 8.32893
2.87818 8.51205
3.05672 11.1241
3.23527 15.3037
3.4138 19.0093
3.59237 23.4466
3.77094 25.8577
3.9495 30.0521
4.12809 35.1849
4.30669 116.781
4.4853 55.1844
4.6639 55.7575
4.84253 68.4359
5.02118 88.6588
5.19981 388.087
5.37848 198.194
5.55716 102.754
5.73586 93.2142
5.91455 95.4005
6.09328 4461.68
6.27201 81.8997
6.45075 69.0974
6.62952 62.9548
6.8083 59.0386
6.98711 55.5918
7.16591 56.8371
7.34475 69.5949
7.5236 54.5781
7.70247 56.6831
7.88135 57.9789
8.06026 62.412
8.23919 69.5569
8.41812 84.7574
8.59709 1224.01
8.77609 99.5661
8.9551 89.7094
9.13412 82.9738
9.31318 84.2792
9.49226 85.1306
9.67134 95.6029
9.85047 101.623
10.0296 364.584
10.2088 393.616
10.388 105.192
10.5672 499.757
10.7465 86.2275
10.9257 78.3318
11.105 71.4769
11.2844 68.9418
11.4637 65.0444
11.6431 63.344
11.8225 62.9503
12.002 64.461
12.1814 153.916
12.3609 68.0918
12.5405 64.9146
12.72 68.0958
12.8996 71.5161
13.0792 79.7893
13.2589 249.32
13.4386 125.158
13.6183 254.578
13.7981 97.7261
13.9779 75.9715
14.1577 72.3172
14.3376 70.5446
14.5175 68.8779
14.6974 70.6023
14.8774 114.678
15.0574 145.957
15.2374 70.0083
15.4175 66.6404
15.5976 65.7778
15.7778 97.7702
15.958 152.2
16.1382 61.7006
16.3185 57.9984
16.4988 55.3364
16.6792 54.4457
16.8596 55.0264
17.04 56.0748
17.2205 67.5608
17.401 70.6257
17.5815 59.2878
17.7622 61.4012
17.9428 74.4394
18.1237 137.713
18.3044 91.5765
18.4852 76.5689
18.666 60.2921
18.8469 58.1018
19.0278 56.894
19.2088 59.3787
19.3898 74.9402
19.5709 54.2607
19.752 53.3253
19.9332 56.4429
20.1144 69.051
20.2957 63.8839
20.477 53.357
20.6586 49.5549
20.84 48.8962
21.0215 48.6142
21.203 50.7862
21.3846 48.89
21.5662 48.8962
21.7479 53.0232
21.9297 64.1072
22.1115 55.7926
22.2933 50.0134
22.4753 48.7449
22.6572 48.8274
22.8393 52.2108
23.0214 57.0275
23.2037 48.6928
23.3859 49.7882
23.5682 56.7601
23.7505 48.2213
23.9329 45.2137
24.1154 44.0218
24.2979 43.4578
24.4805 42.9285
24.6631 42.5975
24.8458 42.1737
25.0286 43.1045
25.2114 44.5718
25.3943 44.3885
25.5773 40.8417
25.7605 40.4369
25.9436 40.8268
26.1268 41.5699
26.31 40.1599
26.4933 40.5989
26.6767 42.0881
26.8601 40.4174
27.0437 38.9306
27.2272 38.5468
27.4109 38.403
27.5946 38.3267
27.7784 37.7094
27.9623 38.3406
28.1462 38.8171
28.3304 37.0714
28.5145 35.863
28.6987 35.7168
28.8829 35.4193
29.0673 34.6503
29.2517 34.4
29.4361 34.0433
29.6207 33.1795
29.8053 32.907
29.99 32.6688
30.1748 32.3949
30.3597 32.1474
30.5447 32.2734
30.7297 32.139
30.915 31.5523
31.1002 30.9752
31.2855 30.8214
31.4708 30.8406
31.6563 30.3709
31.8418 30.0768
32.0275 29.8571
32.2132 29.3856
32.399 28.8634
32.5848 28.4937
32.7708 28.1421
32.9569 28.0169
33.143 27.747
33.3293 27.4004
33.5158 27.0401
33.7022 26.5965
33.8887 26.2627
34.0753 25.9744
34.262 25.6453
34.4488 25.3043
34.6357 24.8849
34.8227 24.6186
35.0098 24.4655
35.1969 24.1509
35.3842 23.8845
35.5716 23.7562
35.759 23.3909
35.9468 23.0863
36.1345 22.9016
36.3222 22.5452
36.5101 22.3884
36.6981 22.0922
36.8861 21.8588
37.0743 21.4816
37.2626 21.2772
37.451 21.0222
37.6395 20.7561
37.8281 20.4392
38.0168 20.1633
38.2056 20.0259
38.3945 19.6758
38.5837 19.4003
38.7728 19.1682
38.9621 18.9633
39.1514 18.6827
39.3409 18.4474
39.5304 18.1748
39.7201 18.0397
39.9099 17.7361
40.0999 17.6286
40.2899 17.3395
40.48 17.1248
40.6703 16.8775
40.8607 16.7146
41.0512 16.4635
41.242 16.2404
41.4327 16.0293
41.6236 15.827
41.8146 15.6603
42.0057 15.4002
42.1969 15.1874
42.3882 14.9726
42.5797 14.8012
42.7713 14.5823
42.963 14.442
43.1549 14.1961
43.3468 13.9749
43.5389 13.8098
43.7312 13.6339
43.9237 13.396
44.1162 13.2481
44.3088 13.1015
44.5016 12.8453
44.6945 12.7066
44.8875 12.5367
45.0806 12.3705
45.2739 12.1353
45.4673 12.0262
45.6609 11.8127
45.8546 11.7142
46.0484 11.519
46.2424 11.3103
46.4365 11.1514
46.631 10.9442
46.8254 10.8515
47.0199 10.6828
47.2146 10.5431
47.4095 10.3838
47.6044 10.2162
47.7996 10.0453
47.9948 9.90215
48.1902 9.77516
48.3858 9.61126
48.5815 9.49822
48.7774 9.37393
48.9734 9.20419
49.1696 9.11322
49.3661 8.95365
49.5626 8.75723
49.7592 8.65588
49.956 8.53219
50.153 8.40233
50.3501 8.24175
50.5474 8.1469
50.7448 8.01929
50.9424 7.90951
51.1402 7.79473
51.3381 7.65126
51.5362 7.5228
51.7344 7.4121
51.9328 7.32992
52.1316 7.16096
52.3304 7.02247
52.5293 6.95426
52.7284 6.84404
52.9276 6.70212
53.1271 6.60121
53.3267 6.48288
53.5265 6.36603
53.7264 6.30903
53.9266 6.17663
54.1269 6.06256
54.3274 5.95567
54.528 5.77641
54.7289 5.67299
54.9301 5.48645
55.1314 5.34268
55.3328 5.16077
55.5344 4.96327
55.7361 4.80015