File: XRD/Ni3Fe_FD0846.xy
TT I
1.27165 7.26982
1.45013 5.96915
1.62863 5.55547
1.80712 5.17979
1.98562 4.52663
2.16411 4.96489
2.34263 5.52272
2.52115 7.65414
2.69965 8.51944
2.87818 9.13756
3.05672 11.1071
3.23527 14.9586
3.4138 18.9785
3.59237 23.6944
3.77094 26.0584
3.9495 29.4631
4.12809 34.647
4.30669 190.881
4.4853 61.9235
4.6639 54.8818
4.84253 66.5055
5.02118 85.5666
5.19981 304.991
5.37848 177.509
5.55716 100.649
5.73586 90.8554
5.91455 92.1327
6.09328 4399.99
6.27201 81.3405
6.45075 66.8267
6.62952 62.0132
6.8083 57.693
6.98711 55.0366
7.16591 54.6499
7.34475 85.4669
7.5236 54.1453
7.70247 55.5819
7.88135 57.14
8.06026 61.2871
8.23919 69.0435
8.41812 83.8235
8.59709 1172.52
8.77609 97.4121
8.9551 89.856
9.13412 81.005
9.31318 81.3466
9.49226 83.7466
9.67134 96.061
9.85047 98.506
10.0296 317.98
10.2088 398.828
10.388 103.156
10.5672 529.729
10.7465 85.4281
10.9257 77.1082
11.105 70.836
11.2844 69.1758
11.4637 63.913
11.6431 62.953
11.8225 61.3919
12.002 62.7094
12.1814 154.08
12.3609 69.1907
12.5405 63.7296
12.72 68.5421
12.8996 70.0211
13.0792 77.6377
13.2589 240.429
13.4386 121.871
13.6183 250.752
13.7981 96.131
13.9779 74.6743
14.1577 71.4503
14.3376 70.4281
14.5175 67.834
14.6974 69.4242
14.8774 107.991
15.0574 147.692
15.2374 69.8818
15.4175 65.4523
15.5976 65.0203
15.7778 92.9318
15.958 151.724
16.1382 61.6705
16.3185 57.8821
16.4988 54.8293
16.6792 53.8282
16.8596 54.3759
17.04 54.8257
17.2205 65.8625
17.401 69.693
17.5815 58.3574
17.7622 60.3623
17.9428 71.9215
18.1237 137.951
18.3044 90.8589
18.4852 76.0133
18.666 59.4581
18.8469 57.384
19.0278 56.1532
19.2088 58.6199
19.3898 75.7935
19.5709 53.5121
19.752 52.5005
19.9332 55.3364
20.1144 68.9477
20.2957 64.0917
20.477 53.0329
20.6586 49.0471
20.84 48.3665
21.0215 48.0027
21.203 50.2863
21.3846 48.3544
21.5662 48.2651
21.7479 51.7459
21.9297 63.6608
22.1115 55.3619
22.2933 49.2375
22.4753 48.2164
22.6572 48.3271
22.8393 51.3699
23.0214 56.4644
23.2037 48.1242
23.3859 49.1098
23.5682 56.7329
23.7505 47.7711
23.9329 44.7458
24.1154 43.7756
24.2979 42.7759
24.4805 42.3785
24.6631 42.4247
24.8458 41.6672
25.0286 42.3683
25.2114 44.1699
25.3943 44.1156
25.5773 40.3697
25.7605 39.8878
25.9436 40.2878
26.1268 41.0198
26.31 39.6156
26.4933 40.3567
26.6767 41.5895
26.8601 40.0112
27.0437 38.426
27.2272 38.142
27.4109 37.8889
27.5946 37.8908
27.7784 37.4163
27.9623 37.932
28.1462 38.3512
28.3304 36.7975
28.5145 35.6018
28.6987 35.3196
28.8829 35.1072
29.0673 34.2392
29.2517 33.9622
29.4361 33.7747
29.6207 32.7584
29.8053 32.4999
29.99 32.3083
30.1748 32.073
30.3597 31.8515
30.5447 31.7642
30.7297 31.8439
30.915 31.2263
31.1002 30.6561
31.2855 30.4609
31.4708 30.4199
31.6563 30.037
31.8418 29.7684
32.0275 29.6309
32.2132 29.0958
32.399 28.6413
32.5848 28.2484
32.7708 27.8341
32.9569 27.6955
33.143 27.4211
33.3293 27.1099
33.5158 26.7566
33.7022 26.3239
33.8887 26.0153
34.0753 25.6957
34.262 25.3668
34.4488 25.0277
34.6357 24.7157
34.8227 24.4041
35.0098 24.1977
35.1969 23.9132
35.3842 23.7425
35.5716 23.5068
35.759 23.2164
35.9468 22.936
36.1345 22.5728
36.3222 22.4023
36.5101 22.0925
36.6981 21.8357
36.8861 21.6512
37.0743 21.2425
37.2626 20.9812
37.451 20.7351
37.6395 20.6181
37.8281 20.3174
38.0168 20.0443
38.2056 19.6525
38.3945 19.4127
38.5837 19.2247
38.7728 19.0466
38.9621 18.7606
39.1514 18.3966
39.3409 18.3203
39.5304 18.0647
39.7201 17.8762
39.9099 17.6016
40.0999 17.3889
40.2899 17.1189
40.48 16.8578
40.6703 16.7633
40.8607 16.5448
41.0512 16.2928
41.242 16.0327
41.4327 15.9073
41.6236 15.6743
41.8146 15.4806
42.0057 15.2551
42.1969 15.0353
42.3882 14.8937
42.5797 14.6307
42.7713 14.4839
42.963 14.2415
43.1549 14.0756
43.3468 13.828
43.5389 13.6475
43.7312 13.4477
43.9237 13.3132
44.1162 13.1157
44.3088 12.9371
44.5016 12.7165
44.6945 12.5898
44.8875 12.3653
45.0806 12.2294
45.2739 12.078
45.4673 11.8954
45.6609 11.7438
45.8546 11.559
46.0484 11.4053
46.2424 11.1911
46.4365 11.0834
46.631 10.892
46.8254 10.7494
47.0199 10.5971
47.2146 10.4263
47.4095 10.2807
47.6044 10.1456
47.7996 9.99763
47.9948 9.83279
48.1902 9.70117
48.3858 9.55916
48.5815 9.44247
48.7774 9.28928
48.9734 9.13099
49.1696 9.00624
49.3661 8.85089
49.5626 8.75283
49.7592 8.59006
49.956 8.45624
50.153 8.36011
50.3501 8.19606
50.5474 8.07446
50.7448 7.95966
50.9424 7.85282
51.1402 7.75139
51.3381 7.57273
51.5362 7.47412
51.7344 7.37657
51.9328 7.25386
52.1316 7.09094
52.3304 7.01907
52.5293 6.86382
52.7284 6.74888
52.9276 6.63766
53.1271 6.567
53.3267 6.38353
53.5265 6.34692
53.7264 6.22219
53.9266 6.09007
54.1269 5.98546
54.3274 5.89223
54.528 5.73903
54.7289 5.60823
54.9301 5.42683
55.1314 5.31091
55.3328 5.10064
55.5344 4.91761
55.7361 4.74969