File: XRD/Ni3Fe_FD0690.xy
TT I
1.27165 7.54492
1.45013 5.93994
1.62863 5.30228
1.80712 4.30239
1.98562 4.80914
2.16411 4.68366
2.34263 5.32928
2.52115 7.46186
2.69965 7.88933
2.87818 9.14911
3.05672 11.0873
3.23527 14.8005
3.4138 18.8983
3.59237 22.834
3.77094 26.0366
3.9495 29.1922
4.12809 34.4325
4.30669 126.09
4.4853 56.4528
4.6639 55.6426
4.84253 67.9225
5.02118 87.8125
5.19981 423.847
5.37848 191.684
5.55716 102.191
5.73586 92.7199
5.91455 95.901
6.09328 4564.03
6.27201 81.1666
6.45075 68.4642
6.62952 62.9326
6.8083 58.9236
6.98711 55.361
7.16591 55.78
7.34475 72.3377
7.5236 54.1011
7.70247 56.1067
7.88135 57.564
8.06026 62.4687
8.23919 69.6477
8.41812 84.4937
8.59709 1228.76
8.77609 98.2941
8.9551 89.5804
9.13412 82.532
9.31318 83.9327
9.49226 84.9193
9.67134 95.6404
9.85047 101.095
10.0296 367.374
10.2088 358.835
10.388 105.453
10.5672 514.465
10.7465 86.3832
10.9257 78.0632
11.105 71.537
11.2844 68.5994
11.4637 64.8146
11.6431 63.2849
11.8225 62.5529
12.002 64.5342
12.1814 155.491
12.3609 67.6216
12.5405 64.7335
12.72 68.4412
12.8996 71.2592
13.0792 80.201
13.2589 250.679
13.4386 120.232
13.6183 256.214
13.7981 93.6951
13.9779 76.06
14.1577 72.1062
14.3376 70.4317
14.5175 68.8622
14.6974 70.4423
14.8774 113.864
15.0574 140.368
15.2374 69.9349
15.4175 66.612
15.5976 66.1745
15.7778 97.1376
15.958 150.484
16.1382 61.6629
16.3185 57.9602
16.4988 55.3076
16.6792 54.4335
16.8596 55.0737
17.04 55.948
17.2205 67.2769
17.401 69.9021
17.5815 59.2827
17.7622 61.2996
17.9428 74.4968
18.1237 142.643
18.3044 91.7498
18.4852 75.2544
18.666 60.2281
18.8469 58.0514
19.0278 56.7843
19.2088 59.6571
19.3898 76.3219
19.5709 54.0555
19.752 53.2345
19.9332 56.2658
20.1144 69.8248
20.2957 64.2463
20.477 53.1123
20.6586 49.701
20.84 48.8221
21.0215 48.6781
21.203 50.9111
21.3846 48.945
21.5662 48.9557
21.7479 52.9858
21.9297 64.8066
22.1115 56.0643
22.2933 49.5945
22.4753 48.7409
22.6572 48.9398
22.8393 52.3093
23.0214 57.0191
23.2037 48.7508
23.3859 49.9527
23.5682 57.1487
23.7505 47.8494
23.9329 45.0794
24.1154 44.1038
24.2979 43.3195
24.4805 42.8117
24.6631 42.6189
24.8458 42.1491
25.0286 42.9067
25.2114 44.7212
25.3943 44.4513
25.5773 40.7803
25.7605 40.5127
25.9436 40.7459
26.1268 41.54
26.31 39.8899
26.4933 40.673
26.6767 42.2707
26.8601 40.302
27.0437 38.7986
27.2272 38.4981
27.4109 38.4098
27.5946 38.3142
27.7784 37.9275
27.9623 38.4845
28.1462 38.7761
28.3304 36.9748
28.5145 35.8959
28.6987 35.4796
28.8829 35.3966
29.0673 34.5671
29.2517 34.3467
29.4361 34.0412
29.6207 33.0518
29.8053 32.7515
29.99 32.5766
30.1748 32.4114
30.3597 32.3276
30.5447 32.1974
30.7297 32.2616
30.915 31.5467
31.1002 31.0917
31.2855 30.8797
31.4708 30.8229
31.6563 30.2964
31.8418 30.1919
32.0275 29.8235
32.2132 29.3843
32.399 28.8971
32.5848 28.3658
32.7708 28.1245
32.9569 27.9667
33.143 27.7765
33.3293 27.3847
33.5158 27.0273
33.7022 26.5548
33.8887 26.2122
34.0753 26.0233
34.262 25.5525
34.4488 25.2969
34.6357 24.8658
34.8227 24.6733
35.0098 24.4015
35.1969 24.1368
35.3842 24.0463
35.5716 23.8391
35.759 23.3523
35.9468 23.1033
36.1345 22.8232
36.3222 22.6797
36.5101 22.3702
36.6981 22.1061
36.8861 21.7795
37.0743 21.4335
37.2626 21.1779
37.451 20.9938
37.6395 20.7699
37.8281 20.4057
38.0168 20.1562
38.2056 19.9071
38.3945 19.6469
38.5837 19.3879
38.7728 19.1449
38.9621 18.9339
39.1514 18.6916
39.3409 18.4467
39.5304 18.2392
39.7201 18.0721
39.9099 17.8042
40.0999 17.554
40.2899 17.4094
40.48 17.0885
40.6703 16.9045
40.8607 16.7356
41.0512 16.4647
41.242 16.2465
41.4327 16.0291
41.6236 15.8777
41.8146 15.6542
42.0057 15.4585
42.1969 15.1328
42.3882 14.9904
42.5797 14.8433
42.7713 14.5902
42.963 14.41
43.1549 14.1967
43.3468 13.9586
43.5389 13.7991
43.7312 13.5951
43.9237 13.4617
44.1162 13.2504
44.3088 13.0561
44.5016 12.8788
44.6945 12.6754
44.8875 12.5009
45.0806 12.3371
45.2739 12.1482
45.4673 12.0446
45.6609 11.7992
45.8546 11.6646
46.0484 11.4937
46.2424 11.3391
46.4365 11.1924
46.631 11.0115
46.8254 10.8597
47.0199 10.6906
47.2146 10.5397
47.4095 10.3498
47.6044 10.2336
47.7996 10.0664
47.9948 9.90566
48.1902 9.78772
48.3858 9.61279
48.5815 9.51809
48.7774 9.39144
48.9734 9.22168
49.1696 9.0713
49.3661 8.94135
49.5626 8.78147
49.7592 8.68025
49.956 8.52815
50.153 8.40351
50.3501 8.29432
50.5474 8.16572
50.7448 8.04991
50.9424 7.91125
51.1402 7.80262
51.3381 7.65373
51.5362 7.55016
51.7344 7.42695
51.9328 7.28786
52.1316 7.12871
52.3304 7.06698
52.5293 6.94167
52.7284 6.82929
52.9276 6.73215
53.1271 6.58082
53.3267 6.47533
53.5265 6.38242
53.7264 6.27487
53.9266 6.15972
54.1269 6.03087
54.3274 5.94964
54.528 5.81115
54.7289 5.63837
54.9301 5.48373
55.1314 5.33919
55.3328 5.14394
55.5344 4.9454
55.7361 4.83005