File: XRD/Ni3Fe_FD0560.xy
TT I
1.27165 7.57838
1.45013 6.11298
1.62863 4.93053
1.80712 5.04838
1.98562 4.68921
2.16411 5.10486
2.34263 5.00448
2.52115 6.71178
2.69965 8.24291
2.87818 8.29733
3.05672 10.7553
3.23527 14.8739
3.4138 18.8421
3.59237 23.1374
3.77094 25.7252
3.9495 29.9874
4.12809 34.9231
4.30669 153.759
4.4853 59.4923
4.6639 56.3234
4.84253 67.9919
5.02118 88.5812
5.19981 431.206
5.37848 197.784
5.55716 103.404
5.73586 93.7937
5.91455 97.0856
6.09328 4407.58
6.27201 82.9985
6.45075 67.5077
6.62952 62.9122
6.8083 58.134
6.98711 55.7236
7.16591 55.7004
7.34475 79.3714
7.5236 54.7719
7.70247 56.4085
7.88135 58.1609
8.06026 62.8812
8.23919 70.1147
8.41812 86.2858
8.59709 1230.48
8.77609 100.095
8.9551 90.7238
9.13412 82.6533
9.31318 83.0208
9.49226 85.387
9.67134 97.0015
9.85047 101.193
10.0296 378.086
10.2088 378.033
10.388 106.091
10.5672 520.575
10.7465 87.088
10.9257 78.6471
11.105 72.3497
11.2844 69.7101
11.4637 65.5889
11.6431 63.9437
11.8225 62.6799
12.002 64.5421
12.1814 155.814
12.3609 68.8742
12.5405 64.8559
12.72 69.1901
12.8996 71.5292
13.0792 80.4875
13.2589 249.078
13.4386 122.093
13.6183 256.289
13.7981 96.7936
13.9779 76.3256
14.1577 72.8154
14.3376 71.6357
14.5175 69.4396
14.6974 71.2567
14.8774 115.328
15.0574 142.858
15.2374 70.8733
15.4175 67.0282
15.5976 66.4963
15.7778 98.8383
15.958 151.893
16.1382 62.5365
16.3185 58.8682
16.4988 55.9305
16.6792 54.9761
16.8596 55.4693
17.04 56.5245
17.2205 67.8175
17.401 71.2065
17.5815 59.7385
17.7622 61.8152
17.9428 75.6482
18.1237 141.489
18.3044 91.87
18.4852 76.873
18.666 60.8924
18.8469 58.3927
19.0278 57.3447
19.2088 60.324
19.3898 76.3296
19.5709 54.516
19.752 53.8566
19.9332 56.979
20.1144 70.437
20.2957 64.3715
20.477 53.5508
20.6586 50.0902
20.84 49.2041
21.0215 49.1816
21.203 51.1009
21.3846 49.3899
21.5662 49.22
21.7479 53.263
21.9297 65.0586
22.1115 56.3687
22.2933 49.9819
22.4753 49.1216
22.6572 49.5012
22.8393 52.5762
23.0214 57.3604
23.2037 49.101
23.3859 50.3186
23.5682 57.1706
23.7505 48.5013
23.9329 45.4656
24.1154 44.4397
24.2979 43.7008
24.4805 43.214
24.6631 43.0441
24.8458 42.5402
25.0286 43.2216
25.2114 45.0411
25.3943 44.9039
25.5773 41.1405
25.7605 40.8561
25.9436 41.2068
26.1268 41.9421
26.31 40.3871
26.4933 41.0692
26.6767 42.3971
26.8601 40.5681
27.0437 39.1652
27.2272 38.7885
27.4109 38.6529
27.5946 38.655
27.7784 38.0862
27.9623 38.7125
28.1462 38.9951
28.3304 37.3588
28.5145 36.2076
28.6987 35.8679
28.8829 35.7305
29.0673 34.8773
29.2517 34.5573
29.4361 34.3597
29.6207 33.2987
29.8053 33.0757
29.99 32.9011
30.1748 32.7748
30.3597 32.456
30.5447 32.4449
30.7297 32.5046
30.915 31.7766
31.1002 31.3685
31.2855 31.1411
31.4708 31.1644
31.6563 30.4927
31.8418 30.3469
32.0275 30.0995
32.2132 29.5629
32.399 29.0881
32.5848 28.6916
32.7708 28.3316
32.9569 28.2066
33.143 27.959
33.3293 27.5549
33.5158 27.2769
33.7022 26.8234
33.8887 26.4936
34.0753 26.1423
34.262 25.7996
34.4488 25.4538
34.6357 25.1078
34.8227 24.8732
35.0098 24.6152
35.1969 24.3514
35.3842 24.0891
35.5716 23.9433
35.759 23.628
35.9468 23.2282
36.1345 23.0505
36.3222 22.8259
36.5101 22.608
36.6981 22.2112
36.8861 21.9373
37.0743 21.6467
37.2626 21.3213
37.451 21.1289
37.6395 20.9487
37.8281 20.5497
38.0168 20.3727
38.2056 20.1398
38.3945 19.787
38.5837 19.5618
38.7728 19.3045
38.9621 19.069
39.1514 18.8293
39.3409 18.5648
39.5304 18.3539
39.7201 18.1813
39.9099 17.9273
40.0999 17.6735
40.2899 17.4641
40.48 17.233
40.6703 16.9649
40.8607 16.8589
41.0512 16.6188
41.242 16.3504
41.4327 16.174
41.6236 15.9643
41.8146 15.7372
42.0057 15.526
42.1969 15.306
42.3882 15.1493
42.5797 14.9169
42.7713 14.7324
42.963 14.5138
43.1549 14.3421
43.3468 14.1084
43.5389 13.9169
43.7312 13.7009
43.9237 13.4816
44.1162 13.371
44.3088 13.1368
44.5016 12.9712
44.6945 12.7947
44.8875 12.6379
45.0806 12.452
45.2739 12.2612
45.4673 12.0969
45.6609 11.9104
45.8546 11.7549
46.0484 11.6127
46.2424 11.4274
46.4365 11.3055
46.631 11.1094
46.8254 10.9518
47.0199 10.8007
47.2146 10.6087
47.4095 10.4492
47.6044 10.3142
47.7996 10.1388
47.9948 10.038
48.1902 9.8524
48.3858 9.68881
48.5815 9.55698
48.7774 9.46875
48.9734 9.29964
49.1696 9.18879
49.3661 9.00995
49.5626 8.87413
49.7592 8.74818
49.956 8.64387
50.153 8.49208
50.3501 8.34379
50.5474 8.23062
50.7448 8.0969
50.9424 8.02136
51.1402 7.88482
51.3381 7.68729
51.5362 7.6265
51.7344 7.47022
51.9328 7.34673
52.1316 7.22333
52.3304 7.08274
52.5293 6.99883
52.7284 6.85726
52.9276 6.7555
53.1271 6.63826
53.3267 6.52115
53.5265 6.4292
53.7264 6.34678
53.9266 6.21418
54.1269 6.07484
54.3274 5.94358
54.528 5.85609
54.7289 5.70369
54.9301 5.51619
55.1314 5.38644
55.3328 5.14649
55.5344 5.01898
55.7361 4.79494