File: XRD/Ni3Fe_FD0620.xy
TT I
1.27165 7.33515
1.45013 6.34043
1.62863 5.27701
1.80712 4.56716
1.98562 4.59365
2.16411 4.58237
2.34263 5.31286
2.52115 7.47196
2.69965 7.91711
2.87818 8.26875
3.05672 10.7042
3.23527 15.6057
3.4138 19.1751
3.59237 23.9949
3.77094 26.3732
3.9495 30.028
4.12809 35.3031
4.30669 212.354
4.4853 65.3406
4.6639 55.8677
4.84253 66.8749
5.02118 87.4923
5.19981 351.341
5.37848 194.879
5.55716 102.705
5.73586 92.291
5.91455 94.1068
6.09328 4415.07
6.27201 83.6038
6.45075 67.7334
6.62952 62.9882
6.8083 59.1148
6.98711 56.0032
7.16591 55.7224
7.34475 91.5346
7.5236 55.1032
7.70247 56.5439
7.88135 58.1421
8.06026 62.4906
8.23919 70.0909
8.41812 85.4387
8.59709 1181.1
8.77609 100.52
8.9551 91.5331
9.13412 82.0764
9.31318 82.3554
9.49226 85.0588
9.67134 98.7117
9.85047 100.111
10.0296 340.187
10.2088 425.171
10.388 104.926
10.5672 501.363
10.7465 87.0973
10.9257 78.6547
11.105 71.8892
11.2844 70.8635
11.4637 65.1881
11.6431 63.8903
11.8225 62.3934
12.002 63.6789
12.1814 153.171
12.3609 70.7499
12.5405 64.915
12.72 70.3882
12.8996 71.4839
13.0792 78.8861
13.2589 237.564
13.4386 129.302
13.6183 248.075
13.7981 100.49
13.9779 76.1638
14.1577 72.9592
14.3376 72.0336
14.5175 69.3684
14.6974 70.7693
14.8774 110.832
15.0574 151.935
15.2374 71.3754
15.4175 66.7668
15.5976 65.9563
15.7778 94.975
15.958 156.708
16.1382 63.0123
16.3185 58.8435
16.4988 55.8599
16.6792 54.7264
16.8596 55.5974
17.04 56.0796
17.2205 66.933
17.401 73.2098
17.5815 59.4876
17.7622 61.5961
17.9428 74.0536
18.1237 138.851
18.3044 90.8694
18.4852 79.0903
18.666 60.7543
18.8469 58.2613
19.0278 57.3417
19.2088 59.9644
19.3898 76.446
19.5709 54.423
19.752 53.6339
19.9332 56.4322
20.1144 69.6477
20.2957 64.121
20.477 54.2257
20.6586 49.9063
20.84 48.8655
21.0215 48.7388
21.203 51.1009
21.3846 49.1618
21.5662 48.952
21.7479 52.7996
21.9297 64.4945
22.1115 56.3961
22.2933 50.1936
22.4753 49.1405
22.6572 49.1311
22.8393 52.0673
23.0214 57.7826
23.2037 49.1309
23.3859 49.884
23.5682 57.0475
23.7505 48.7378
23.9329 45.4867
24.1154 44.3733
24.2979 43.7331
24.4805 43.1517
24.6631 43.2144
24.8458 42.3986
25.0286 42.9573
25.2114 44.8811
25.3943 44.7775
25.5773 41.2592
25.7605 40.7132
25.9436 41.0527
26.1268 41.8568
26.31 40.2657
26.4933 40.9741
26.6767 42.3084
26.8601 40.6215
27.0437 39.1322
27.2272 38.8785
27.4109 38.7302
27.5946 38.615
27.7784 38.2007
27.9623 38.5857
28.1462 39.0373
28.3304 37.3734
28.5145 36.1985
28.6987 35.7683
28.8829 35.555
29.0673 34.7702
29.2517 34.4622
29.4361 34.3172
29.6207 33.4042
29.8053 33.1446
29.99 32.6633
30.1748 32.5286
30.3597 32.2987
30.5447 32.3112
30.7297 32.3564
30.915 31.7854
31.1002 31.3202
31.2855 31.0753
31.4708 31.009
31.6563 30.5701
31.8418 30.3161
32.0275 30.024
32.2132 29.5639
32.399 29.0448
32.5848 28.6818
32.7708 28.242
32.9569 28.2058
33.143 27.9354
33.3293 27.6132
33.5158 27.1574
33.7022 26.8034
33.8887 26.4386
34.0753 26.1352
34.262 25.8297
34.4488 25.4091
34.6357 25.0955
34.8227 24.8812
35.0098 24.6314
35.1969 24.2538
35.3842 24.1355
35.5716 23.9426
35.759 23.6315
35.9468 23.2486
36.1345 22.9354
36.3222 22.7822
36.5101 22.5514
36.6981 22.1862
36.8861 21.8965
37.0743 21.6934
37.2626 21.3495
37.451 21.1017
37.6395 20.9956
37.8281 20.6681
38.0168 20.258
38.2056 20.0858
38.3945 19.8104
38.5837 19.4819
38.7728 19.2979
38.9621 19.0962
39.1514 18.8132
39.3409 18.5897
39.5304 18.316
39.7201 18.2161
39.9099 17.9269
40.0999 17.6924
40.2899 17.4942
40.48 17.1979
40.6703 17.044
40.8607 16.8573
41.0512 16.608
41.242 16.3236
41.4327 16.1671
41.6236 15.9095
41.8146 15.7272
42.0057 15.5218
42.1969 15.307
42.3882 15.0984
42.5797 14.9012
42.7713 14.713
42.963 14.5294
43.1549 14.2643
43.3468 14.1425
43.5389 13.922
43.7312 13.7073
43.9237 13.5424
44.1162 13.3547
44.3088 13.1436
44.5016 12.9784
44.6945 12.801
44.8875 12.5895
45.0806 12.4284
45.2739 12.2752
45.4673 12.1398
45.6609 11.9479
45.8546 11.7805
46.0484 11.6099
46.2424 11.4539
46.4365 11.3222
46.631 11.0995
46.8254 10.9226
47.0199 10.8015
47.2146 10.6604
47.4095 10.4779
47.6044 10.3081
47.7996 10.1357
47.9948 9.99775
48.1902 9.84983
48.3858 9.72449
48.5815 9.57198
48.7774 9.42815
48.9734 9.30761
49.1696 9.16203
49.3661 8.98277
49.5626 8.88809
49.7592 8.74691
49.956 8.62009
50.153 8.49735
50.3501 8.36651
50.5474 8.20792
50.7448 8.10033
50.9424 7.98432
51.1402 7.84432
51.3381 7.75152
51.5362 7.58445
51.7344 7.4639
51.9328 7.29663
52.1316 7.23391
52.3304 7.11856
52.5293 6.99598
52.7284 6.89231
52.9276 6.77114
53.1271 6.64439
53.3267 6.55785
53.5265 6.39159
53.7264 6.31828
53.9266 6.22579
54.1269 6.06425
54.3274 5.94575
54.528 5.81798
54.7289 5.69704
54.9301 5.52112
55.1314 5.40329
55.3328 5.18197
55.5344 4.98967
55.7361 4.87552