File: XRD/Ni3Fe_FD1025.xy
TT I
1.27165 6.95388
1.45013 5.61452
1.62863 4.90023
1.80712 4.58391
1.98562 4.24504
2.16411 4.90315
2.34263 5.75755
2.52115 7.22306
2.69965 8.72169
2.87818 9.23995
3.05672 11.3348
3.23527 15.2716
3.4138 18.0841
3.59237 21.6168
3.77094 24.5785
3.9495 28.2296
4.12809 32.0997
4.30669 57.8733
4.4853 46.1653
4.6639 52.6293
4.84253 63.6966
5.02118 82.8535
5.19981 228.239
5.37848 229.462
5.55716 96.9563
5.73586 87.148
5.91455 88.2951
6.09328 4391.85
6.27201 75.7454
6.45075 62.8894
6.62952 57.8041
6.8083 54.3729
6.98711 52.2824
7.16591 51.7614
7.34475 56.3564
7.5236 61.0379
7.70247 52.6306
7.88135 54.439
8.06026 58.812
8.23919 65.2281
8.41812 77.3413
8.59709 1065.14
8.77609 94.7897
8.9551 81.7429
9.13412 78.91
9.31318 92.2674
9.49226 80.5468
9.67134 85.5725
9.85047 93.0512
10.0296 330.371
10.2088 448.985
10.388 97.0467
10.5672 496.354
10.7465 87.162
10.9257 72.9585
11.105 67.7231
11.2844 64.5158
11.4637 61.3682
11.6431 60.0267
11.8225 59.5117
12.002 68.0297
12.1814 144.104
12.3609 64.1379
12.5405 60.9586
12.72 63.4346
12.8996 66.9298
13.0792 76.17
13.2589 221.523
13.4386 126.471
13.6183 232.211
13.7981 100.018
13.9779 72.9316
14.1577 76.9204
14.3376 66.5987
14.5175 66.1193
14.6974 66.9776
14.8774 106.606
15.0574 158.616
15.2374 65.918
15.4175 63.5982
15.5976 62.8651
15.7778 91.9545
15.958 167.536
16.1382 59.7627
16.3185 55.3094
16.4988 53.0719
16.6792 52.0537
16.8596 52.2181
17.04 53.4797
17.2205 63.9998
17.401 70.994
17.5815 56.9245
17.7622 59.6195
17.9428 71.835
18.1237 141.087
18.3044 87.7378
18.4852 78.5811
18.666 58.4723
18.8469 56.1388
19.0278 54.6126
19.2088 57.2915
19.3898 76.0654
19.5709 52.3795
19.752 51.3352
19.9332 54.5923
20.1144 69.8157
20.2957 62.7651
20.477 52.5861
20.6586 48.0431
20.84 47.5546
21.0215 46.8512
21.203 49.1524
21.3846 47.5439
21.5662 47.0529
21.7479 51.0907
21.9297 64.9997
22.1115 55.6498
22.2933 48.7361
22.4753 47.0409
22.6572 47.2885
22.8393 50.8165
23.0214 57.1207
23.2037 47.4214
23.3859 48.9074
23.5682 56.7283
23.7505 47.9661
23.9329 44.0554
24.1154 42.8621
24.2979 42.1197
24.4805 41.6479
24.6631 41.6455
24.8458 41.12
25.0286 41.6903
25.2114 44.0349
25.3943 44.0788
25.5773 39.9023
25.7605 39.2813
25.9436 39.8495
26.1268 41.0514
26.31 39.1456
26.4933 39.7438
26.6767 41.6657
26.8601 39.8592
27.0437 38.0205
27.2272 37.5997
27.4109 37.5134
27.5946 37.6946
27.7784 36.8576
27.9623 37.7263
28.1462 38.4021
28.3304 36.5077
28.5145 35.1396
28.6987 34.7602
28.8829 34.5856
29.0673 33.9071
29.2517 33.5087
29.4361 33.4135
29.6207 32.3653
29.8053 32.053
29.99 31.7509
30.1748 31.7132
30.3597 31.4468
30.5447 31.4063
30.7297 31.58
30.915 30.8649
31.1002 30.5043
31.2855 30.2265
31.4708 30.1969
31.6563 29.7766
31.8418 29.524
32.0275 29.3077
32.2132 28.6677
32.399 28.2882
32.5848 27.7703
32.7708 27.435
32.9569 27.3988
33.143 27.2611
33.3293 26.8573
33.5158 26.4503
33.7022 25.9912
33.8887 25.7573
34.0753 25.3389
34.262 25.0047
34.4488 24.7173
34.6357 24.4352
34.8227 24.1015
35.0098 24.0046
35.1969 23.6225
35.3842 23.4238
35.5716 23.2873
35.759 23.0143
35.9468 22.6632
36.1345 22.3916
36.3222 22.2275
36.5101 21.9245
36.6981 21.6159
36.8861 21.2997
37.0743 21.0043
37.2626 20.7659
37.451 20.5353
37.6395 20.3469
37.8281 19.9911
38.0168 19.7254
38.2056 19.5071
38.3945 19.276
38.5837 18.9991
38.7728 18.8302
38.9621 18.538
39.1514 18.2702
39.3409 18.0284
39.5304 17.802
39.7201 17.6219
39.9099 17.3998
40.0999 17.1771
40.2899 17.0079
40.48 16.7206
40.6703 16.5409
40.8607 16.3421
41.0512 16.149
41.242 15.8871
41.4327 15.7504
41.6236 15.4654
41.8146 15.3125
42.0057 15.0869
42.1969 14.8946
42.3882 14.7532
42.5797 14.5135
42.7713 14.307
42.963 14.0836
43.1549 13.9651
43.3468 13.7103
43.5389 13.5103
43.7312 13.3474
43.9237 13.2011
44.1162 12.9867
44.3088 12.7937
44.5016 12.638
44.6945 12.4346
44.8875 12.2596
45.0806 12.0939
45.2739 11.9334
45.4673 11.7501
45.6609 11.6241
45.8546 11.4346
46.0484 11.2962
46.2424 11.0956
46.4365 10.9956
46.631 10.7345
46.8254 10.6075
47.0199 10.4998
47.2146 10.3264
47.4095 10.1459
47.6044 10.0278
47.7996 9.89743
47.9948 9.71332
48.1902 9.57812
48.3858 9.44031
48.5815 9.30145
48.7774 9.15773
48.9734 9.02755
49.1696 8.9038
49.3661 8.76935
49.5626 8.59146
49.7592 8.48972
49.956 8.38331
50.153 8.28147
50.3501 8.11672
50.5474 7.99911
50.7448 7.85098
50.9424 7.75191
51.1402 7.63404
51.3381 7.53684
51.5362 7.42068
51.7344 7.27456
51.9328 7.14844
52.1316 7.03215
52.3304 6.9162
52.5293 6.80193
52.7284 6.66749
52.9276 6.56883
53.1271 6.53217
53.3267 6.37939
53.5265 6.23734
53.7264 6.12392
53.9266 6.03443
54.1269 5.91489
54.3274 5.84595
54.528 5.67608
54.7289 5.51776
54.9301 5.33173
55.1314 5.24654
55.3328 5.04681
55.5344 4.85798
55.7361 4.73503