File: XRD/Ni3Fe_FD0228.xy
TT I
1.27165 7.88606
1.45013 6.21378
1.62863 6.13585
1.80712 5.28153
1.98562 4.85327
2.16411 4.42523
2.34263 4.29103
2.52115 4.65132
2.69965 6.09908
2.87818 8.22552
3.05672 11.0167
3.23527 14.8902
3.4138 19.297
3.59237 22.5276
3.77094 26.4049
3.9495 29.8805
4.12809 35.0938
4.30669 40.7657
4.4853 48.3481
4.6639 58.0045
4.84253 71.7483
5.02118 96.3556
5.19981 885.518
5.37848 277.447
5.55716 112.354
5.73586 101.174
5.91455 110.69
6.09328 3634.22
6.27201 89.3427
6.45075 70.8365
6.62952 64.4542
6.8083 60.0625
6.98711 57.2032
7.16591 56.6345
7.34475 55.8047
7.5236 56.1141
7.70247 58.0635
7.88135 60.5531
8.06026 65.1711
8.23919 73.0704
8.41812 90.3822
8.59709 1065.16
8.77609 110.293
8.9551 90.3654
9.13412 87.1992
9.31318 88.0743
9.49226 89.7177
9.67134 95.2687
9.85047 106.695
10.0296 517.366
10.2088 551.22
10.388 115.225
10.5672 444.321
10.7465 92.4163
10.9257 80.6086
11.105 74.6581
11.2844 70.9656
11.4637 67.8023
11.6431 66.3691
11.8225 65.3354
12.002 68.536
12.1814 141.357
12.3609 70.1301
12.5405 67.3166
12.72 69.7795
12.8996 74.8899
13.0792 86.6256
13.2589 229.083
13.4386 151.154
13.6183 225.964
13.7981 112.355
13.9779 80.1015
14.1577 75.3712
14.3376 73.2815
14.5175 72.5582
14.6974 74.6355
14.8774 119.609
15.0574 170.87
15.2374 72.3026
15.4175 69.9502
15.5976 69.9313
15.7778 103.293
15.958 175.494
16.1382 63.8142
16.3185 60.1744
16.4988 58.0924
16.6792 57.1137
16.8596 57.4545
17.04 59.0958
17.2205 68.9539
17.401 77.2942
17.5815 62.2122
17.7622 64.591
17.9428 83.0415
18.1237 139.172
18.3044 90.2471
18.4852 83.9378
18.666 63.608
18.8469 61.1383
19.0278 59.59
19.2088 62.9789
19.3898 76.0811
19.5709 56.9982
19.752 56.1251
19.9332 59.5212
20.1144 72.5815
20.2957 64.3973
20.477 56.5988
20.6586 52.2219
20.84 51.2867
21.0215 51.1402
21.203 52.518
21.3846 51.5296
21.5662 51.7598
21.7479 55.5891
21.9297 66.7481
22.1115 57.6054
22.2933 52.5554
22.4753 50.9253
22.6572 51.8709
22.8393 54.2601
23.0214 59.9193
23.2037 51.4314
23.3859 52.5089
23.5682 57.7706
23.7505 51.2597
23.9329 47.3799
24.1154 46.2208
24.2979 45.5457
24.4805 45.0621
24.6631 44.8577
24.8458 44.3305
25.0286 44.9521
25.2114 46.4935
25.3943 46.7043
25.5773 43.0177
25.7605 42.4632
25.9436 42.6646
26.1268 43.6027
26.31 42.12
26.4933 42.6292
26.6767 43.9605
26.8601 42.3113
27.0437 40.7781
27.2272 40.4195
27.4109 40.2246
27.5946 40.22
27.7784 39.6555
27.9623 40.0906
28.1462 40.5992
28.3304 39.0217
28.5145 37.6499
28.6987 37.3072
28.8829 36.9189
29.0673 36.3753
29.2517 35.9636
29.4361 35.7327
29.6207 34.8385
29.8053 34.3924
29.99 34.0506
30.1748 33.9009
30.3597 33.8049
30.5447 33.6579
30.7297 33.6169
30.915 33.024
31.1002 32.5507
31.2855 32.3333
31.4708 32.2034
31.6563 31.8003
31.8418 31.4719
32.0275 31.2552
32.2132 30.6945
32.399 30.2719
32.5848 29.7408
32.7708 29.4926
32.9569 29.3013
33.143 29.054
33.3293 28.6714
33.5158 28.2057
33.7022 27.8002
33.8887 27.4778
34.0753 27.2408
34.262 26.8691
34.4488 26.5091
34.6357 26.0829
34.8227 25.8355
35.0098 25.6589
35.1969 25.2859
35.3842 24.9435
35.5716 24.928
35.759 24.5013
35.9468 24.09
36.1345 23.9724
36.3222 23.7471
36.5101 23.473
36.6981 23.1059
36.8861 22.7715
37.0743 22.4526
37.2626 22.1878
37.451 21.9013
37.6395 21.8027
37.8281 21.4263
38.0168 21.1204
38.2056 20.8118
38.3945 20.5783
38.5837 20.3609
38.7728 20.0837
38.9621 19.8294
39.1514 19.5693
39.3409 19.3318
39.5304 19.088
39.7201 18.8805
39.9099 18.6802
40.0999 18.4196
40.2899 18.0994
40.48 17.8976
40.6703 17.6952
40.8607 17.5263
41.0512 17.2844
41.242 16.9812
41.4327 16.8035
41.6236 16.5659
41.8146 16.3087
42.0057 16.115
42.1969 15.8855
42.3882 15.7666
42.5797 15.5235
42.7713 15.3188
42.963 15.0143
43.1549 14.8738
43.3468 14.653
43.5389 14.4654
43.7312 14.2674
43.9237 14.0979
44.1162 13.8373
44.3088 13.681
44.5016 13.4691
44.6945 13.3116
44.8875 13.0846
45.0806 12.9173
45.2739 12.734
45.4673 12.5805
45.6609 12.4246
45.8546 12.2245
46.0484 12.0159
46.2424 11.8662
46.4365 11.7045
46.631 11.5105
46.8254 11.3379
47.0199 11.1898
47.2146 11.0553
47.4095 10.8182
47.6044 10.6806
47.7996 10.5177
47.9948 10.3333
48.1902 10.1996
48.3858 10.0873
48.5815 9.97456
48.7774 9.78702
48.9734 9.65075
49.1696 9.49455
49.3661 9.33292
49.5626 9.1904
49.7592 9.0471
49.956 8.96518
50.153 8.8252
50.3501 8.64757
50.5474 8.51784
50.7448 8.3875
50.9424 8.25361
51.1402 8.14983
51.3381 7.97283
51.5362 7.88749
51.7344 7.72927
51.9328 7.58559
52.1316 7.48393
52.3304 7.36427
52.5293 7.21152
52.7284 7.10047
52.9276 6.9773
53.1271 6.91196
53.3267 6.78639
53.5265 6.64324
53.7264 6.50676
53.9266 6.43839
54.1269 6.31324
54.3274 6.16935
54.528 6.01511
54.7289 5.86695
54.9301 5.72394
55.1314 5.54028
55.3328 5.256
55.5344 5.09207
55.7361 4.97655