File: XRD/Ni3Fe_FD0971.xy
TT I
1.27165 7.17049
1.45013 5.56224
1.62863 5.28855
1.80712 4.53629
1.98562 4.39764
2.16411 5.21094
2.34263 5.3903
2.52115 7.07847
2.69965 9.17339
2.87818 8.88606
3.05672 11.0881
3.23527 15.0668
3.4138 19.0481
3.59237 23.6924
3.77094 26.2002
3.9495 29.8114
4.12809 34.1951
4.30669 207.529
4.4853 63.821
4.6639 54.6411
4.84253 65.825
5.02118 84.764
5.19981 277.82
5.37848 172.839
5.55716 99.7956
5.73586 90.1291
5.91455 90.5302
6.09328 4615.78
6.27201 80.4074
6.45075 65.7237
6.62952 61.7661
6.8083 57.3674
6.98711 54.9876
7.16591 54.5643
7.34475 88.9759
7.5236 54.2533
7.70247 55.3989
7.88135 56.9534
8.06026 61.4361
8.23919 68.0271
8.41812 82.7883
8.59709 1144.37
8.77609 96.3781
8.9551 89.5884
9.13412 80.3262
9.31318 80.993
9.49226 83.1188
9.67134 96.5486
9.85047 97.6804
10.0296 298.007
10.2088 360.455
10.388 101.489
10.5672 523.385
10.7465 84.4557
10.9257 76.785
11.105 70.5633
11.2844 69.1732
11.4637 63.4707
11.6431 62.3747
11.8225 61.3284
12.002 62.0821
12.1814 153.458
12.3609 69.1216
12.5405 63.2104
12.72 68.5719
12.8996 69.3478
13.0792 76.9172
13.2589 233.202
13.4386 118.978
13.6183 247.262
13.7981 94.5424
13.9779 74.0415
14.1577 70.8663
14.3376 70.0571
14.5175 67.3593
14.6974 68.958
14.8774 106.079
15.0574 146.25
15.2374 69.5049
15.4175 65.0875
15.5976 64.4287
15.7778 90.6403
15.958 151.425
16.1382 61.6391
16.3185 57.4859
16.4988 54.323
16.6792 53.4478
16.8596 54.2173
17.04 54.7431
17.2205 65.1555
17.401 68.833
17.5815 58.0613
17.7622 59.9043
17.9428 70.9502
18.1237 137.212
18.3044 89.5669
18.4852 75.085
18.666 59.0864
18.8469 56.8039
19.0278 55.7117
19.2088 58.0597
19.3898 74.9651
19.5709 53.0716
19.752 52.2613
19.9332 54.8105
20.1144 68.7217
20.2957 63.402
20.477 52.4578
20.6586 48.6933
20.84 47.9021
21.0215 47.5717
21.203 50.0965
21.3846 47.9026
21.5662 47.8876
21.7479 51.2776
21.9297 63.5798
22.1115 55.1439
22.2933 49.0147
22.4753 47.8827
22.6572 47.8858
22.8393 50.6465
23.0214 56.0243
23.2037 47.866
23.3859 48.6016
23.5682 56.5183
23.7505 47.4173
23.9329 44.4503
24.1154 43.24
24.2979 42.5753
24.4805 42.203
24.6631 42.0246
24.8458 41.4622
25.0286 41.9435
25.2114 43.8716
25.3943 43.6576
25.5773 40.2957
25.7605 39.7722
25.9436 40.1163
26.1268 40.8551
26.31 39.3271
26.4933 39.9176
26.6767 41.4175
26.8601 39.6681
27.0437 38.1229
27.2272 37.852
27.4109 37.5871
27.5946 37.5708
27.7784 37.0078
27.9623 37.8017
28.1462 38.0504
28.3304 36.5603
28.5145 35.1719
28.6987 34.8787
28.8829 34.7733
29.0673 34.0746
29.2517 33.7453
29.4361 33.5417
29.6207 32.511
29.8053 32.2438
29.99 31.8889
30.1748 31.8599
30.3597 31.6719
30.5447 31.6114
30.7297 31.6646
30.915 31.0533
31.1002 30.4877
31.2855 30.2484
31.4708 30.2313
31.6563 29.8159
31.8418 29.5163
32.0275 29.372
32.2132 28.8518
32.399 28.4438
32.5848 28.0292
32.7708 27.5646
32.9569 27.4552
33.143 27.2929
33.3293 26.833
33.5158 26.5565
33.7022 26.063
33.8887 25.8683
34.0753 25.5944
34.262 25.0786
34.4488 24.7998
34.6357 24.5723
34.8227 24.248
35.0098 24.0154
35.1969 23.7735
35.3842 23.5799
35.5716 23.3683
35.759 23.1011
35.9468 22.715
36.1345 22.5041
36.3222 22.287
36.5101 22.0177
36.6981 21.8121
36.8861 21.4548
37.0743 21.086
37.2626 20.8543
37.451 20.6867
37.6395 20.4462
37.8281 20.0695
38.0168 19.8582
38.2056 19.5746
38.3945 19.3557
38.5837 19.0678
38.7728 18.9102
38.9621 18.5431
39.1514 18.3942
39.3409 18.1453
39.5304 17.9442
39.7201 17.7644
39.9099 17.47
40.0999 17.2704
40.2899 17.0517
40.48 16.7854
40.6703 16.6346
40.8607 16.475
41.0512 16.2393
41.242 15.9677
41.4327 15.8131
41.6236 15.5619
41.8146 15.3778
42.0057 15.1366
42.1969 14.9805
42.3882 14.808
42.5797 14.5607
42.7713 14.3702
42.963 14.1774
43.1549 13.9633
43.3468 13.7765
43.5389 13.5749
43.7312 13.4008
43.9237 13.2443
44.1162 13.0347
44.3088 12.8693
44.5016 12.6689
44.6945 12.4894
44.8875 12.3499
45.0806 12.1762
45.2739 12.0241
45.4673 11.8531
45.6609 11.6667
45.8546 11.4989
46.0484 11.3256
46.2424 11.1718
46.4365 10.9742
46.631 10.8983
46.8254 10.6957
47.0199 10.5161
47.2146 10.3636
47.4095 10.1999
47.6044 10.0882
47.7996 9.93238
47.9948 9.74853
48.1902 9.65471
48.3858 9.50591
48.5815 9.39673
48.7774 9.2408
48.9734 9.08287
49.1696 8.96743
49.3661 8.82086
49.5626 8.65963
49.7592 8.5457
49.956 8.42585
50.153 8.31632
50.3501 8.14627
50.5474 8.0241
50.7448 7.93222
50.9424 7.80695
51.1402 7.70191
51.3381 7.53843
51.5362 7.45894
51.7344 7.29171
51.9328 7.15752
52.1316 7.06242
52.3304 6.92764
52.5293 6.88158
52.7284 6.74134
52.9276 6.59437
53.1271 6.5167
53.3267 6.39282
53.5265 6.33943
53.7264 6.17503
53.9266 6.06032
54.1269 5.9376
54.3274 5.81042
54.528 5.69091
54.7289 5.57004
54.9301 5.43324
55.1314 5.2767
55.3328 5.05898
55.5344 4.87984
55.7361 4.72979