File: XRD/Ni3Fe_FD0581.xy
TT I
1.27165 7.53814
1.45013 6.39257
1.62863 5.50135
1.80712 4.97584
1.98562 4.48818
2.16411 4.45984
2.34263 5.1143
2.52115 6.49508
2.69965 7.83263
2.87818 8.63888
3.05672 11.2576
3.23527 15.3109
3.4138 18.8562
3.59237 23.214
3.77094 25.951
3.9495 29.8551
4.12809 34.2476
4.30669 122.157
4.4853 56.2114
4.6639 56.183
4.84253 68.5723
5.02118 89.2031
5.19981 472.469
5.37848 198.473
5.55716 104.123
5.73586 93.3202
5.91455 97.6712
6.09328 4409.95
6.27201 82.2215
6.45075 68.4421
6.62952 62.7417
6.8083 58.9241
6.98711 55.8182
7.16591 55.8827
7.34475 71.7827
7.5236 54.5754
7.70247 56.6601
7.88135 58.5035
8.06026 62.9763
8.23919 69.5568
8.41812 85.3206
8.59709 1239.13
8.77609 99.8986
8.9551 89.8303
9.13412 83.2199
9.31318 84.5071
9.49226 85.5842
9.67134 95.6669
9.85047 101.528
10.0296 381.341
10.2088 367.879
10.388 106.939
10.5672 520.026
10.7465 86.9581
10.9257 78.0361
11.105 72.1508
11.2844 69.2446
11.4637 65.0784
11.6431 63.7254
11.8225 62.9693
12.002 64.8667
12.1814 155.941
12.3609 68.0254
12.5405 65.19
12.72 68.9773
12.8996 71.8256
13.0792 81.2454
13.2589 252.611
13.4386 121.12
13.6183 256.037
13.7981 96.8113
13.9779 76.248
14.1577 72.5226
14.3376 71.1633
14.5175 69.4979
14.6974 71.2817
14.8774 116.557
15.0574 144.506
15.2374 70.1393
15.4175 66.8663
15.5976 66.5657
15.7778 99.1833
15.958 150.045
16.1382 62.0448
16.3185 58.4665
16.4988 55.79
16.6792 54.8949
16.8596 55.471
17.04 56.2758
17.2205 68.1038
17.401 70.8534
17.5815 59.6006
17.7622 61.9255
17.9428 75.5376
18.1237 141.52
18.3044 92.0241
18.4852 76.5714
18.666 60.7083
18.8469 58.5591
19.0278 57.3643
19.2088 60.1315
19.3898 76.2035
19.5709 54.4932
19.752 53.8396
19.9332 56.9731
20.1144 70.0895
20.2957 64.1587
20.477 53.5239
20.6586 50.0556
20.84 49.0753
21.0215 49.0049
21.203 51.2103
21.3846 49.2139
21.5662 49.3975
21.7479 53.3754
21.9297 65.0648
22.1115 56.2665
22.2933 50.053
22.4753 49.1121
22.6572 49.4535
22.8393 52.6079
23.0214 57.4688
23.2037 49.0573
23.3859 50.2662
23.5682 57.3085
23.7505 48.2932
23.9329 45.574
24.1154 44.3105
24.2979 43.8616
24.4805 43.0918
24.6631 43.1747
24.8458 42.4881
25.0286 43.3592
25.2114 45.0555
25.3943 44.9026
25.5773 41.1752
25.7605 40.6824
25.9436 41.1169
26.1268 41.993
26.31 40.4149
26.4933 40.9978
26.6767 42.4858
26.8601 40.6855
27.0437 39.2531
27.2272 38.7851
27.4109 38.7515
27.5946 38.7071
27.7784 38.1948
27.9623 38.7991
28.1462 39.0081
28.3304 37.3842
28.5145 36.2517
28.6987 35.7725
28.8829 35.6637
29.0673 34.8102
29.2517 34.577
29.4361 34.3058
29.6207 33.3849
29.8053 33.1184
29.99 32.8556
30.1748 32.707
30.3597 32.3874
30.5447 32.3874
30.7297 32.356
30.915 31.7984
31.1002 31.3492
31.2855 31.1937
31.4708 31.003
31.6563 30.5229
31.8418 30.337
32.0275 30.0542
32.2132 29.5828
32.399 29.1085
32.5848 28.5529
32.7708 28.408
32.9569 28.1923
33.143 28.0118
33.3293 27.5563
33.5158 27.1828
33.7022 26.8248
33.8887 26.5598
34.0753 26.1744
34.262 25.8802
34.4488 25.3804
34.6357 25.1391
34.8227 24.8876
35.0098 24.6429
35.1969 24.4366
35.3842 24.1847
35.5716 23.9232
35.759 23.5678
35.9468 23.279
36.1345 23.0444
36.3222 22.7497
36.5101 22.5187
36.6981 22.2559
36.8861 21.908
37.0743 21.6168
37.2626 21.383
37.451 21.1456
37.6395 20.9676
37.8281 20.614
38.0168 20.3057
38.2056 20.0955
38.3945 19.8004
38.5837 19.586
38.7728 19.3127
38.9621 19.0144
39.1514 18.8537
39.3409 18.5655
39.5304 18.3465
39.7201 18.1401
39.9099 17.9809
40.0999 17.7155
40.2899 17.4784
40.48 17.2107
40.6703 17.022
40.8607 16.8552
41.0512 16.6347
41.242 16.3492
41.4327 16.171
41.6236 15.9536
41.8146 15.7708
42.0057 15.552
42.1969 15.3311
42.3882 15.1132
42.5797 14.9116
42.7713 14.6997
42.963 14.5044
43.1549 14.3436
43.3468 14.1399
43.5389 13.9009
43.7312 13.7162
43.9237 13.5019
44.1162 13.3712
44.3088 13.1747
44.5016 12.9702
44.6945 12.817
44.8875 12.6161
45.0806 12.4685
45.2739 12.2746
45.4673 12.1205
45.6609 11.939
45.8546 11.7842
46.0484 11.6115
46.2424 11.3795
46.4365 11.2927
46.631 11.1093
46.8254 10.9113
47.0199 10.7845
47.2146 10.6285
47.4095 10.4423
47.6044 10.2848
47.7996 10.1288
47.9948 10.0053
48.1902 9.83515
48.3858 9.72572
48.5815 9.61584
48.7774 9.46407
48.9734 9.31672
49.1696 9.16914
49.3661 9.0028
49.5626 8.87333
49.7592 8.73799
49.956 8.59858
50.153 8.50022
50.3501 8.33948
50.5474 8.22526
50.7448 8.10189
50.9424 7.97556
51.1402 7.88005
51.3381 7.72702
51.5362 7.59942
51.7344 7.45138
51.9328 7.34233
52.1316 7.23127
52.3304 7.0693
52.5293 6.95684
52.7284 6.89086
52.9276 6.7254
53.1271 6.64273
53.3267 6.52974
53.5265 6.43178
53.7264 6.31131
53.9266 6.23374
54.1269 6.08341
54.3274 5.98857
54.528 5.86681
54.7289 5.68033
54.9301 5.52854
55.1314 5.39937
55.3328 5.19471
55.5344 5.00414
55.7361 4.84343