File: XRD/Ni3Fe_FD0936.xy
TT I
1.27165 7.21974
1.45013 5.78058
1.62863 5.08869
1.80712 4.45356
1.98562 4.21124
2.16411 4.63813
2.34263 5.12747
2.52115 7.53637
2.69965 8.5611
2.87818 9.34133
3.05672 11.2248
3.23527 15.0918
3.4138 18.5521
3.59237 22.9574
3.77094 25.3433
3.9495 29.09
4.12809 33.6533
4.30669 90.3183
4.4853 52.2567
4.6639 55.2586
4.84253 67.9411
5.02118 86.0771
5.19981 370.008
5.37848 196.074
5.55716 100.878
5.73586 92.1709
5.91455 94.2144
6.09328 4642.8
6.27201 78.4137
6.45075 69.7918
6.62952 62.383
6.8083 58.999
6.98711 54.9292
7.16591 55.7546
7.34475 64.2113
7.5236 53.4399
7.70247 56.611
7.88135 56.7712
8.06026 61.7012
8.23919 68.4759
8.41812 82.1805
8.59709 1203.91
8.77609 95.7857
8.9551 88.9699
9.13412 81.9617
9.31318 84.4047
9.49226 83.9796
9.67134 94.5629
9.85047 100.711
10.0296 328.795
10.2088 325.341
10.388 103.42
10.5672 544.717
10.7465 84.7736
10.9257 76.975
11.105 70.3345
11.2844 67.1285
11.4637 63.6559
11.6431 62.1811
11.8225 61.8956
12.002 63.3575
12.1814 159.625
12.3609 65.2279
12.5405 64.0815
12.72 66.764
12.8996 70.7182
13.0792 79.5075
13.2589 246.108
13.4386 114.229
13.6183 258.824
13.7981 91.973
13.9779 74.5938
14.1577 70.7092
14.3376 68.9498
14.5175 67.7924
14.6974 69.4851
14.8774 111.164
15.0574 136.324
15.2374 68.169
15.4175 65.3267
15.5976 64.8679
15.7778 94.0607
15.958 144.982
16.1382 60.1454
16.3185 56.6682
16.4988 54.5245
16.6792 53.4342
16.8596 53.8352
17.04 55.0657
17.2205 66.2478
17.401 67.5507
17.5815 58.2399
17.7622 60.2646
17.9428 72.3562
18.1237 140.98
18.3044 90.4279
18.4852 72.7658
18.666 59.2649
18.8469 57.0685
19.0278 55.5393
19.2088 58.1584
19.3898 75.0584
19.5709 53.1305
19.752 52.2787
19.9332 55.1208
20.1144 69.5343
20.2957 64.2269
20.477 51.6733
20.6586 48.9043
20.84 47.9462
21.0215 47.6504
21.203 50.0341
21.3846 47.9321
21.5662 48.3918
21.7479 51.8654
21.9297 64.1917
22.1115 55.6296
22.2933 48.7526
22.4753 47.7328
22.6572 48.2747
22.8393 51.2136
23.0214 55.9786
23.2037 47.8742
23.3859 48.9508
23.5682 57.0925
23.7505 46.9098
23.9329 44.4324
24.1154 43.2411
24.2979 42.6658
24.4805 42.2452
24.6631 42.0453
24.8458 41.5938
25.0286 42.2513
25.2114 43.9849
25.3943 43.8601
25.5773 40.1728
25.7605 39.6126
25.9436 40.172
26.1268 41.0606
26.31 39.4436
26.4933 39.9473
26.6767 41.4285
26.8601 39.7482
27.0437 38.2724
27.2272 37.8506
27.4109 37.7742
27.5946 37.6996
27.7784 37.2226
27.9623 37.8248
28.1462 38.1997
28.3304 36.4281
28.5145 35.3748
28.6987 35.0966
28.8829 34.7979
29.0673 34.0112
29.2517 33.7946
29.4361 33.4891
29.6207 32.5692
29.8053 32.2969
29.99 32.0683
30.1748 31.8992
30.3597 31.6149
30.5447 31.6762
30.7297 31.6189
30.915 31.0137
31.1002 30.6221
31.2855 30.2909
31.4708 30.4017
31.6563 29.8207
31.8418 29.5584
32.0275 29.4207
32.2132 28.8382
32.399 28.4237
32.5848 27.9817
32.7708 27.6244
32.9569 27.4685
33.143 27.3035
33.3293 26.9256
33.5158 26.4896
33.7022 26.0471
33.8887 25.8084
34.0753 25.4941
34.262 25.2214
34.4488 24.8616
34.6357 24.5075
34.8227 24.3653
35.0098 24.0765
35.1969 23.7609
35.3842 23.579
35.5716 23.4147
35.759 23.1073
35.9468 22.7384
36.1345 22.4208
36.3222 22.2467
36.5101 21.9921
36.6981 21.7413
36.8861 21.4115
37.0743 21.1163
37.2626 20.8889
37.451 20.5825
37.6395 20.4329
37.8281 20.1007
38.0168 19.8209
38.2056 19.6594
38.3945 19.3501
38.5837 19.0491
38.7728 18.8403
38.9621 18.6277
39.1514 18.437
39.3409 18.1605
39.5304 17.8931
39.7201 17.7539
39.9099 17.5508
40.0999 17.2421
40.2899 17.0338
40.48 16.7976
40.6703 16.6278
40.8607 16.4092
41.0512 16.2338
41.242 15.9461
41.4327 15.7337
41.6236 15.5614
41.8146 15.3471
42.0057 15.1286
42.1969 14.898
42.3882 14.7996
42.5797 14.5874
42.7713 14.3401
42.963 14.1352
43.1549 13.9571
43.3468 13.706
43.5389 13.5937
43.7312 13.4139
43.9237 13.2176
44.1162 13.0406
44.3088 12.8417
44.5016 12.6679
44.6945 12.4647
44.8875 12.3293
45.0806 12.1329
45.2739 12.0027
45.4673 11.8177
45.6609 11.633
45.8546 11.5018
46.0484 11.3048
46.2424 11.1695
46.4365 11.0756
46.631 10.8244
46.8254 10.6584
47.0199 10.5517
47.2146 10.3757
47.4095 10.1999
47.6044 10.0285
47.7996 9.89862
47.9948 9.69758
48.1902 9.61297
48.3858 9.47243
48.5815 9.36259
48.7774 9.23426
48.9734 9.10613
49.1696 8.9675
49.3661 8.79317
49.5626 8.6812
49.7592 8.53353
49.956 8.41775
50.153 8.26661
50.3501 8.15278
50.5474 8.05374
50.7448 7.89948
50.9424 7.79692
51.1402 7.68693
51.3381 7.56146
51.5362 7.44253
51.7344 7.28632
51.9328 7.17946
52.1316 7.03444
52.3304 6.97361
52.5293 6.80743
52.7284 6.72839
52.9276 6.60533
53.1271 6.48773
53.3267 6.40827
53.5265 6.23463
53.7264 6.17455
53.9266 6.09025
54.1269 5.9442
54.3274 5.78364
54.528 5.70406
54.7289 5.56338
54.9301 5.38269
55.1314 5.2975
55.3328 5.03928
55.5344 4.89156
55.7361 4.75745