File: XRD/Ni3Fe_FD0805.xy
TT I
1.27165 7.33957
1.45013 5.8671
1.62863 5.17482
1.80712 4.30387
1.98562 4.9342
2.16411 4.60269
2.34263 5.24902
2.52115 7.31178
2.69965 8.32834
2.87818 8.73522
3.05672 11.199
3.23527 15.5604
3.4138 19.0698
3.59237 23.1568
3.77094 25.3181
3.9495 29.3957
4.12809 34.3068
4.30669 117.689
4.4853 55.3595
4.6639 55.1817
4.84253 67.973
5.02118 87.0791
5.19981 392.972
5.37848 185.945
5.55716 101.491
5.73586 92.2842
5.91455 94.3319
6.09328 4557.46
6.27201 80.1903
6.45075 68.6532
6.62952 62.4036
6.8083 58.6884
6.98711 55.2398
7.16591 55.6262
7.34475 70.6294
7.5236 54.039
7.70247 56.1494
7.88135 57.0487
8.06026 62.2957
8.23919 68.8154
8.41812 83.7427
8.59709 1214.57
8.77609 97.0802
8.9551 89.0746
9.13412 82.1999
9.31318 83.8578
9.49226 84.3624
9.67134 95.171
9.85047 100.591
10.0296 347.026
10.2088 344.88
10.388 104.225
10.5672 536.432
10.7465 85.7307
10.9257 77.2784
11.105 71.1006
11.2844 68.026
11.4637 64.2187
11.6431 62.9565
11.8225 62.1831
12.002 63.8107
12.1814 158.402
12.3609 66.4292
12.5405 64.2935
12.72 67.727
12.8996 70.621
13.0792 79.739
13.2589 248.69
13.4386 117.423
13.6183 259.096
13.7981 92.5533
13.9779 75.1101
14.1577 71.5307
14.3376 70.0613
14.5175 68.2113
14.6974 69.9955
14.8774 111.899
15.0574 139.041
15.2374 69.1755
15.4175 65.7073
15.5976 65.6066
15.7778 95.3938
15.958 145.404
16.1382 60.9209
16.3185 57.4187
16.4988 55.0201
16.6792 53.9039
16.8596 54.4359
17.04 55.4456
17.2205 66.9817
17.401 68.323
17.5815 58.6424
17.7622 60.7583
17.9428 73.068
18.1237 141.178
18.3044 91.2733
18.4852 73.8954
18.666 59.5944
18.8469 57.6274
19.0278 56.1876
19.2088 58.7643
19.3898 75.5166
19.5709 53.5818
19.752 52.8102
19.9332 55.8049
20.1144 69.6424
20.2957 63.9583
20.477 52.4779
20.6586 49.0864
20.84 48.3275
21.0215 48.0607
21.203 50.537
21.3846 48.4028
21.5662 48.5264
21.7479 52.3279
21.9297 64.2485
22.1115 55.8047
22.2933 48.9969
22.4753 48.2298
22.6572 48.4161
22.8393 51.7712
23.0214 56.405
23.2037 48.2182
23.3859 49.2988
23.5682 57.2097
23.7505 47.4594
23.9329 44.5108
24.1154 43.6588
24.2979 42.9234
24.4805 42.587
24.6631 42.3225
24.8458 41.9145
25.0286 42.5756
25.2114 44.259
25.3943 43.9839
25.5773 40.4444
25.7605 39.9694
25.9436 40.3664
26.1268 41.2319
26.31 39.6973
26.4933 40.457
26.6767 41.7294
26.8601 39.9872
27.0437 38.4934
27.2272 38.1137
27.4109 38.1103
27.5946 37.88
27.7784 37.5339
27.9623 38.0923
28.1462 38.4456
28.3304 36.6354
28.5145 35.6074
28.6987 35.2447
28.8829 34.9916
29.0673 34.3461
29.2517 34.0167
29.4361 33.7732
29.6207 32.7955
29.8053 32.5088
29.99 32.2874
30.1748 32.2188
30.3597 31.9041
30.5447 31.8645
30.7297 31.9292
30.915 31.2432
31.1002 30.838
31.2855 30.5135
31.4708 30.5934
31.6563 30.1049
31.8418 29.7879
32.0275 29.5219
32.2132 29.0856
32.399 28.621
32.5848 28.2017
32.7708 27.7814
32.9569 27.7574
33.143 27.5262
33.3293 27.1359
33.5158 26.7433
33.7022 26.379
33.8887 26.0977
34.0753 25.6355
34.262 25.3879
34.4488 25.0703
34.6357 24.7712
34.8227 24.3706
35.0098 24.2577
35.1969 23.9018
35.3842 23.8422
35.5716 23.5418
35.759 23.2038
35.9468 22.8948
36.1345 22.6508
36.3222 22.4761
36.5101 22.1736
36.6981 21.982
36.8861 21.5749
37.0743 21.2528
37.2626 21.0293
37.451 20.7487
37.6395 20.5834
37.8281 20.2861
38.0168 19.9722
38.2056 19.7562
38.3945 19.5114
38.5837 19.266
38.7728 18.9907
38.9621 18.7743
39.1514 18.5208
39.3409 18.2557
39.5304 18.05
39.7201 17.8689
39.9099 17.6846
40.0999 17.3631
40.2899 17.1954
40.48 16.9443
40.6703 16.7346
40.8607 16.5298
41.0512 16.3279
41.242 16.1321
41.4327 15.8405
41.6236 15.6367
41.8146 15.4842
42.0057 15.2671
42.1969 15.0377
42.3882 14.8369
42.5797 14.7249
42.7713 14.5153
42.963 14.3228
43.1549 14.051
43.3468 13.9023
43.5389 13.6735
43.7312 13.5039
43.9237 13.3202
44.1162 13.1371
44.3088 12.9573
44.5016 12.7565
44.6945 12.6167
44.8875 12.4318
45.0806 12.2736
45.2739 12.0826
45.4673 11.8992
45.6609 11.7585
45.8546 11.5951
46.0484 11.384
46.2424 11.211
46.4365 11.0946
46.631 10.9259
46.8254 10.7481
47.0199 10.5919
47.2146 10.4514
47.4095 10.2826
47.6044 10.1236
47.7996 9.95948
47.9948 9.79583
48.1902 9.68957
48.3858 9.53028
48.5815 9.42114
48.7774 9.27231
48.9734 9.16815
49.1696 9.01401
49.3661 8.85747
49.5626 8.69113
49.7592 8.58656
49.956 8.47023
50.153 8.33561
50.3501 8.17285
50.5474 8.07267
50.7448 7.96127
50.9424 7.85335
51.1402 7.74718
51.3381 7.61732
51.5362 7.48884
51.7344 7.36335
51.9328 7.24081
52.1316 7.09137
52.3304 6.98431
52.5293 6.86604
52.7284 6.78672
52.9276 6.67617
53.1271 6.57983
53.3267 6.41967
53.5265 6.31068
53.7264 6.23986
53.9266 6.1077
54.1269 5.97097
54.3274 5.9308
54.528 5.75352
54.7289 5.55842
54.9301 5.4168
55.1314 5.31282
55.3328 5.07556
55.5344 4.9092
55.7361 4.77293