File: XRD/Ni3Fe_FD0682.xy
TT I
1.27165 7.61949
1.45013 6.03585
1.62863 5.40058
1.80712 4.65277
1.98562 4.36206
2.16411 4.79716
2.34263 4.86772
2.52115 6.89525
2.69965 7.95569
2.87818 8.61618
3.05672 11.059
3.23527 14.9719
3.4138 18.7235
3.59237 23.0716
3.77094 26.0572
3.9495 29.3961
4.12809 34.3018
4.30669 138.398
4.4853 56.9827
4.6639 55.55
4.84253 67.8949
5.02118 87.4747
5.19981 411.181
5.37848 187.722
5.55716 102.277
5.73586 92.8201
5.91455 95.5172
6.09328 4542.28
6.27201 81.3208
6.45075 68.0921
6.62952 62.0273
6.8083 58.5274
6.98711 55.4194
7.16591 55.1656
7.34475 75.6396
7.5236 54.3126
7.70247 55.9471
7.88135 57.6041
8.06026 62.1674
8.23919 69.4052
8.41812 84.5642
8.59709 1238.0
8.77609 98.0504
8.9551 89.3047
9.13412 82.0921
9.31318 83.3789
9.49226 84.8694
9.67134 95.7953
9.85047 100.224
10.0296 364.859
10.2088 362.51
10.388 105.092
10.5672 510.657
10.7465 85.9202
10.9257 77.5403
11.105 71.6618
11.2844 68.9377
11.4637 64.8275
11.6431 63.2842
11.8225 62.5923
12.002 64.0149
12.1814 154.135
12.3609 67.7619
12.5405 64.4883
12.72 68.4166
12.8996 70.89
13.0792 79.8179
13.2589 248.486
13.4386 120.191
13.6183 255.074
13.7981 93.6322
13.9779 75.6163
14.1577 72.0665
14.3376 70.6214
14.5175 68.661
14.6974 70.2815
14.8774 113.201
15.0574 140.687
15.2374 69.6428
15.4175 66.4608
15.5976 65.6409
15.7778 96.6211
15.958 150.354
16.1382 61.7468
16.3185 57.9176
16.4988 55.1816
16.6792 54.2794
16.8596 54.9119
17.04 55.9755
17.2205 67.1948
17.401 69.8785
17.5815 58.9572
17.7622 61.3502
17.9428 74.327
18.1237 142.381
18.3044 91.3384
18.4852 75.3845
18.666 60.2059
18.8469 57.7162
19.0278 56.8809
19.2088 59.4401
19.3898 76.1744
19.5709 53.9933
19.752 52.9816
19.9332 56.249
20.1144 69.9019
20.2957 64.1413
20.477 52.7724
20.6586 49.4662
20.84 48.7441
21.0215 48.5642
21.203 50.9241
21.3846 48.6947
21.5662 48.8749
21.7479 52.7899
21.9297 64.8577
22.1115 56.1564
22.2933 49.4656
22.4753 48.7348
22.6572 48.8788
22.8393 52.0336
23.0214 57.1124
23.2037 48.7468
23.3859 49.7555
23.5682 57.2856
23.7505 47.8405
23.9329 45.2413
24.1154 44.0457
24.2979 43.3221
24.4805 42.8831
24.6631 42.7589
24.8458 42.0836
25.0286 42.8647
25.2114 44.7388
25.3943 44.3931
25.5773 40.8288
25.7605 40.3361
25.9436 40.8615
26.1268 41.6558
26.31 40.0748
26.4933 40.746
26.6767 42.2464
26.8601 40.4352
27.0437 38.8153
27.2272 38.4626
27.4109 38.4371
27.5946 38.3186
27.7784 37.7813
27.9623 38.3906
28.1462 38.6041
28.3304 37.0531
28.5145 35.8555
28.6987 35.569
28.8829 35.4249
29.0673 34.5
29.2517 34.2808
29.4361 34.0708
29.6207 32.9825
29.8053 32.864
29.99 32.4512
30.1748 32.3501
30.3597 32.1658
30.5447 32.1391
30.7297 32.069
30.915 31.5527
31.1002 31.0489
31.2855 30.8245
31.4708 30.7886
31.6563 30.2877
31.8418 30.0905
32.0275 29.767
32.2132 29.3241
32.399 28.9075
32.5848 28.4407
32.7708 28.1156
32.9569 27.9294
33.143 27.7672
33.3293 27.3782
33.5158 26.912
33.7022 26.511
33.8887 26.3182
34.0753 25.93
34.262 25.5731
34.4488 25.2951
34.6357 24.8455
34.8227 24.659
35.0098 24.4171
35.1969 24.173
35.3842 23.9968
35.5716 23.7067
35.759 23.4681
35.9468 23.1262
36.1345 22.8518
36.3222 22.6362
36.5101 22.4026
36.6981 22.0686
36.8861 21.7512
37.0743 21.4547
37.2626 21.259
37.451 20.8963
37.6395 20.8128
37.8281 20.4283
38.0168 20.1595
38.2056 19.9732
38.3945 19.6018
38.5837 19.4083
38.7728 19.1254
38.9621 18.9535
39.1514 18.6069
39.3409 18.4401
39.5304 18.2038
39.7201 18.041
39.9099 17.8126
40.0999 17.5171
40.2899 17.2603
40.48 17.0834
40.6703 16.9023
40.8607 16.7269
41.0512 16.5027
41.242 16.2264
41.4327 16.0444
41.6236 15.7516
41.8146 15.6455
42.0057 15.3407
42.1969 15.2304
42.3882 15.04
42.5797 14.8044
42.7713 14.6266
42.963 14.4012
43.1549 14.2273
43.3468 14.0078
43.5389 13.8247
43.7312 13.6106
43.9237 13.4505
44.1162 13.2317
44.3088 13.0482
44.5016 12.8932
44.6945 12.6384
44.8875 12.5279
45.0806 12.3787
45.2739 12.1804
45.4673 11.9902
45.6609 11.8476
45.8546 11.6959
46.0484 11.5093
46.2424 11.3177
46.4365 11.1942
46.631 10.9825
46.8254 10.8285
47.0199 10.6664
47.2146 10.5312
47.4095 10.3764
47.6044 10.1972
47.7996 10.1123
47.9948 9.9104
48.1902 9.80421
48.3858 9.66458
48.5815 9.50427
48.7774 9.38364
48.9734 9.24454
49.1696 9.06105
49.3661 8.94063
49.5626 8.79134
49.7592 8.69928
49.956 8.54809
50.153 8.43671
50.3501 8.28928
50.5474 8.16814
50.7448 8.01979
50.9424 7.89629
51.1402 7.81118
51.3381 7.64452
51.5362 7.53213
51.7344 7.40447
51.9328 7.27327
52.1316 7.16837
52.3304 7.07787
52.5293 6.93823
52.7284 6.81652
52.9276 6.69017
53.1271 6.59544
53.3267 6.51287
53.5265 6.38428
53.7264 6.25723
53.9266 6.15056
54.1269 5.98134
54.3274 5.93508
54.528 5.74269
54.7289 5.61709
54.9301 5.50117
55.1314 5.3613
55.3328 5.12239
55.5344 4.97697
55.7361 4.82581