File: XRD/Ni3Fe_FD0156.xy
TT I
1.27165 7.74285
1.45013 7.01591
1.62863 5.92514
1.80712 5.22992
1.98562 5.04383
2.16411 4.1467
2.34263 4.67204
2.52115 4.50737
2.69965 6.09897
2.87818 8.18544
3.05672 11.585
3.23527 15.35
3.4138 19.1904
3.59237 21.9597
3.77094 24.9634
3.9495 28.7707
4.12809 32.8762
4.30669 37.6174
4.4853 45.2761
4.6639 53.8068
4.84253 66.346
5.02118 90.3282
5.19981 544.034
5.37848 439.073
5.55716 107.391
5.73586 95.4344
5.91455 105.076
6.09328 2753.73
6.27201 89.4773
6.45075 66.4832
6.62952 59.7724
6.8083 55.4227
6.98711 53.5177
7.16591 52.324
7.34475 52.3142
7.5236 55.8684
7.70247 54.0845
7.88135 56.2971
8.06026 60.3906
8.23919 67.9949
8.41812 83.3228
8.59709 891.866
8.77609 115.677
8.9551 84.9819
9.13412 81.4884
9.31318 86.3938
9.49226 83.4812
9.67134 88.6366
9.85047 98.5601
10.0296 543.172
10.2088 968.791
10.388 104.557
10.5672 332.494
10.7465 90.3655
10.9257 75.8623
11.105 70.3758
11.2844 66.0149
11.4637 63.4255
11.6431 61.7338
11.8225 61.0968
12.002 65.1456
12.1814 118.832
12.3609 74.7103
12.5405 62.9591
12.72 65.0411
12.8996 69.6076
13.0792 78.9738
13.2589 205.661
13.4386 208.013
13.6183 193.021
13.7981 153.315
13.9779 76.0909
14.1577 73.9798
14.3376 68.8563
14.5175 68.1595
14.6974 69.8081
14.8774 120.652
15.0574 203.141
15.2374 69.1525
15.4175 66.0661
15.5976 65.6537
15.7778 107.023
15.958 185.785
16.1382 61.8721
16.3185 57.2831
16.4988 54.7326
16.6792 53.979
16.8596 54.279
17.04 55.1915
17.2205 65.2612
17.401 80.7272
17.5815 59.0845
17.7622 61.2817
17.9428 83.6096
18.1237 115.241
18.3044 88.2603
18.4852 94.349
18.666 60.809
18.8469 57.9211
19.0278 56.8243
19.2088 61.7641
19.3898 69.2364
19.5709 56.1747
19.752 53.5751
19.9332 58.2999
20.1144 67.1748
20.2957 61.0127
20.477 58.757
20.6586 49.6922
20.84 48.9805
21.0215 48.849
21.203 49.7172
21.3846 50.6411
21.5662 49.0603
21.7479 54.0201
21.9297 62.2671
22.1115 56.2939
22.2933 52.399
22.4753 48.8173
22.6572 49.0651
22.8393 52.0386
23.0214 57.269
23.2037 49.7685
23.3859 51.91
23.5682 53.7836
23.7505 53.1379
23.9329 45.6095
24.1154 44.3905
24.2979 43.7343
24.4805 42.9459
24.6631 43.0407
24.8458 42.608
25.0286 43.0352
25.2114 44.8183
25.3943 44.911
25.5773 41.7166
25.7605 40.7289
25.9436 41.0806
26.1268 41.5554
26.31 40.9657
26.4933 41.0985
26.6767 42.1216
26.8601 41.2379
27.0437 39.5613
27.2272 38.9561
27.4109 38.5244
27.5946 38.8321
27.7784 38.6214
27.9623 38.6321
28.1462 39.4382
28.3304 38.0242
28.5145 36.3977
28.6987 35.9419
28.8829 35.4885
29.0673 35.1417
29.2517 34.574
29.4361 34.2577
29.6207 33.6411
29.8053 33.1379
29.99 32.8855
30.1748 32.5419
30.3597 32.6759
30.5447 32.3927
30.7297 32.3191
30.915 32.0991
31.1002 31.5258
31.2855 31.1125
31.4708 31.0265
31.6563 30.8896
31.8418 30.2897
32.0275 30.2102
32.2132 29.8623
32.399 29.2074
32.5848 28.7166
32.7708 28.4969
32.9569 28.2216
33.143 27.9728
33.3293 27.6263
33.5158 27.3732
33.7022 26.791
33.8887 26.5041
34.0753 26.158
34.262 25.7571
34.4488 25.4959
34.6357 25.1051
34.8227 24.8787
35.0098 24.7141
35.1969 24.4028
35.3842 24.1874
35.5716 24.1511
35.759 23.7124
35.9468 23.2351
36.1345 23.1313
36.3222 22.8687
36.5101 22.6297
36.6981 22.2765
36.8861 22.0358
37.0743 21.6591
37.2626 21.4236
37.451 21.1371
37.6395 21.032
37.8281 20.6784
38.0168 20.3401
38.2056 20.0879
38.3945 19.8229
38.5837 19.5572
38.7728 19.3849
38.9621 19.1168
39.1514 18.769
39.3409 18.6077
39.5304 18.3944
39.7201 18.1701
39.9099 18.0026
40.0999 17.7579
40.2899 17.4791
40.48 17.2904
40.6703 17.0474
40.8607 16.8448
41.0512 16.6912
41.242 16.3975
41.4327 16.1915
41.6236 15.9248
41.8146 15.8225
42.0057 15.5573
42.1969 15.3193
42.3882 15.1634
42.5797 14.9611
42.7713 14.7219
42.963 14.5414
43.1549 14.3269
43.3468 14.1644
43.5389 13.9538
43.7312 13.7694
43.9237 13.5523
44.1162 13.3972
44.3088 13.1688
44.5016 12.9576
44.6945 12.8804
44.8875 12.6342
45.0806 12.446
45.2739 12.3093
45.4673 12.1394
45.6609 11.9295
45.8546 11.7931
46.0484 11.5809
46.2424 11.4554
46.4365 11.3055
46.631 11.1332
46.8254 10.9413
47.0199 10.781
47.2146 10.6326
47.4095 10.4539
47.6044 10.3204
47.7996 10.1678
47.9948 10.016
48.1902 9.86318
48.3858 9.7771
48.5815 9.56422
48.7774 9.46743
48.9734 9.35751
49.1696 9.15298
49.3661 9.01582
49.5626 8.85336
49.7592 8.76052
49.956 8.63852
50.153 8.512
50.3501 8.371
50.5474 8.26926
50.7448 8.105
50.9424 8.00839
51.1402 7.84489
51.3381 7.73223
51.5362 7.61347
51.7344 7.4932
51.9328 7.3137
52.1316 7.24388
52.3304 7.15419
52.5293 7.00795
52.7284 6.87259
52.9276 6.74732
53.1271 6.68742
53.3267 6.55474
53.5265 6.39968
53.7264 6.31839
53.9266 6.18184
54.1269 6.13334
54.3274 5.95065
54.528 5.78684
54.7289 5.63374
54.9301 5.4546
55.1314 5.36899
55.3328 5.0737
55.5344 4.93227
55.7361 4.76795