File: XRD/Ni3Fe_FD1029.xy
TT I
1.27165 6.87877
1.45013 5.96017
1.62863 5.15679
1.80712 4.92594
1.98562 4.45561
2.16411 4.24027
2.34263 5.6011
2.52115 7.08882
2.69965 8.60546
2.87818 8.32194
3.05672 11.2182
3.23527 14.9791
3.4138 18.2072
3.59237 21.316
3.77094 24.7776
3.9495 27.7746
4.12809 32.587
4.30669 57.4261
4.4853 46.2014
4.6639 52.5906
4.84253 63.9351
5.02118 82.4833
5.19981 228.786
5.37848 223.603
5.55716 96.8208
5.73586 87.387
5.91455 88.3868
6.09328 4481.14
6.27201 75.5036
6.45075 63.3716
6.62952 57.8345
6.8083 54.2985
6.98711 52.2407
7.16591 51.3791
7.34475 55.9466
7.5236 60.8044
7.70247 52.9125
7.88135 54.5395
8.06026 58.5505
8.23919 65.2907
8.41812 76.8161
8.59709 1063.79
8.77609 94.7696
8.9551 81.9464
9.13412 78.8813
9.31318 91.7633
9.49226 80.6388
9.67134 86.1403
9.85047 93.5122
10.0296 335.568
10.2088 449.604
10.388 97.1972
10.5672 502.029
10.7465 87.0163
10.9257 73.1175
11.105 67.7925
11.2844 64.3283
11.4637 61.5591
11.6431 60.3671
11.8225 59.1099
12.002 67.8136
12.1814 145.627
12.3609 64.0886
12.5405 61.0896
12.72 63.6853
12.8996 67.3448
13.0792 76.6261
13.2589 223.242
13.4386 126.964
13.6183 233.326
13.7981 100.27
13.9779 73.028
14.1577 76.4658
14.3376 67.1742
14.5175 65.9791
14.6974 67.2803
14.8774 107.474
15.0574 160.309
15.2374 66.2478
15.4175 63.9465
15.5976 63.0392
15.7778 92.4702
15.958 167.461
16.1382 59.8641
16.3185 55.29
16.4988 53.3809
16.6792 52.3326
16.8596 52.5702
17.04 53.5734
17.2205 64.2001
17.401 71.5273
17.5815 56.673
17.7622 59.7511
17.9428 72.1412
18.1237 141.506
18.3044 87.975
18.4852 78.9311
18.666 58.6145
18.8469 56.2224
19.0278 54.7708
19.2088 57.6723
19.3898 75.716
19.5709 52.5533
19.752 51.7164
19.9332 54.7815
20.1144 69.8612
20.2957 63.0084
20.477 52.693
20.6586 48.1834
20.84 47.7538
21.0215 47.0306
21.203 49.3474
21.3846 47.6838
21.5662 47.3524
21.7479 51.2651
21.9297 65.0398
22.1115 55.8028
22.2933 48.923
22.4753 47.1628
22.6572 47.3828
22.8393 50.7522
23.0214 57.0657
23.2037 47.4817
23.3859 49.093
23.5682 56.819
23.7505 47.9621
23.9329 44.0879
24.1154 42.9205
24.2979 42.1606
24.4805 41.9084
24.6631 41.6918
24.8458 41.0062
25.0286 41.7362
25.2114 43.8516
25.3943 44.1161
25.5773 40.0053
25.7605 39.4407
25.9436 39.8684
26.1268 41.1458
26.31 39.061
26.4933 39.7351
26.6767 41.7354
26.8601 39.9102
27.0437 38.1355
27.2272 37.6172
27.4109 37.571
27.5946 37.7154
27.7784 37.1145
27.9623 37.6809
28.1462 38.4981
28.3304 36.5688
28.5145 35.046
28.6987 34.9241
28.8829 34.6892
29.0673 33.8676
29.2517 33.4769
29.4361 33.4132
29.6207 32.4036
29.8053 32.0239
29.99 31.7796
30.1748 31.74
30.3597 31.6237
30.5447 31.5465
30.7297 31.674
30.915 31.0289
31.1002 30.5062
31.2855 30.1187
31.4708 30.3191
31.6563 29.7859
31.8418 29.4921
32.0275 29.381
32.2132 28.8429
32.399 28.2518
32.5848 27.9361
32.7708 27.514
32.9569 27.412
33.143 27.2909
33.3293 26.8929
33.5158 26.479
33.7022 25.9586
33.8887 25.7288
34.0753 25.4241
34.262 25.0911
34.4488 24.7658
34.6357 24.3792
34.8227 24.1018
35.0098 23.8467
35.1969 23.6902
35.3842 23.492
35.5716 23.3296
35.759 23.0219
35.9468 22.6361
36.1345 22.4101
36.3222 22.264
36.5101 22.0025
36.6981 21.7038
36.8861 21.3335
37.0743 21.0656
37.2626 20.7767
37.451 20.5011
37.6395 20.4334
37.8281 20.0539
38.0168 19.7146
38.2056 19.5705
38.3945 19.2567
38.5837 19.1144
38.7728 18.8216
38.9621 18.535
39.1514 18.2487
39.3409 18.0497
39.5304 17.8713
39.7201 17.6881
39.9099 17.5137
40.0999 17.2294
40.2899 17.0263
40.48 16.7541
40.6703 16.5455
40.8607 16.3645
41.0512 16.1636
41.242 15.9094
41.4327 15.7446
41.6236 15.5542
41.8146 15.3367
42.0057 15.1422
42.1969 14.867
42.3882 14.7857
42.5797 14.4747
42.7713 14.3532
42.963 14.1346
43.1549 13.9207
43.3468 13.7515
43.5389 13.5546
43.7312 13.3509
43.9237 13.1799
44.1162 12.9982
44.3088 12.84
44.5016 12.634
44.6945 12.4599
44.8875 12.2537
45.0806 12.1035
45.2739 11.9277
45.4673 11.8241
45.6609 11.6201
45.8546 11.4277
46.0484 11.2897
46.2424 11.1214
46.4365 10.9743
46.631 10.8058
46.8254 10.6772
47.0199 10.461
47.2146 10.3706
47.4095 10.197
47.6044 10.0062
47.7996 9.86346
47.9948 9.7481
48.1902 9.60416
48.3858 9.46472
48.5815 9.2853
48.7774 9.20471
48.9734 9.05364
49.1696 8.91215
49.3661 8.78283
49.5626 8.6114
49.7592 8.49514
49.956 8.37013
50.153 8.27669
50.3501 8.13479
50.5474 7.97515
50.7448 7.90307
50.9424 7.7755
51.1402 7.6492
51.3381 7.52196
51.5362 7.36145
51.7344 7.26878
51.9328 7.15551
52.1316 7.03341
52.3304 6.91844
52.5293 6.81203
52.7284 6.71902
52.9276 6.60174
53.1271 6.49067
53.3267 6.38774
53.5265 6.2485
53.7264 6.15964
53.9266 6.01974
54.1269 5.92663
54.3274 5.8156
54.528 5.69933
54.7289 5.57456
54.9301 5.35891
55.1314 5.26005
55.3328 5.08018
55.5344 4.87625
55.7361 4.7573