File: XRD/Ni3Fe_FD0761.xy
TT I
1.27165 7.28084
1.45013 6.06727
1.62863 5.02827
1.80712 5.14944
1.98562 4.8238
2.16411 5.01141
2.34263 5.63592
2.52115 7.12892
2.69965 7.74205
2.87818 8.70846
3.05672 11.4357
3.23527 15.3236
3.4138 19.2766
3.59237 24.5044
3.77094 26.887
3.9495 29.8656
4.12809 34.9463
4.30669 260.126
4.4853 69.5584
4.6639 55.0915
4.84253 66.6712
5.02118 85.5038
5.19981 304.415
5.37848 187.644
5.55716 101.117
5.73586 91.4164
5.91455 91.9799
6.09328 4351.99
6.27201 83.2824
6.45075 67.2872
6.62952 63.4535
6.8083 58.9183
6.98711 55.7186
7.16591 55.6986
7.34475 100.089
7.5236 54.7239
7.70247 55.7907
7.88135 57.5503
8.06026 61.8723
8.23919 69.2992
8.41812 84.937
8.59709 1099.15
8.77609 99.2596
8.9551 92.6584
9.13412 81.2176
9.31318 82.0744
9.49226 83.6255
9.67134 99.5731
9.85047 98.8612
10.0296 304.009
10.2088 402.439
10.388 104.273
10.5672 512.294
10.7465 85.9663
10.9257 78.6073
11.105 71.5999
11.2844 70.5454
11.4637 64.651
11.6431 63.5774
11.8225 62.3372
12.002 63.0454
12.1814 147.392
12.3609 71.3919
12.5405 64.2441
12.72 70.4925
12.8996 70.6845
13.0792 77.8022
13.2589 226.396
13.4386 126.229
13.6183 237.902
13.7981 97.8686
13.9779 75.2407
14.1577 72.2757
14.3376 71.5125
14.5175 68.3084
14.6974 69.7145
14.8774 105.768
15.0574 150.419
15.2374 71.2448
15.4175 65.8735
15.5976 65.2522
15.7778 91.0997
15.958 157.215
16.1382 62.9623
16.3185 58.608
16.4988 55.221
16.6792 54.1314
16.8596 54.9683
17.04 55.1438
17.2205 65.4868
17.401 70.8988
17.5815 58.8691
17.7622 60.9254
17.9428 71.9509
18.1237 138.581
18.3044 88.8584
18.4852 77.839
18.666 59.9567
18.8469 57.5486
19.0278 56.4379
19.2088 58.8178
19.3898 76.8815
19.5709 53.924
19.752 53.0009
19.9332 55.5429
20.1144 69.1607
20.2957 63.4567
20.477 53.5572
20.6586 49.3992
20.84 48.4973
21.0215 48.2482
21.203 50.4293
21.3846 48.6229
21.5662 48.2974
21.7479 51.9036
21.9297 63.98
22.1115 55.4697
22.2933 49.5591
22.4753 48.5947
22.6572 48.3088
22.8393 51.3269
23.0214 57.0866
23.2037 48.3235
23.3859 49.193
23.5682 56.5713
23.7505 48.0727
23.9329 45.0098
24.1154 43.897
24.2979 43.1808
24.4805 42.6177
24.6631 42.5765
24.8458 41.8856
25.0286 42.309
25.2114 44.4133
25.3943 44.2913
25.5773 40.5596
25.7605 39.9828
25.9436 40.6164
26.1268 41.3729
26.31 39.772
26.4933 40.4668
26.6767 41.7541
26.8601 40.2037
27.0437 38.7683
27.2272 38.2817
27.4109 38.1595
27.5946 38.0633
27.7784 37.6349
27.9623 38.1236
28.1462 38.5644
28.3304 36.9956
28.5145 35.749
28.6987 35.3973
28.8829 35.1505
29.0673 34.4803
29.2517 34.1123
29.4361 33.921
29.6207 33.0173
29.8053 32.6026
29.99 32.3381
30.1748 32.2604
30.3597 32.0926
30.5447 31.9716
30.7297 31.9695
30.915 31.4507
31.1002 30.97
31.2855 30.6635
31.4708 30.5719
31.6563 30.1956
31.8418 29.9437
32.0275 29.6885
32.2132 29.2525
32.399 28.768
32.5848 28.2749
32.7708 27.9589
32.9569 27.7985
33.143 27.5633
33.3293 27.3314
33.5158 26.9621
33.7022 26.4284
33.8887 26.1078
34.0753 25.8428
34.262 25.566
34.4488 25.1088
34.6357 24.8253
34.8227 24.5521
35.0098 24.3516
35.1969 23.9951
35.3842 23.7856
35.5716 23.6003
35.759 23.4161
35.9468 22.9662
36.1345 22.7748
36.3222 22.5715
36.5101 22.2929
36.6981 21.9873
36.8861 21.6922
37.0743 21.3907
37.2626 21.1843
37.451 20.9087
37.6395 20.6895
37.8281 20.4051
38.0168 20.0413
38.2056 19.8617
38.3945 19.6269
38.5837 19.3227
38.7728 19.1156
38.9621 18.8583
39.1514 18.6049
39.3409 18.3368
39.5304 18.1483
39.7201 17.882
39.9099 17.7964
40.0999 17.4951
40.2899 17.2268
40.48 17.063
40.6703 16.7998
40.8607 16.6785
41.0512 16.4291
41.242 16.1608
41.4327 15.9433
41.6236 15.7529
41.8146 15.5621
42.0057 15.3622
42.1969 15.1848
42.3882 14.9229
42.5797 14.754
42.7713 14.5469
42.963 14.3088
43.1549 14.1339
43.3468 13.9426
43.5389 13.8019
43.7312 13.5834
43.9237 13.4077
44.1162 13.2096
44.3088 13.0163
44.5016 12.8039
44.6945 12.669
44.8875 12.4738
45.0806 12.302
45.2739 12.1258
45.4673 12.0001
45.6609 11.7919
45.8546 11.6298
46.0484 11.5175
46.2424 11.328
46.4365 11.1378
46.631 10.9674
46.8254 10.8099
47.0199 10.6752
47.2146 10.4902
47.4095 10.3508
47.6044 10.2319
47.7996 10.0349
47.9948 9.87307
48.1902 9.7755
48.3858 9.62488
48.5815 9.46266
48.7774 9.33529
48.9734 9.15659
49.1696 9.06945
49.3661 8.94332
49.5626 8.77426
49.7592 8.64579
49.956 8.52732
50.153 8.41503
50.3501 8.26131
50.5474 8.15189
50.7448 8.01707
50.9424 7.89456
51.1402 7.76718
51.3381 7.62561
51.5362 7.54806
51.7344 7.4064
51.9328 7.28448
52.1316 7.16462
52.3304 7.01044
52.5293 6.9092
52.7284 6.78379
52.9276 6.65499
53.1271 6.57373
53.3267 6.43887
53.5265 6.36941
53.7264 6.225
53.9266 6.14799
54.1269 6.04191
54.3274 5.93909
54.528 5.81356
54.7289 5.6277
54.9301 5.41687
55.1314 5.36852
55.3328 5.08409
55.5344 4.96829
55.7361 4.79398