File: XRD/Ni3Fe_FD0995.xy
TT I
1.27165 7.35404
1.45013 5.79429
1.62863 4.9645
1.80712 4.8401
1.98562 5.09777
2.16411 5.23663
2.34263 6.31064
2.52115 7.83996
2.69965 8.88461
2.87818 8.54201
3.05672 11.2581
3.23527 14.9921
3.4138 18.9387
3.59237 23.8815
3.77094 26.306
3.9495 29.4621
4.12809 34.5069
4.30669 255.527
4.4853 69.0703
4.6639 54.4961
4.84253 65.6227
5.02118 83.9078
5.19981 267.362
5.37848 173.576
5.55716 99.5482
5.73586 89.8097
5.91455 89.4162
6.09328 4522.4
6.27201 81.1492
6.45075 65.7511
6.62952 62.2222
6.8083 58.1933
6.98711 55.0386
7.16591 54.3622
7.34475 99.49
7.5236 53.8915
7.70247 55.2252
7.88135 56.8479
8.06026 61.3254
8.23919 68.1365
8.41812 82.6123
8.59709 1101.4
8.77609 96.3516
8.9551 90.8927
9.13412 79.8972
9.31318 80.6326
9.49226 82.4712
9.67134 98.154
9.85047 97.0848
10.0296 282.078
10.2088 373.069
10.388 102.068
10.5672 528.198
10.7465 84.6952
10.9257 77.5204
11.105 70.5587
11.2844 69.8329
11.4637 63.6776
11.6431 62.2358
11.8225 61.1935
12.002 61.7146
12.1814 148.235
12.3609 69.9563
12.5405 63.2565
12.72 69.2916
12.8996 69.2689
13.0792 76.6478
13.2589 222.032
13.4386 121.396
13.6183 235.91
13.7981 94.7057
13.9779 74.0545
14.1577 70.9655
14.3376 70.6438
14.5175 67.1957
14.6974 69.0465
14.8774 102.573
15.0574 150.79
15.2374 70.0488
15.4175 65.0261
15.5976 64.1636
15.7778 88.2868
15.958 153.896
16.1382 61.7319
16.3185 57.4472
16.4988 54.447
16.6792 53.3375
16.8596 54.2868
17.04 54.274
17.2205 64.4424
17.401 69.1059
17.5815 57.7894
17.7622 59.5783
17.9428 69.9115
18.1237 138.89
18.3044 87.9022
18.4852 75.7398
18.666 59.0539
18.8469 56.6563
19.0278 55.7532
19.2088 57.8737
19.3898 75.4894
19.5709 53.032
19.752 52.001
19.9332 54.5661
20.1144 69.0343
20.2957 63.0121
20.477 52.4067
20.6586 48.7724
20.84 47.8751
21.0215 47.4849
21.203 49.9551
21.3846 47.9095
21.5662 47.6657
21.7479 50.9168
21.9297 63.5398
22.1115 55.2986
22.2933 48.9254
22.4753 47.923
22.6572 47.5161
22.8393 50.3369
23.0214 56.5053
23.2037 47.7899
23.3859 48.4489
23.5682 56.3069
23.7505 47.2945
23.9329 44.3096
24.1154 43.3612
24.2979 42.5283
24.4805 41.9971
24.6631 41.8999
24.8458 41.2597
25.0286 41.7849
25.2114 43.7461
25.3943 43.7213
25.5773 40.0334
25.7605 39.6225
25.9436 39.9225
26.1268 40.9032
26.31 39.1657
26.4933 39.8081
26.6767 41.3334
26.8601 39.6834
27.0437 38.0781
27.2272 37.6654
27.4109 37.5001
27.5946 37.5472
27.7784 37.028
27.9623 37.578
28.1462 38.0068
28.3304 36.3803
28.5145 35.2486
28.6987 34.8275
28.8829 34.7856
29.0673 33.9418
29.2517 33.6455
29.4361 33.4655
29.6207 32.4064
29.8053 32.31
29.99 31.9895
30.1748 31.8332
30.3597 31.545
30.5447 31.4535
30.7297 31.5074
30.915 31.0074
31.1002 30.4417
31.2855 30.2337
31.4708 30.2384
31.6563 29.7465
31.8418 29.4825
32.0275 29.232
32.2132 28.8047
32.399 28.3035
32.5848 27.871
32.7708 27.5805
32.9569 27.4905
33.143 27.2892
33.3293 26.8922
33.5158 26.4793
33.7022 26.1248
33.8887 25.7975
34.0753 25.4233
34.262 25.097
34.4488 24.8309
34.6357 24.5426
34.8227 24.1793
35.0098 23.9603
35.1969 23.6986
35.3842 23.5137
35.5716 23.3215
35.759 22.9965
35.9468 22.6729
36.1345 22.5373
36.3222 22.251
36.5101 22.043
36.6981 21.7359
36.8861 21.3686
37.0743 21.0348
37.2626 20.8088
37.451 20.5882
37.6395 20.4476
37.8281 20.0737
38.0168 19.7993
38.2056 19.6022
38.3945 19.323
38.5837 19.1158
38.7728 18.8482
38.9621 18.6223
39.1514 18.4049
39.3409 18.1861
39.5304 17.8879
39.7201 17.7184
39.9099 17.5576
40.0999 17.2791
40.2899 16.999
40.48 16.8306
40.6703 16.6222
40.8607 16.4069
41.0512 16.2372
41.242 15.9778
41.4327 15.7468
41.6236 15.5276
41.8146 15.3503
42.0057 15.1435
42.1969 14.9664
42.3882 14.8011
42.5797 14.5923
42.7713 14.364
42.963 14.1149
43.1549 14.0
43.3468 13.7935
43.5389 13.5264
43.7312 13.3486
43.9237 13.2024
44.1162 13.0643
44.3088 12.7987
44.5016 12.6437
44.6945 12.477
44.8875 12.3525
45.0806 12.1434
45.2739 11.9877
45.4673 11.8289
45.6609 11.6037
45.8546 11.5082
46.0484 11.3136
46.2424 11.1617
46.4365 11.0098
46.631 10.8575
46.8254 10.6635
47.0199 10.5124
47.2146 10.3839
47.4095 10.2415
47.6044 10.0435
47.7996 9.90496
47.9948 9.76386
48.1902 9.61889
48.3858 9.46989
48.5815 9.36421
48.7774 9.24725
48.9734 9.06972
49.1696 8.93691
49.3661 8.7855
49.5626 8.63642
49.7592 8.58532
49.956 8.39851
50.153 8.31395
50.3501 8.14752
50.5474 8.04803
50.7448 7.91135
50.9424 7.79835
51.1402 7.66295
51.3381 7.53726
51.5362 7.42536
51.7344 7.32245
51.9328 7.15794
52.1316 7.05599
52.3304 6.93827
52.5293 6.83796
52.7284 6.70095
52.9276 6.59742
53.1271 6.51095
53.3267 6.41025
53.5265 6.24359
53.7264 6.15584
53.9266 6.09908
54.1269 5.94667
54.3274 5.86767
54.528 5.71444
54.7289 5.5645
54.9301 5.39721
55.1314 5.22871
55.3328 5.09709
55.5344 4.90286
55.7361 4.72065