File: XRD/Ni3Fe_FD0782.xy
TT I
1.27165 7.67591
1.45013 5.97046
1.62863 4.84932
1.80712 4.829
1.98562 4.60999
2.16411 4.7984
2.34263 5.5971
2.52115 7.42759
2.69965 8.65282
2.87818 8.76784
3.05672 11.188
3.23527 14.9549
3.4138 19.6279
3.59237 23.533
3.77094 25.8696
3.9495 29.5066
4.12809 34.2983
4.30669 176.695
4.4853 61.1196
4.6639 54.8162
4.84253 66.735
5.02118 86.06
5.19981 335.171
5.37848 176.436
5.55716 100.498
5.73586 90.6723
5.91455 92.7918
6.09328 4512.19
6.27201 80.9371
6.45075 66.6755
6.62952 61.7924
6.8083 57.7789
6.98711 55.0399
7.16591 54.799
7.34475 82.8759
7.5236 54.0636
7.70247 55.4464
7.88135 57.2131
8.06026 61.4858
8.23919 68.869
8.41812 83.5535
8.59709 1207.3
8.77609 97.0419
8.9551 89.3375
9.13412 80.938
9.31318 81.6156
9.49226 83.5946
9.67134 95.7486
9.85047 98.6851
10.0296 335.006
10.2088 347.075
10.388 103.075
10.5672 533.927
10.7465 85.1349
10.9257 77.0429
11.105 70.8988
11.2844 68.9436
11.4637 64.3301
11.6431 62.715
11.8225 61.6848
12.002 63.0453
12.1814 158.055
12.3609 68.134
12.5405 63.6697
12.72 68.5621
12.8996 70.2488
13.0792 78.3165
13.2589 241.274
13.4386 117.235
13.6183 252.937
13.7981 92.4543
13.9779 74.873
14.1577 71.3669
14.3376 70.4315
14.5175 68.1393
14.6974 69.7333
14.8774 109.583
15.0574 145.081
15.2374 69.6347
15.4175 65.5925
15.5976 65.111
15.7778 93.2573
15.958 149.683
16.1382 61.4754
16.3185 57.61
16.4988 54.8868
16.6792 53.8362
16.8596 54.5283
17.04 55.1837
17.2205 66.4606
17.401 68.8085
17.5815 58.5294
17.7622 60.6642
17.9428 72.8134
18.1237 141.811
18.3044 90.383
18.4852 74.1087
18.666 59.8094
18.8469 57.3217
19.0278 56.1704
19.2088 58.8406
19.3898 75.9788
19.5709 53.4678
19.752 52.6051
19.9332 55.5652
20.1144 69.4783
20.2957 64.008
20.477 52.3342
20.6586 49.0897
20.84 48.2947
21.0215 48.0676
21.203 50.3514
21.3846 48.325
21.5662 48.1517
21.7479 52.0386
21.9297 64.1375
22.1115 55.6945
22.2933 49.3364
22.4753 48.4348
22.6572 48.1881
22.8393 51.3698
23.0214 56.9196
23.2037 48.2706
23.3859 49.2672
23.5682 56.9824
23.7505 47.5225
23.9329 44.6634
24.1154 43.5904
24.2979 42.9688
24.4805 42.4271
24.6631 42.2567
24.8458 41.7735
25.0286 42.286
25.2114 44.3531
25.3943 44.0508
25.5773 40.3747
25.7605 39.9661
25.9436 40.2679
26.1268 41.2565
26.31 39.6129
26.4933 40.3354
26.6767 41.8677
26.8601 39.9598
27.0437 38.4524
27.2272 38.0795
27.4109 38.0133
27.5946 37.8776
27.7784 37.3391
27.9623 38.0167
28.1462 38.4439
28.3304 36.6371
28.5145 35.493
28.6987 35.1895
28.8829 35.0427
29.0673 34.2443
29.2517 33.9525
29.4361 33.7915
29.6207 32.7216
29.8053 32.5399
29.99 32.3335
30.1748 32.1215
30.3597 31.9437
30.5447 31.8726
30.7297 31.8964
30.915 31.2813
31.1002 30.8544
31.2855 30.5621
31.4708 30.4489
31.6563 30.0085
31.8418 29.81
32.0275 29.6202
32.2132 29.0509
32.399 28.6691
32.5848 28.1517
32.7708 27.864
32.9569 27.7719
33.143 27.4743
33.3293 27.1077
33.5158 26.748
33.7022 26.3571
33.8887 26.064
34.0753 25.7672
34.262 25.3801
34.4488 25.0342
34.6357 24.7293
34.8227 24.4483
35.0098 24.1959
35.1969 23.9044
35.3842 23.7921
35.5716 23.5227
35.759 23.1839
35.9468 22.9264
36.1345 22.6429
36.3222 22.4662
36.5101 22.1865
36.6981 21.8952
36.8861 21.5684
37.0743 21.3498
37.2626 21.0215
37.451 20.8061
37.6395 20.5937
37.8281 20.312
38.0168 20.0192
38.2056 19.7457
38.3945 19.472
38.5837 19.2508
38.7728 19.0496
38.9621 18.7978
39.1514 18.4731
39.3409 18.2769
39.5304 17.9877
39.7201 17.8463
39.9099 17.697
40.0999 17.3462
40.2899 17.2125
40.48 16.9284
40.6703 16.7455
40.8607 16.5649
41.0512 16.3313
41.242 16.1038
41.4327 15.9132
41.6236 15.7541
41.8146 15.5073
42.0057 15.2919
42.1969 15.077
42.3882 14.9255
42.5797 14.6622
42.7713 14.4653
42.963 14.303
43.1549 14.0995
43.3468 13.8728
43.5389 13.6403
43.7312 13.487
43.9237 13.3055
44.1162 13.1181
44.3088 12.9299
44.5016 12.7609
44.6945 12.6097
44.8875 12.3805
45.0806 12.2669
45.2739 12.0873
45.4673 11.9241
45.6609 11.7223
45.8546 11.5478
46.0484 11.4317
46.2424 11.229
46.4365 11.1038
46.631 10.9388
46.8254 10.7454
47.0199 10.6298
47.2146 10.4456
47.4095 10.267
47.6044 10.1524
47.7996 9.99995
47.9948 9.79881
48.1902 9.68021
48.3858 9.5513
48.5815 9.39183
48.7774 9.33205
48.9734 9.14705
49.1696 9.00374
49.3661 8.86525
49.5626 8.6971
49.7592 8.60951
49.956 8.49741
50.153 8.36341
50.3501 8.2326
50.5474 8.07167
50.7448 7.96968
50.9424 7.85488
51.1402 7.75415
51.3381 7.60645
51.5362 7.5246
51.7344 7.34412
51.9328 7.19669
52.1316 7.07834
52.3304 7.02527
52.5293 6.90893
52.7284 6.73389
52.9276 6.65596
53.1271 6.56845
53.3267 6.42004
53.5265 6.28761
53.7264 6.2333
53.9266 6.1213
54.1269 5.92938
54.3274 5.89476
54.528 5.76164
54.7289 5.63294
54.9301 5.40988
55.1314 5.28473
55.3328 5.08185
55.5344 4.95143
55.7361 4.8142