File: XRD/Ni3Fe_FD0438.xy
TT I
1.27165 7.42397
1.45013 5.951
1.62863 5.15504
1.80712 4.37922
1.98562 4.77998
2.16411 4.59159
2.34263 5.29502
2.52115 6.50634
2.69965 7.02014
2.87818 8.55869
3.05672 11.1386
3.23527 15.1189
3.4138 18.7045
3.59237 23.6933
3.77094 26.2504
3.9495 29.9641
4.12809 35.0652
4.30669 182.08
4.4853 62.5446
4.6639 56.0615
4.84253 67.9478
5.02118 89.5807
5.19981 457.77
5.37848 205.734
5.55716 104.007
5.73586 94.339
5.91455 98.0223
6.09328 4226.54
6.27201 84.3493
6.45075 68.5645
6.62952 63.4845
6.8083 59.2189
6.98711 56.3515
7.16591 55.8376
7.34475 84.9438
7.5236 55.5719
7.70247 56.982
7.88135 58.6562
8.06026 63.414
8.23919 70.6155
8.41812 87.1504
8.59709 1221.58
8.77609 101.721
8.9551 92.0899
9.13412 83.086
9.31318 83.9906
9.49226 86.1416
9.67134 98.5154
9.85047 101.916
10.0296 391.145
10.2088 431.83
10.388 107.039
10.5672 508.982
10.7465 87.982
10.9257 79.2341
11.105 72.4225
11.2844 71.0598
11.4637 65.7818
11.6431 64.5847
11.8225 63.498
12.002 64.8998
12.1814 153.477
12.3609 70.6799
12.5405 65.4422
12.72 70.3129
12.8996 72.2725
13.0792 80.7768
13.2589 244.222
13.4386 127.317
13.6183 248.744
13.7981 98.6861
13.9779 76.9082
14.1577 73.6076
14.3376 72.4295
14.5175 70.0437
14.6974 71.8199
14.8774 115.83
15.0574 152.978
15.2374 71.6793
15.4175 67.314
15.5976 66.8459
15.7778 99.3074
15.958 158.987
16.1382 63.4237
16.3185 59.329
16.4988 56.2995
16.6792 55.4355
16.8596 56.0925
17.04 56.9852
17.2205 67.9913
17.401 72.2926
17.5815 60.1439
17.7622 62.2991
17.9428 76.5707
18.1237 139.075
18.3044 91.4959
18.4852 78.7086
18.666 61.4361
18.8469 59.0581
19.0278 57.844
19.2088 60.4945
19.3898 77.2755
19.5709 55.1352
19.752 54.2512
19.9332 57.4762
20.1144 70.7736
20.2957 64.4184
20.477 54.5666
20.6586 50.4448
20.84 49.7087
21.0215 49.4524
21.203 51.5589
21.3846 49.7887
21.5662 49.8113
21.7479 53.7239
21.9297 65.5977
22.1115 56.679
22.2933 50.728
22.4753 49.7588
22.6572 49.7391
22.8393 52.8654
23.0214 58.4423
23.2037 49.6891
23.3859 50.7934
23.5682 57.4312
23.7505 49.1323
23.9329 46.0394
24.1154 44.9723
24.2979 44.177
24.4805 43.5952
24.6631 43.5164
24.8458 43.0121
25.0286 43.6689
25.2114 45.364
25.3943 45.3944
25.5773 41.6563
25.7605 41.1029
25.9436 41.6263
26.1268 42.4142
26.31 40.8583
26.4933 41.5299
26.6767 42.9707
26.8601 41.1166
27.0437 39.5287
27.2272 39.1541
27.4109 39.0007
27.5946 38.9781
27.7784 38.5597
27.9623 39.0509
28.1462 39.4349
28.3304 37.8281
28.5145 36.6214
28.6987 36.2619
28.8829 36.0207
29.0673 35.2923
29.2517 34.8718
29.4361 34.7317
29.6207 33.6177
29.8053 33.4651
29.99 33.158
30.1748 32.9288
30.3597 32.8421
30.5447 32.6731
30.7297 32.7635
30.915 32.1647
31.1002 31.6125
31.2855 31.3524
31.4708 31.3028
31.6563 30.9253
31.8418 30.6002
32.0275 30.4609
32.2132 30.0208
32.399 29.5154
32.5848 28.9679
32.7708 28.646
32.9569 28.4553
33.143 28.214
33.3293 27.9099
33.5158 27.4951
33.7022 27.1108
33.8887 26.8103
34.0753 26.467
34.262 26.1389
34.4488 25.715
34.6357 25.31
34.8227 25.0516
35.0098 24.9164
35.1969 24.6018
35.3842 24.3382
35.5716 24.1951
35.759 23.8763
35.9468 23.4881
36.1345 23.3166
36.3222 23.0931
36.5101 22.7699
36.6981 22.5094
36.8861 22.1158
37.0743 21.8862
37.2626 21.5786
37.451 21.357
37.6395 21.2152
37.8281 20.8462
38.0168 20.5825
38.2056 20.2537
38.3945 20.0215
38.5837 19.8283
38.7728 19.5734
38.9621 19.3293
39.1514 19.0654
39.3409 18.7808
39.5304 18.5716
39.7201 18.3733
39.9099 18.1187
40.0999 17.8723
40.2899 17.6462
40.48 17.4611
40.6703 17.2151
40.8607 16.9652
41.0512 16.8061
41.242 16.5085
41.4327 16.322
41.6236 16.139
41.8146 15.8834
42.0057 15.6583
42.1969 15.4819
42.3882 15.2978
42.5797 15.0601
42.7713 14.8896
42.963 14.6275
43.1549 14.4857
43.3468 14.255
43.5389 14.127
43.7312 13.8818
43.9237 13.7134
44.1162 13.4641
44.3088 13.2967
44.5016 13.1257
44.6945 12.9427
44.8875 12.7362
45.0806 12.568
45.2739 12.3781
45.4673 12.2349
45.6609 12.0591
45.8546 11.8849
46.0484 11.7139
46.2424 11.5174
46.4365 11.3964
46.631 11.1953
46.8254 11.0364
47.0199 10.8774
47.2146 10.7533
47.4095 10.5354
47.6044 10.4033
47.7996 10.2297
47.9948 10.1298
48.1902 9.9509
48.3858 9.81693
48.5815 9.66126
48.7774 9.5085
48.9734 9.38504
49.1696 9.27769
49.3661 9.1051
49.5626 8.93559
49.7592 8.86805
49.956 8.68045
50.153 8.56689
50.3501 8.46262
50.5474 8.29665
50.7448 8.18342
50.9424 8.06817
51.1402 7.9513
51.3381 7.77882
51.5362 7.68727
51.7344 7.56354
51.9328 7.46614
52.1316 7.29702
52.3304 7.20204
52.5293 7.09359
52.7284 6.97918
52.9276 6.82379
53.1271 6.74793
53.3267 6.57154
53.5265 6.50496
53.7264 6.36633
53.9266 6.2404
54.1269 6.14112
54.3274 6.04112
54.528 5.87735
54.7289 5.73445
54.9301 5.61897
55.1314 5.41521
55.3328 5.24831
55.5344 5.04736
55.7361 4.88594