File: XRD/Ni3Fe_FD0687.xy
TT I
1.27165 7.68559
1.45013 6.1108
1.62863 5.14909
1.80712 4.85171
1.98562 4.84281
2.16411 4.14112
2.34263 5.01236
2.52115 6.79067
2.69965 8.03039
2.87818 8.79218
3.05672 10.9091
3.23527 15.08
3.4138 18.4974
3.59237 23.0309
3.77094 25.9462
3.9495 28.8764
4.12809 34.1982
4.30669 131.449
4.4853 56.6704
4.6639 55.5725
4.84253 67.7581
5.02118 87.4665
5.19981 418.402
5.37848 191.619
5.55716 102.381
5.73586 92.5885
5.91455 95.5344
6.09328 4585.38
6.27201 80.9986
6.45075 68.098
6.62952 62.3869
6.8083 58.6298
6.98711 55.5227
7.16591 55.3223
7.34475 73.3174
7.5236 54.6299
7.70247 56.2052
7.88135 57.483
8.06026 62.3553
8.23919 69.3501
8.41812 84.3895
8.59709 1235.04
8.77609 98.2708
8.9551 89.2154
9.13412 82.2586
9.31318 83.7643
9.49226 84.8528
9.67134 95.5768
9.85047 100.441
10.0296 366.729
10.2088 361.005
10.388 104.885
10.5672 514.09
10.7465 86.0818
10.9257 77.9894
11.105 71.4203
11.2844 68.8299
11.4637 64.5633
11.6431 63.5515
11.8225 62.2883
12.002 64.1827
12.1814 154.763
12.3609 67.814
12.5405 64.7439
12.72 68.3641
12.8996 71.1844
13.0792 79.882
13.2589 248.352
13.4386 120.11
13.6183 255.679
13.7981 93.7183
13.9779 75.6154
14.1577 71.9413
14.3376 70.7023
14.5175 68.7814
14.6974 70.6505
14.8774 113.583
15.0574 140.126
15.2374 70.1106
15.4175 66.1685
15.5976 65.9914
15.7778 96.9155
15.958 149.774
16.1382 61.5932
16.3185 58.1011
16.4988 55.4606
16.6792 54.3752
16.8596 54.863
17.04 56.0693
17.2205 67.4299
17.401 69.9085
17.5815 59.2138
17.7622 61.2183
17.9428 74.7585
18.1237 142.623
18.3044 91.3489
18.4852 75.5035
18.666 60.3483
18.8469 58.0864
19.0278 56.8188
19.2088 59.3752
19.3898 76.0563
19.5709 54.1166
19.752 53.0232
19.9332 56.5061
20.1144 70.0801
20.2957 64.1207
20.477 52.8415
20.6586 49.6937
20.84 48.7417
21.0215 48.6028
21.203 50.8844
21.3846 48.7336
21.5662 48.8696
21.7479 52.8722
21.9297 64.8544
22.1115 55.8733
22.2933 49.5706
22.4753 48.6663
22.6572 48.9215
22.8393 52.2306
23.0214 57.067
23.2037 48.6755
23.3859 49.8168
23.5682 57.1316
23.7505 47.9894
23.9329 45.1569
24.1154 43.8924
24.2979 43.2907
24.4805 42.8367
24.6631 42.6897
24.8458 42.1408
25.0286 42.7177
25.2114 44.6158
25.3943 44.4435
25.5773 40.778
25.7605 40.4129
25.9436 40.8761
26.1268 41.6987
26.31 39.9868
26.4933 40.5949
26.6767 42.1558
26.8601 40.2518
27.0437 38.6914
27.2272 38.5928
27.4109 38.3924
27.5946 38.2727
27.7784 37.811
27.9623 38.4917
28.1462 38.757
28.3304 37.0568
28.5145 35.9157
28.6987 35.5088
28.8829 35.2775
29.0673 34.6915
29.2517 34.3457
29.4361 34.1203
29.6207 33.0843
29.8053 32.8867
29.99 32.6303
30.1748 32.4238
30.3597 32.1495
30.5447 32.1388
30.7297 32.2202
30.915 31.4848
31.1002 31.0261
31.2855 30.7949
31.4708 30.758
31.6563 30.2497
31.8418 30.1518
32.0275 29.9449
32.2132 29.3324
32.399 28.855
32.5848 28.4757
32.7708 28.0511
32.9569 27.9909
33.143 27.7548
33.3293 27.2933
33.5158 26.9203
33.7022 26.5757
33.8887 26.2444
34.0753 25.9134
34.262 25.613
34.4488 25.2593
34.6357 24.9483
34.8227 24.6279
35.0098 24.462
35.1969 24.1101
35.3842 23.9149
35.5716 23.6779
35.759 23.4168
35.9468 23.0955
36.1345 22.9152
36.3222 22.7136
36.5101 22.3849
36.6981 22.1058
36.8861 21.7442
37.0743 21.4792
37.2626 21.1693
37.451 20.9504
37.6395 20.8065
37.8281 20.4523
38.0168 20.236
38.2056 19.9247
38.3945 19.6168
38.5837 19.4259
38.7728 19.1524
38.9621 18.8609
39.1514 18.6563
39.3409 18.39
39.5304 18.2629
39.7201 18.0208
39.9099 17.8198
40.0999 17.5931
40.2899 17.3568
40.48 17.0858
40.6703 16.8673
40.8607 16.6814
41.0512 16.4994
41.242 16.1859
41.4327 16.0479
41.6236 15.8273
41.8146 15.6488
42.0057 15.3879
42.1969 15.2108
42.3882 15.021
42.5797 14.7533
42.7713 14.6011
42.963 14.3715
43.1549 14.2275
43.3468 14.0089
43.5389 13.8509
43.7312 13.592
43.9237 13.4492
44.1162 13.2192
44.3088 13.0647
44.5016 12.8477
44.6945 12.6991
44.8875 12.5307
45.0806 12.3352
45.2739 12.1831
45.4673 12.0515
45.6609 11.8529
45.8546 11.6421
46.0484 11.5373
46.2424 11.3239
46.4365 11.2041
46.631 10.9819
46.8254 10.839
47.0199 10.6841
47.2146 10.5465
47.4095 10.3715
47.6044 10.2033
47.7996 10.0861
47.9948 9.90398
48.1902 9.76214
48.3858 9.6583
48.5815 9.54984
48.7774 9.36405
48.9734 9.23033
49.1696 9.07161
49.3661 8.96201
49.5626 8.8398
49.7592 8.66829
49.956 8.53524
50.153 8.43467
50.3501 8.29151
50.5474 8.17862
50.7448 8.02259
50.9424 7.91122
51.1402 7.78172
51.3381 7.63121
51.5362 7.52802
51.7344 7.4044
51.9328 7.2696
52.1316 7.15995
52.3304 7.06879
52.5293 6.92335
52.7284 6.84037
52.9276 6.69389
53.1271 6.62417
53.3267 6.48254
53.5265 6.37357
53.7264 6.25861
53.9266 6.18719
54.1269 6.06185
54.3274 5.92117
54.528 5.77955
54.7289 5.62147
54.9301 5.49513
55.1314 5.37239
55.3328 5.10373
55.5344 4.95991
55.7361 4.82433