File: XRD/Ni3Fe_FD0633.xy
TT I
1.27165 6.68573
1.45013 6.38667
1.62863 5.44004
1.80712 5.05261
1.98562 5.42794
2.16411 5.07396
2.34263 5.87791
2.52115 7.03397
2.69965 8.12096
2.87818 8.26503
3.05672 10.7454
3.23527 14.9408
3.4138 18.9005
3.59237 24.4794
3.77094 26.4151
3.9495 30.3373
4.12809 35.0123
4.30669 243.454
4.4853 68.5502
4.6639 55.6833
4.84253 67.3438
5.02118 86.9156
5.19981 340.573
5.37848 195.088
5.55716 102.084
5.73586 92.4548
5.91455 93.7737
6.09328 4391.26
6.27201 84.0792
6.45075 67.6396
6.62952 63.2943
6.8083 58.8239
6.98711 56.2292
7.16591 55.6384
7.34475 97.9754
7.5236 55.1137
7.70247 56.3042
7.88135 58.3087
8.06026 62.6515
8.23919 69.3534
8.41812 85.7135
8.59709 1131.75
8.77609 100.391
8.9551 92.7744
9.13412 82.0466
9.31318 82.3112
9.49226 84.5619
9.67134 99.9487
9.85047 99.8881
10.0296 328.851
10.2088 430.883
10.388 105.063
10.5672 501.427
10.7465 87.3078
10.9257 78.6922
11.105 72.3678
11.2844 71.1346
11.4637 65.3321
11.6431 64.3507
11.8225 62.6186
12.002 63.6185
12.1814 148.816
12.3609 72.0679
12.5405 64.8473
12.72 70.7997
12.8996 71.1687
13.0792 78.8007
13.2589 232.422
13.4386 127.68
13.6183 242.133
13.7981 100.568
13.9779 76.0649
14.1577 72.7402
14.3376 72.1041
14.5175 68.837
14.6974 70.5327
14.8774 108.764
15.0574 152.591
15.2374 71.6593
15.4175 66.5416
15.5976 65.9988
15.7778 93.8304
15.958 158.896
16.1382 63.2507
16.3185 59.2695
16.4988 55.5795
16.6792 54.7011
16.8596 55.5005
17.04 56.0096
17.2205 66.4258
17.401 72.2634
17.5815 59.3868
17.7622 61.3811
17.9428 73.1843
18.1237 139.322
18.3044 90.1487
18.4852 79.5013
18.666 60.5757
18.8469 58.2675
19.0278 57.0654
19.2088 59.9197
19.3898 76.6903
19.5709 54.621
19.752 53.5319
19.9332 56.1093
20.1144 69.7224
20.2957 63.9263
20.477 54.1841
20.6586 49.8403
20.84 49.0839
21.0215 48.7912
21.203 50.7985
21.3846 49.0921
21.5662 48.7794
21.7479 52.4626
21.9297 64.5565
22.1115 56.366
22.2933 50.0722
22.4753 49.0752
22.6572 49.0464
22.8393 51.7722
23.0214 57.6758
23.2037 49.0506
23.3859 49.9123
23.5682 56.8129
23.7505 48.6668
23.9329 45.2906
24.1154 44.1975
24.2979 43.5957
24.4805 42.9729
24.6631 43.0258
24.8458 42.2745
25.0286 43.1002
25.2114 44.7651
25.3943 44.7432
25.5773 41.1269
25.7605 40.6219
25.9436 41.0487
26.1268 41.9356
26.31 40.2051
26.4933 40.872
26.6767 42.3835
26.8601 40.6796
27.0437 39.0267
27.2272 38.8028
27.4109 38.5807
27.5946 38.4964
27.7784 37.9653
27.9623 38.6328
28.1462 38.9075
28.3304 37.4324
28.5145 36.0887
28.6987 35.7926
28.8829 35.5027
29.0673 34.8877
29.2517 34.5064
29.4361 34.3137
29.6207 33.2708
29.8053 33.0586
29.99 32.8046
30.1748 32.5643
30.3597 32.3479
30.5447 32.1921
30.7297 32.3369
30.915 31.7194
31.1002 31.3431
31.2855 31.1087
31.4708 30.8899
31.6563 30.4681
31.8418 30.1787
32.0275 30.0277
32.2132 29.5268
32.399 29.0813
32.5848 28.6669
32.7708 28.2975
32.9569 28.0877
33.143 27.8473
33.3293 27.5364
33.5158 27.1431
33.7022 26.6126
33.8887 26.3958
34.0753 26.124
34.262 25.7998
34.4488 25.4365
34.6357 25.0163
34.8227 24.8158
35.0098 24.6754
35.1969 24.3103
35.3842 24.0946
35.5716 23.9401
35.759 23.6089
35.9468 23.2662
36.1345 22.9516
36.3222 22.7498
36.5101 22.5831
36.6981 22.2072
36.8861 21.9579
37.0743 21.5802
37.2626 21.3628
37.451 21.0727
37.6395 20.9704
37.8281 20.5229
38.0168 20.2603
38.2056 20.0581
38.3945 19.7855
38.5837 19.5009
38.7728 19.3124
38.9621 19.086
39.1514 18.7684
39.3409 18.574
39.5304 18.3579
39.7201 18.1811
39.9099 17.8919
40.0999 17.676
40.2899 17.4232
40.48 17.136
40.6703 17.0447
40.8607 16.8358
41.0512 16.5858
41.242 16.3324
41.4327 16.1196
41.6236 15.8984
41.8146 15.7022
42.0057 15.5147
42.1969 15.281
42.3882 15.091
42.5797 14.9046
42.7713 14.7563
42.963 14.4842
43.1549 14.3108
43.3468 14.0965
43.5389 13.9232
43.7312 13.7457
43.9237 13.5069
44.1162 13.356
44.3088 13.1052
44.5016 12.9681
44.6945 12.7495
44.8875 12.6162
45.0806 12.4632
45.2739 12.244
45.4673 12.1113
45.6609 11.9292
45.8546 11.7492
46.0484 11.5759
46.2424 11.4302
46.4365 11.2408
46.631 11.0909
46.8254 10.9339
47.0199 10.7623
47.2146 10.6367
47.4095 10.4608
47.6044 10.3001
47.7996 10.1076
47.9948 9.99964
48.1902 9.84557
48.3858 9.68237
48.5815 9.60428
48.7774 9.41657
48.9734 9.28836
49.1696 9.11895
49.3661 8.99793
49.5626 8.91508
49.7592 8.72344
49.956 8.64285
50.153 8.48359
50.3501 8.32201
50.5474 8.18843
50.7448 8.12075
50.9424 7.98583
51.1402 7.85112
51.3381 7.70326
51.5362 7.56942
51.7344 7.49624
51.9328 7.34785
52.1316 7.20752
52.3304 7.07908
52.5293 6.97865
52.7284 6.88046
52.9276 6.75972
53.1271 6.66007
53.3267 6.52866
53.5265 6.37673
53.7264 6.30401
53.9266 6.19591
54.1269 6.08595
54.3274 5.98635
54.528 5.86352
54.7289 5.67919
54.9301 5.54914
55.1314 5.39376
55.3328 5.18844
55.5344 5.06789
55.7361 4.85574