File: XRD/Ni3Fe_FD0804.xy
TT I
1.27165 6.97695
1.45013 6.13859
1.62863 4.90691
1.80712 4.63384
1.98562 4.81557
2.16411 4.63977
2.34263 5.76961
2.52115 6.61297
2.69965 8.25932
2.87818 8.4734
3.05672 10.7567
3.23527 15.1144
3.4138 18.9239
3.59237 23.4364
3.77094 25.8493
3.9495 29.4572
4.12809 34.2259
4.30669 120.746
4.4853 55.6344
4.6639 55.1409
4.84253 67.9137
5.02118 86.2145
5.19981 388.63
5.37848 185.316
5.55716 100.993
5.73586 92.4191
5.91455 94.1249
6.09328 4533.84
6.27201 79.6574
6.45075 68.3889
6.62952 62.1288
6.8083 58.7091
6.98711 54.9446
7.16591 55.1672
7.34475 71.3829
7.5236 54.0101
7.70247 56.1995
7.88135 57.0149
8.06026 61.9591
8.23919 68.9064
8.41812 83.659
8.59709 1217.64
8.77609 96.8488
8.9551 88.8708
9.13412 82.1031
9.31318 83.6542
9.49226 83.8579
9.67134 95.1889
9.85047 100.279
10.0296 343.129
10.2088 343.232
10.388 104.345
10.5672 533.499
10.7465 85.7264
10.9257 77.4327
11.105 70.6899
11.2844 68.0346
11.4637 63.8863
11.6431 62.6076
11.8225 61.8711
12.002 63.4975
12.1814 158.099
12.3609 66.5359
12.5405 63.9107
12.72 67.7082
12.8996 70.6538
13.0792 79.8468
13.2589 248.961
13.4386 116.98
13.6183 257.06
13.7981 92.4359
13.9779 74.9973
14.1577 71.3239
14.3376 69.7682
14.5175 68.2655
14.6974 70.0936
14.8774 111.496
15.0574 140.415
15.2374 69.0619
15.4175 65.9226
15.5976 65.2053
15.7778 95.0848
15.958 145.263
16.1382 60.8417
16.3185 57.4719
16.4988 54.7102
16.6792 53.8873
16.8596 54.2234
17.04 55.4718
17.2205 66.7413
17.401 68.582
17.5815 58.6877
17.7622 60.8288
17.9428 73.2407
18.1237 141.245
18.3044 91.2121
18.4852 73.8843
18.666 59.5801
18.8469 57.4105
19.0278 56.1794
19.2088 58.6881
19.3898 75.6061
19.5709 53.6097
19.752 52.8252
19.9332 55.7429
20.1144 69.8275
20.2957 63.9912
20.477 52.4149
20.6586 49.2101
20.84 48.225
21.0215 48.0649
21.203 50.5451
21.3846 48.2701
21.5662 48.5521
21.7479 52.2626
21.9297 64.3953
22.1115 55.8531
22.2933 49.1771
22.4753 48.1972
22.6572 48.4406
22.8393 51.6611
23.0214 56.5114
23.2037 48.3138
23.3859 49.2481
23.5682 57.1649
23.7505 47.3688
23.9329 44.6838
24.1154 43.6016
24.2979 42.9103
24.4805 42.4421
24.6631 42.357
24.8458 41.8032
25.0286 42.498
25.2114 44.2218
25.3943 44.065
25.5773 40.4623
25.7605 40.0809
25.9436 40.4144
26.1268 41.3134
26.31 39.6148
26.4933 40.2734
26.6767 41.8086
26.8601 40.029
27.0437 38.509
27.2272 38.1145
27.4109 38.0557
27.5946 37.9999
27.7784 37.5715
27.9623 38.1716
28.1462 38.3648
28.3304 36.669
28.5145 35.5165
28.6987 35.2682
28.8829 35.0598
29.0673 34.219
29.2517 33.9311
29.4361 33.8662
29.6207 32.7135
29.8053 32.5662
29.99 32.1634
30.1748 32.0793
30.3597 31.874
30.5447 31.7877
30.7297 31.9496
30.915 31.2248
31.1002 30.6869
31.2855 30.5615
31.4708 30.5224
31.6563 30.003
31.8418 29.8328
32.0275 29.5837
32.2132 29.0358
32.399 28.6453
32.5848 28.1977
32.7708 27.7615
32.9569 27.7265
33.143 27.5011
33.3293 27.0916
33.5158 26.7057
33.7022 26.3233
33.8887 26.0416
34.0753 25.7457
34.262 25.4652
34.4488 25.0446
34.6357 24.6644
34.8227 24.4283
35.0098 24.1723
35.1969 23.9531
35.3842 23.6868
35.5716 23.5536
35.759 23.19
35.9468 22.8721
36.1345 22.6251
36.3222 22.3883
36.5101 22.1908
36.6981 21.9613
36.8861 21.5509
37.0743 21.333
37.2626 21.0356
37.451 20.7957
37.6395 20.5785
37.8281 20.2976
38.0168 19.9082
38.2056 19.7567
38.3945 19.4525
38.5837 19.2168
38.7728 18.9938
38.9621 18.7712
39.1514 18.52
39.3409 18.2986
39.5304 18.0127
39.7201 17.8308
39.9099 17.6651
40.0999 17.4246
40.2899 17.1929
40.48 16.901
40.6703 16.7526
40.8607 16.5581
41.0512 16.2953
41.242 16.082
41.4327 15.8702
41.6236 15.6241
41.8146 15.5158
42.0057 15.2919
42.1969 15.0874
42.3882 14.8844
42.5797 14.6574
42.7713 14.4921
42.963 14.2443
43.1549 14.1266
43.3468 13.9009
43.5389 13.7259
43.7312 13.5239
43.9237 13.3024
44.1162 13.1082
44.3088 12.9583
44.5016 12.7487
44.6945 12.5829
44.8875 12.4002
45.0806 12.2836
45.2739 12.0623
45.4673 11.8805
45.6609 11.7109
45.8546 11.6045
46.0484 11.4386
46.2424 11.2312
46.4365 11.0995
46.631 10.9022
46.8254 10.7065
47.0199 10.5652
47.2146 10.4657
47.4095 10.2679
47.6044 10.1196
47.7996 9.95562
47.9948 9.80637
48.1902 9.70372
48.3858 9.53507
48.5815 9.42481
48.7774 9.31332
48.9734 9.16772
49.1696 9.0262
49.3661 8.87003
49.5626 8.70201
49.7592 8.5882
49.956 8.47294
50.153 8.32394
50.3501 8.20841
50.5474 8.06152
50.7448 7.97809
50.9424 7.8396
51.1402 7.74502
51.3381 7.58927
51.5362 7.48709
51.7344 7.39489
51.9328 7.24362
52.1316 7.08388
52.3304 6.97174
52.5293 6.93091
52.7284 6.72143
52.9276 6.64603
53.1271 6.53559
53.3267 6.45181
53.5265 6.29564
53.7264 6.19072
53.9266 6.06164
54.1269 5.96492
54.3274 5.8582
54.528 5.74732
54.7289 5.58138
54.9301 5.41667
55.1314 5.30061
55.3328 5.07007
55.5344 4.9071
55.7361 4.79917