File: XRD/Ni3Fe_FD0978.xy
TT I
1.27165 7.46328
1.45013 6.46037
1.62863 4.97832
1.80712 4.60563
1.98562 4.99044
2.16411 5.21671
2.34263 6.11613
2.52115 7.10075
2.69965 8.83234
2.87818 8.45693
3.05672 10.9484
3.23527 15.3412
3.4138 19.1822
3.59237 23.9683
3.77094 26.3623
3.9495 29.4919
4.12809 33.9318
4.30669 224.095
4.4853 65.9029
4.6639 54.38
4.84253 65.5747
5.02118 84.0812
5.19981 272.617
5.37848 172.087
5.55716 99.2719
5.73586 90.0837
5.91455 90.1515
6.09328 4588.99
6.27201 80.8222
6.45075 65.8307
6.62952 61.7283
6.8083 57.756
6.98711 54.73
7.16591 54.2811
7.34475 92.3106
7.5236 53.493
7.70247 55.401
7.88135 56.9569
8.06026 60.9286
8.23919 68.3102
8.41812 82.9169
8.59709 1117.19
8.77609 96.121
8.9551 90.1052
9.13412 80.1623
9.31318 80.6568
9.49226 82.6266
9.67134 96.8348
9.85047 97.5411
10.0296 293.626
10.2088 369.229
10.388 101.689
10.5672 522.188
10.7465 84.4804
10.9257 77.0941
11.105 70.4314
11.2844 69.2161
11.4637 63.5724
11.6431 62.4519
11.8225 61.1643
12.002 62.0129
12.1814 153.857
12.3609 69.7907
12.5405 63.1543
12.72 68.807
12.8996 69.3207
13.0792 76.8324
13.2589 230.771
13.4386 120.546
13.6183 243.919
13.7981 94.5469
13.9779 74.076
14.1577 71.0014
14.3376 70.3329
14.5175 67.2428
14.6974 68.7802
14.8774 104.512
15.0574 148.563
15.2374 69.5525
15.4175 64.9529
15.5976 64.3457
15.7778 89.5643
15.958 152.738
16.1382 61.3998
16.3185 57.577
16.4988 54.4068
16.6792 53.3922
16.8596 54.1132
17.04 54.5746
17.2205 64.6485
17.401 68.3881
17.5815 57.9558
17.7622 59.767
17.9428 70.3663
18.1237 139.041
18.3044 89.0128
18.4852 75.688
18.666 59.0042
18.8469 56.8749
19.0278 55.5105
19.2088 57.8591
19.3898 75.7302
19.5709 52.9899
19.752 52.123
19.9332 54.8536
20.1144 68.7976
20.2957 63.2978
20.477 52.5566
20.6586 48.4363
20.84 47.8815
21.0215 47.5732
21.203 50.0446
21.3846 48.0124
21.5662 47.7141
21.7479 51.2625
21.9297 63.7581
22.1115 55.3647
22.2933 48.9264
22.4753 47.9615
22.6572 47.6705
22.8393 50.5609
23.0214 56.2454
23.2037 47.6111
23.3859 48.3696
23.5682 56.3627
23.7505 47.3412
23.9329 44.3397
24.1154 43.1195
24.2979 42.5279
24.4805 42.1286
24.6631 42.1186
24.8458 41.3117
25.0286 41.8709
25.2114 43.7864
25.3943 43.8205
25.5773 40.0745
25.7605 39.6103
25.9436 40.0253
26.1268 40.9077
26.31 39.3629
26.4933 39.8719
26.6767 41.3772
26.8601 39.6504
27.0437 38.0621
27.2272 37.6448
27.4109 37.6202
27.5946 37.5532
27.7784 37.2477
27.9623 37.6938
28.1462 37.9491
28.3304 36.3938
28.5145 35.3083
28.6987 34.9237
28.8829 34.7227
29.0673 33.9738
29.2517 33.7056
29.4361 33.5382
29.6207 32.4859
29.8053 32.2785
29.99 31.9858
30.1748 31.8528
30.3597 31.6334
30.5447 31.5405
30.7297 31.5698
30.915 31.0909
31.1002 30.4874
31.2855 30.3357
31.4708 30.2344
31.6563 29.7359
31.8418 29.5557
32.0275 29.322
32.2132 28.8172
32.399 28.3247
32.5848 27.95
32.7708 27.5621
32.9569 27.4742
33.143 27.2569
33.3293 26.8482
33.5158 26.5965
33.7022 26.1243
33.8887 25.8227
34.0753 25.5182
34.262 25.1821
34.4488 24.704
34.6357 24.5261
34.8227 24.2304
35.0098 24.1287
35.1969 23.7838
35.3842 23.6215
35.5716 23.3557
35.759 23.0911
35.9468 22.6426
36.1345 22.4943
36.3222 22.1794
36.5101 21.9818
36.6981 21.719
36.8861 21.4113
37.0743 21.0801
37.2626 20.8371
37.451 20.5731
37.6395 20.4331
37.8281 20.03
38.0168 19.865
38.2056 19.5699
38.3945 19.2824
38.5837 19.1303
38.7728 18.8257
38.9621 18.5709
39.1514 18.3677
39.3409 18.0984
39.5304 17.9046
39.7201 17.7413
39.9099 17.5557
40.0999 17.3167
40.2899 17.0199
40.48 16.7417
40.6703 16.5985
40.8607 16.4219
41.0512 16.221
41.242 15.9884
41.4327 15.7614
41.6236 15.5376
41.8146 15.369
42.0057 15.1872
42.1969 14.9619
42.3882 14.802
42.5797 14.5568
42.7713 14.3624
42.963 14.1764
43.1549 13.9596
43.3468 13.7787
43.5389 13.5682
43.7312 13.3839
43.9237 13.1763
44.1162 13.022
44.3088 12.8534
44.5016 12.6274
44.6945 12.5135
44.8875 12.3513
45.0806 12.1392
45.2739 11.9775
45.4673 11.8407
45.6609 11.6671
45.8546 11.5073
46.0484 11.308
46.2424 11.2023
46.4365 11.0007
46.631 10.8303
46.8254 10.6772
47.0199 10.515
47.2146 10.4085
47.4095 10.2194
47.6044 10.0569
47.7996 9.89315
47.9948 9.79798
48.1902 9.62162
48.3858 9.49224
48.5815 9.36575
48.7774 9.22312
48.9734 9.09366
49.1696 8.93649
49.3661 8.80049
49.5626 8.65174
49.7592 8.52255
49.956 8.42762
50.153 8.29223
50.3501 8.16527
50.5474 8.04145
50.7448 7.91353
50.9424 7.79764
51.1402 7.67005
51.3381 7.5561
51.5362 7.42482
51.7344 7.29228
51.9328 7.15299
52.1316 7.05972
52.3304 6.97669
52.5293 6.7857
52.7284 6.74148
52.9276 6.6072
53.1271 6.52822
53.3267 6.3755
53.5265 6.24215
53.7264 6.13774
53.9266 6.06666
54.1269 5.92385
54.3274 5.81248
54.528 5.69828
54.7289 5.55394
54.9301 5.38908
55.1314 5.23984
55.3328 5.01693
55.5344 4.83806
55.7361 4.71983