File: XRD/Ni3Fe_FD0934.xy
TT I
1.27165 7.07449
1.45013 6.02797
1.62863 6.02804
1.80712 4.66493
1.98562 4.98753
2.16411 4.80431
2.34263 5.9361
2.52115 7.59838
2.69965 8.59706
2.87818 9.10758
3.05672 10.7706
3.23527 15.1461
3.4138 18.7358
3.59237 23.3671
3.77094 25.6394
3.9495 29.3764
4.12809 34.0368
4.30669 91.9643
4.4853 52.3539
4.6639 55.3468
4.84253 67.7276
5.02118 86.3131
5.19981 369.821
5.37848 195.826
5.55716 101.01
5.73586 91.9402
5.91455 93.9229
6.09328 4657.2
6.27201 78.6898
6.45075 69.7927
6.62952 62.4451
6.8083 59.2488
6.98711 54.905
7.16591 55.978
7.34475 64.7174
7.5236 53.4342
7.70247 56.4021
7.88135 56.4851
8.06026 62.0048
8.23919 68.5313
8.41812 82.1516
8.59709 1204.73
8.77609 96.1884
8.9551 88.821
9.13412 82.2241
9.31318 84.2004
9.49226 83.5447
9.67134 94.7462
9.85047 100.579
10.0296 329.383
10.2088 325.759
10.388 103.333
10.5672 544.967
10.7465 84.9153
10.9257 76.9724
11.105 70.3651
11.2844 67.1767
11.4637 63.5535
11.6431 62.4384
11.8225 61.8921
12.002 63.6887
12.1814 158.784
12.3609 65.5521
12.5405 64.1731
12.72 66.769
12.8996 70.4601
13.0792 79.6762
13.2589 246.098
13.4386 114.247
13.6183 259.609
13.7981 91.7105
13.9779 74.6444
14.1577 70.5323
14.3376 68.8604
14.5175 68.0055
14.6974 69.4751
14.8774 110.451
15.0574 136.64
15.2374 68.1213
15.4175 65.4617
15.5976 64.8141
15.7778 94.0026
15.958 145.748
16.1382 60.1866
16.3185 56.7409
16.4988 54.4222
16.6792 53.5661
16.8596 54.0887
17.04 55.1911
17.2205 66.3603
17.401 67.5383
17.5815 58.3591
17.7622 60.3762
17.9428 72.1966
18.1237 140.798
18.3044 90.7188
18.4852 72.8329
18.666 59.4088
18.8469 57.059
19.0278 55.8711
19.2088 58.2797
19.3898 74.9908
19.5709 53.1757
19.752 52.4115
19.9332 55.4003
20.1144 69.4919
20.2957 64.1283
20.477 51.6196
20.6586 48.8552
20.84 48.0963
21.0215 47.6594
21.203 50.2563
21.3846 47.9748
21.5662 48.1528
21.7479 51.8549
21.9297 64.1595
22.1115 55.4119
22.2933 48.6626
22.4753 47.8927
22.6572 48.1205
22.8393 51.3258
23.0214 56.0234
23.2037 47.9649
23.3859 48.9424
23.5682 56.9941
23.7505 46.8789
23.9329 44.3964
24.1154 43.2671
24.2979 42.7531
24.4805 42.1576
24.6631 42.0563
24.8458 41.5173
25.0286 42.1512
25.2114 43.9465
25.3943 43.7455
25.5773 40.2682
25.7605 39.6846
25.9436 40.0907
26.1268 41.1657
26.31 39.3751
26.4933 40.1285
26.6767 41.5836
26.8601 39.8393
27.0437 38.2505
27.2272 37.8084
27.4109 37.7561
27.5946 37.6496
27.7784 37.3647
27.9623 37.9209
28.1462 38.0835
28.3304 36.4881
28.5145 35.201
28.6987 35.0836
28.8829 34.8616
29.0673 34.1266
29.2517 33.7995
29.4361 33.5431
29.6207 32.573
29.8053 32.3628
29.99 31.9952
30.1748 31.884
30.3597 31.7655
30.5447 31.6548
30.7297 31.6274
30.915 31.1437
31.1002 30.5034
31.2855 30.3791
31.4708 30.335
31.6563 29.8678
31.8418 29.628
32.0275 29.4093
32.2132 28.8434
32.399 28.4642
32.5848 27.9707
32.7708 27.6201
32.9569 27.5273
33.143 27.2801
33.3293 26.9318
33.5158 26.6147
33.7022 26.1208
33.8887 25.8118
34.0753 25.5333
34.262 25.1431
34.4488 24.871
34.6357 24.4963
34.8227 24.3292
35.0098 24.0933
35.1969 23.7625
35.3842 23.592
35.5716 23.4103
35.759 23.0435
35.9468 22.7832
36.1345 22.5548
36.3222 22.2575
36.5101 22.039
36.6981 21.6899
36.8861 21.4292
37.0743 21.1034
37.2626 20.8658
37.451 20.6063
37.6395 20.4627
37.8281 20.1169
38.0168 19.8354
38.2056 19.5707
38.3945 19.3308
38.5837 19.0944
38.7728 18.8726
38.9621 18.6548
39.1514 18.4129
39.3409 18.133
39.5304 17.8816
39.7201 17.767
39.9099 17.5461
40.0999 17.301
40.2899 16.9752
40.48 16.8379
40.6703 16.6429
40.8607 16.4796
41.0512 16.2422
41.242 15.9869
41.4327 15.7742
41.6236 15.5187
41.8146 15.3668
42.0057 15.2085
42.1969 14.9613
42.3882 14.7725
42.5797 14.5776
42.7713 14.4033
42.963 14.1643
43.1549 14.002
43.3468 13.7647
43.5389 13.5957
43.7312 13.3358
43.9237 13.2344
44.1162 13.0123
44.3088 12.8752
44.5016 12.697
44.6945 12.5279
44.8875 12.3471
45.0806 12.1663
45.2739 11.976
45.4673 11.7814
45.6609 11.644
45.8546 11.5318
46.0484 11.3188
46.2424 11.1536
46.4365 11.0242
46.631 10.853
46.8254 10.6949
47.0199 10.5244
47.2146 10.3819
47.4095 10.2233
47.6044 10.0494
47.7996 9.89374
47.9948 9.77433
48.1902 9.65971
48.3858 9.51262
48.5815 9.36801
48.7774 9.23974
48.9734 9.11652
49.1696 8.97248
49.3661 8.80262
49.5626 8.62031
49.7592 8.54752
49.956 8.42942
50.153 8.29138
50.3501 8.14059
50.5474 8.05093
50.7448 7.89796
50.9424 7.84076
51.1402 7.68602
51.3381 7.55737
51.5362 7.42032
51.7344 7.33431
51.9328 7.16144
52.1316 7.06609
52.3304 6.96574
52.5293 6.83349
52.7284 6.75167
52.9276 6.625
53.1271 6.54478
53.3267 6.42498
53.5265 6.27639
53.7264 6.17215
53.9266 6.01496
54.1269 5.98453
54.3274 5.85773
54.528 5.71791
54.7289 5.52013
54.9301 5.34477
55.1314 5.27626
55.3328 5.05173
55.5344 4.86703
55.7361 4.73242