File: XRD/Ni3Fe_FD0644.xy
TT I
1.27165 7.47904
1.45013 6.49454
1.62863 5.80775
1.80712 4.95008
1.98562 4.23546
2.16411 4.79474
2.34263 5.68895
2.52115 6.19145
2.69965 8.15009
2.87818 8.73391
3.05672 10.9632
3.23527 15.4753
3.4138 18.5954
3.59237 24.6371
3.77094 26.8497
3.9495 29.9544
4.12809 35.4117
4.30669 269.397
4.4853 71.4047
4.6639 55.179
4.84253 66.9617
5.02118 86.2951
5.19981 332.371
5.37848 197.329
5.55716 101.912
5.73586 91.7895
5.91455 93.0963
6.09328 4292.74
6.27201 84.2064
6.45075 67.8831
6.62952 63.5051
6.8083 59.2457
6.98711 56.3294
7.16591 55.98
7.34475 103.38
7.5236 54.8016
7.70247 56.5336
7.88135 57.7264
8.06026 62.3501
8.23919 69.8012
8.41812 85.178
8.59709 1097.5
8.77609 100.133
8.9551 93.3003
9.13412 81.8382
9.31318 82.1436
9.49226 84.5406
9.67134 100.865
9.85047 99.5193
10.0296 323.558
10.2088 443.658
10.388 105.427
10.5672 497.118
10.7465 86.7862
10.9257 79.0332
11.105 72.026
11.2844 71.7157
11.4637 64.9858
11.6431 63.9208
11.8225 62.4287
12.002 63.4039
12.1814 145.987
12.3609 72.6973
12.5405 64.7697
12.72 71.2879
12.8996 70.7503
13.0792 78.4754
13.2589 225.932
13.4386 128.889
13.6183 236.986
13.7981 100.551
13.9779 75.8324
14.1577 72.9793
14.3376 72.411
14.5175 68.7115
14.6974 70.4922
14.8774 107.119
15.0574 152.929
15.2374 71.8215
15.4175 66.3851
15.5976 65.9251
15.7778 92.7266
15.958 162.243
16.1382 63.5231
16.3185 59.2606
16.4988 55.8672
16.6792 54.6339
16.8596 55.6657
17.04 55.8772
17.2205 66.2993
17.401 72.526
17.5815 59.3234
17.7622 61.4133
17.9428 72.7304
18.1237 139.059
18.3044 89.4707
18.4852 79.2101
18.666 60.6563
18.8469 58.2243
19.0278 56.9977
19.2088 59.5576
19.3898 76.9387
19.5709 54.5061
19.752 53.4972
19.9332 56.1688
20.1144 69.9719
20.2957 63.6651
20.477 54.1923
20.6586 49.8223
20.84 48.7956
21.0215 48.7874
21.203 50.6507
21.3846 49.2836
21.5662 48.7567
21.7479 52.3974
21.9297 64.6161
22.1115 56.1851
22.2933 50.1087
22.4753 49.1905
22.6572 48.8135
22.8393 51.7123
23.0214 57.7687
23.2037 49.1062
23.3859 49.673
23.5682 56.8132
23.7505 48.7566
23.9329 45.3066
24.1154 44.3124
24.2979 43.6092
24.4805 43.0878
24.6631 43.054
24.8458 42.3617
25.0286 42.8873
25.2114 44.5934
25.3943 44.7785
25.5773 41.1877
25.7605 40.5329
25.9436 40.9411
26.1268 41.8092
26.31 40.1923
26.4933 40.8315
26.6767 42.3261
26.8601 40.6297
27.0437 38.9868
27.2272 38.6115
27.4109 38.3619
27.5946 38.5298
27.7784 37.9997
27.9623 38.4997
28.1462 38.952
28.3304 37.3839
28.5145 36.0129
28.6987 35.7309
28.8829 35.5945
29.0673 34.7155
29.2517 34.484
29.4361 34.2376
29.6207 33.3163
29.8053 32.9856
29.99 32.6854
30.1748 32.6452
30.3597 32.3548
30.5447 32.3643
30.7297 32.306
30.915 31.7566
31.1002 31.1839
31.2855 30.9881
31.4708 30.9355
31.6563 30.4027
31.8418 30.3146
32.0275 30.0459
32.2132 29.4937
32.399 29.0842
32.5848 28.6467
32.7708 28.2262
32.9569 28.0864
33.143 27.8889
33.3293 27.4131
33.5158 27.1674
33.7022 26.6591
33.8887 26.3737
34.0753 26.0783
34.262 25.7009
34.4488 25.4263
34.6357 25.0183
34.8227 24.8229
35.0098 24.5605
35.1969 24.2752
35.3842 23.9983
35.5716 23.8766
35.759 23.4965
35.9468 23.2288
36.1345 22.9238
36.3222 22.7292
36.5101 22.5055
36.6981 22.27
36.8861 21.9339
37.0743 21.5534
37.2626 21.3212
37.451 21.0713
37.6395 20.9378
37.8281 20.5491
38.0168 20.3268
38.2056 20.0385
38.3945 19.7094
38.5837 19.5413
38.7728 19.3022
38.9621 19.013
39.1514 18.8451
39.3409 18.571
39.5304 18.3187
39.7201 18.1668
39.9099 17.9148
40.0999 17.6607
40.2899 17.4346
40.48 17.161
40.6703 16.9701
40.8607 16.7272
41.0512 16.5563
41.242 16.2848
41.4327 16.1332
41.6236 15.9055
41.8146 15.6993
42.0057 15.5
42.1969 15.2801
42.3882 15.0905
42.5797 14.8775
42.7713 14.7187
42.963 14.4699
43.1549 14.2905
43.3468 14.0716
43.5389 13.9143
43.7312 13.6905
43.9237 13.5514
44.1162 13.3577
44.3088 13.1689
44.5016 12.9574
44.6945 12.7432
44.8875 12.6412
45.0806 12.4266
45.2739 12.277
45.4673 12.1234
45.6609 11.9189
45.8546 11.763
46.0484 11.544
46.2424 11.3775
46.4365 11.2835
46.631 11.0481
46.8254 10.949
47.0199 10.7356
47.2146 10.603
47.4095 10.4498
47.6044 10.2401
47.7996 10.1138
47.9948 9.98901
48.1902 9.88898
48.3858 9.71043
48.5815 9.57596
48.7774 9.44396
48.9734 9.26648
49.1696 9.14658
49.3661 8.99588
49.5626 8.85898
49.7592 8.73318
49.956 8.60548
50.153 8.46132
50.3501 8.31222
50.5474 8.21701
50.7448 8.11711
50.9424 7.96439
51.1402 7.87501
51.3381 7.72329
51.5362 7.59825
51.7344 7.451
51.9328 7.29107
52.1316 7.19443
52.3304 7.0945
52.5293 6.96222
52.7284 6.87089
52.9276 6.74148
53.1271 6.66918
53.3267 6.55517
53.5265 6.43312
53.7264 6.28925
53.9266 6.18577
54.1269 6.09917
54.3274 5.97841
54.528 5.79011
54.7289 5.65836
54.9301 5.53625
55.1314 5.41531
55.3328 5.16912
55.5344 4.93455
55.7361 4.81366