File: XRD/Ni3Fe_FD0023.xy
TT I
1.27165 34.1207
1.45013 28.6531
1.62863 26.1412
1.80712 24.0669
1.98562 23.7523
2.16411 25.7806
2.34263 26.428
2.52115 25.203
2.69965 28.4457
2.87818 38.6626
3.05672 65.691
3.23527 76.3777
3.4138 41.8325
3.59237 38.9869
3.77094 39.7335
3.9495 38.3363
4.12809 51.2577
4.30669 87.4111
4.4853 61.2119
4.6639 46.2632
4.84253 53.0472
5.02118 86.3012
5.19981 271.654
5.37848 3797.45
5.55716 156.25
5.73586 100.047
5.91455 110.99
6.09328 454.285
6.27201 315.118
6.45075 72.5635
6.62952 55.7618
6.8083 54.1021
6.98711 45.0044
7.16591 47.8693
7.34475 72.8652
7.5236 57.3163
7.70247 46.1746
7.88135 37.6273
8.06026 39.1718
8.23919 44.7488
8.41812 56.2883
8.59709 157.382
8.77609 662.808
8.9551 77.3409
9.13412 58.7305
9.31318 249.4
9.49226 53.1135
9.67134 52.7644
9.85047 60.0186
10.0296 99.0498
10.2088 485.116
10.388 132.569
10.5672 91.145
10.7465 270.687
10.9257 48.7492
11.105 42.6732
11.2844 41.1138
11.4637 38.2316
11.6431 37.4665
11.8225 36.7064
12.002 71.8174
12.1814 46.8752
12.3609 94.7413
12.5405 44.9329
12.72 40.8995
12.8996 39.8707
13.0792 42.6688
13.2589 63.3462
13.4386 147.451
13.6183 92.7109
13.7981 157.475
13.9779 62.056
14.1577 47.5622
14.3376 47.7422
14.5175 38.1892
14.6974 38.0032
14.8774 43.0545
15.0574 59.9721
15.2374 92.0894
15.4175 41.0066
15.5976 38.1411
15.7778 41.0181
15.958 53.8447
16.1382 117.522
16.3185 39.6904
16.4988 33.7026
16.6792 31.9359
16.8596 31.6699
17.04 39.5725
17.2205 33.4294
17.401 36.3287
17.5815 47.8185
17.7622 35.0551
17.9428 40.249
18.1237 42.9793
18.3044 89.487
18.4852 56.1781
18.666 64.6003
18.8469 36.067
19.0278 33.4297
19.2088 33.435
19.3898 39.3741
19.5709 46.7944
19.752 35.744
19.9332 31.7771
20.1144 32.4129
20.2957 42.3837
20.477 38.911
20.6586 38.7976
20.84 31.769
21.0215 29.6572
21.203 28.6736
21.3846 28.9668
21.5662 32.0885
21.7479 29.5353
21.9297 30.9006
22.1115 40.6674
22.2933 42.3796
22.4753 35.5186
22.6572 29.9286
22.8393 30.2844
23.0214 31.2209
23.2037 38.7133
23.3859 33.6878
23.5682 34.1705
23.7505 34.2476
23.9329 41.3867
24.1154 29.2405
24.2979 27.3836
24.4805 26.3931
24.6631 26.4157
24.8458 27.7199
25.0286 26.055
25.2114 26.25
25.3943 28.6482
25.5773 30.4729
25.7605 28.779
25.9436 26.6443
26.1268 25.5383
26.31 26.5472
26.4933 27.8205
26.6767 25.7806
26.8601 27.3054
27.0437 30.3352
27.2272 26.8054
27.4109 24.6396
27.5946 24.4682
27.7784 24.8627
27.9623 25.1695
28.1462 25.4879
28.3304 26.9734
28.5145 27.1387
28.6987 24.8185
28.8829 22.9695
29.0673 22.5998
29.2517 23.4055
29.4361 22.2049
29.6207 22.0707
29.8053 22.7127
29.99 21.3248
30.1748 21.3411
30.3597 21.0158
30.5447 21.399
30.7297 21.0872
30.915 21.186
31.1002 22.7987
31.2855 21.6598
31.4708 20.5357
31.6563 20.4739
31.8418 21.4226
32.0275 20.313
32.2132 20.3763
32.399 20.7768
32.5848 19.6165
32.7708 18.9933
32.9569 18.7448
33.143 18.7695
33.3293 18.3964
33.5158 18.8232
33.7022 18.9161
33.8887 17.9725
34.0753 17.6854
34.262 17.5328
34.4488 17.2463
34.6357 17.0047
34.8227 16.9309
35.0098 16.5406
35.1969 16.3337
35.3842 16.2705
35.5716 16.2083
35.759 16.4427
35.9468 16.5726
36.1345 16.026
36.3222 15.5971
36.5101 15.597
36.6981 15.4694
36.8861 15.2126
37.0743 15.125
37.2626 14.7338
37.451 14.508
37.6395 14.4525
37.8281 14.1829
38.0168 14.019
38.2056 13.911
38.3945 13.626
38.5837 13.4983
38.7728 13.4499
38.9621 13.229
39.1514 13.1065
39.3409 12.8211
39.5304 12.6881
39.7201 12.5389
39.9099 12.4179
40.0999 12.2558
40.2899 12.2494
40.48 12.0478
40.6703 11.9307
40.8607 11.8009
41.0512 11.6613
41.242 11.5366
41.4327 11.3969
41.6236 11.1709
41.8146 11.091
42.0057 10.9314
42.1969 10.829
42.3882 10.676
42.5797 10.4677
42.7713 10.3774
42.963 10.1999
43.1549 10.0568
43.3468 9.91708
43.5389 9.78136
43.7312 9.69564
43.9237 9.54844
44.1162 9.44497
44.3088 9.26461
44.5016 9.18191
44.6945 9.05692
44.8875 8.94237
45.0806 8.86874
45.2739 8.68775
45.4673 8.59926
45.6609 8.48302
45.8546 8.39046
46.0484 8.27638
46.2424 8.14504
46.4365 8.03125
46.631 7.94488
46.8254 7.80664
47.0199 7.70226
47.2146 7.59523
47.4095 7.44043
47.6044 7.34682
47.7996 7.28627
47.9948 7.17562
48.1902 7.02944
48.3858 6.97351
48.5815 6.86804
48.7774 6.77259
48.9734 6.68245
49.1696 6.56034
49.3661 6.47981
49.5626 6.41405
49.7592 6.29318
49.956 6.22861
50.153 6.14744
50.3501 6.02277
50.5474 5.96862
50.7448 5.90965
50.9424 5.81527
51.1402 5.69415
51.3381 5.61681
51.5362 5.51227
51.7344 5.44032
51.9328 5.36165
52.1316 5.27021
52.3304 5.19846
52.5293 5.12476
52.7284 5.02603
52.9276 4.94534
53.1271 4.88498
53.3267 4.73359
53.5265 4.72943
53.7264 4.59826
53.9266 4.53093
54.1269 4.43337
54.3274 4.34074
54.528 4.25792
54.7289 4.1304
54.9301 3.97879
55.1314 3.84225
55.3328 3.70403
55.5344 3.60616
55.7361 3.52962