File: XRD/Ni3Fe_FD0095.xy
TT I
1.27165 9.10316
1.45013 7.74317
1.62863 6.87313
1.80712 6.12388
1.98562 5.73062
2.16411 5.04187
2.34263 4.18956
2.52115 3.86715
2.69965 5.0643
2.87818 7.59995
3.05672 11.3054
3.23527 14.8739
3.4138 18.3197
3.59237 21.3353
3.77094 24.9467
3.9495 28.1108
4.12809 32.4548
4.30669 36.7857
4.4853 44.6713
4.6639 53.1769
4.84253 66.1499
5.02118 94.7664
5.19981 699.717
5.37848 787.43
5.55716 113.306
5.73586 99.2334
5.91455 114.007
6.09328 2043.38
6.27201 98.6269
6.45075 67.1432
6.62952 59.3315
6.8083 54.8322
6.98711 52.9028
7.16591 51.528
7.34475 50.8245
7.5236 60.5635
7.70247 53.263
7.88135 55.3285
8.06026 59.7689
8.23919 67.4655
8.41812 84.5208
8.59709 727.508
8.77609 133.944
8.9551 85.3078
9.13412 81.1237
9.31318 99.2668
9.49226 82.7023
9.67134 87.3241
9.85047 98.2206
10.0296 600.783
10.2088 1252.4
10.388 105.572
10.5672 247.444
10.7465 96.9848
10.9257 74.6952
11.105 68.8796
11.2844 65.2466
11.4637 62.6209
11.6431 61.25
11.8225 60.2569
12.002 70.9119
12.1814 101.017
12.3609 83.1372
12.5405 62.0893
12.72 63.9751
12.8996 68.5823
13.0792 79.0051
13.2589 179.977
13.4386 267.11
13.6183 162.54
13.7981 192.772
13.9779 75.2035
14.1577 78.0132
14.3376 68.1975
14.5175 67.2657
14.6974 68.8839
14.8774 119.903
15.0574 208.952
15.2374 68.7396
15.4175 65.0987
15.5976 64.6565
15.7778 107.908
15.958 172.417
16.1382 62.6459
16.3185 56.345
16.4988 53.9315
16.6792 53.1857
16.8596 53.1828
17.04 54.623
17.2205 62.8027
17.401 80.8481
17.5815 58.1582
17.7622 60.6164
17.9428 85.5141
18.1237 96.8099
18.3044 87.8956
18.4852 101.039
18.666 60.1928
18.8469 57.4164
19.0278 55.688
19.2088 61.4097
19.3898 64.1434
19.5709 57.2681
19.752 52.3772
19.9332 57.6972
20.1144 62.5867
20.2957 59.0973
20.477 61.329
20.6586 49.0289
20.84 48.5515
21.0215 48.2386
21.203 48.1355
21.3846 50.1387
21.5662 48.0692
21.7479 53.1636
21.9297 57.7939
22.1115 56.0567
22.2933 52.9424
22.4753 47.9033
22.6572 48.271
22.8393 50.6725
23.0214 53.8616
23.2037 49.6381
23.3859 51.2262
23.5682 50.5117
23.7505 54.878
23.9329 44.9284
24.1154 43.7653
24.2979 42.8917
24.4805 42.3968
24.6631 42.342
24.8458 41.8388
25.0286 42.2149
25.2114 43.1717
25.3943 43.3681
25.5773 41.6667
25.7605 40.1015
25.9436 40.2631
26.1268 40.5113
26.31 40.6646
26.4933 40.0433
26.6767 40.7012
26.8601 40.7505
27.0437 38.9954
27.2272 38.3292
27.4109 37.8715
27.5946 37.957
27.7784 38.0351
27.9623 37.6337
28.1462 38.2884
28.3304 37.4753
28.5145 35.7747
28.6987 35.2427
28.8829 34.8203
29.0673 34.6814
29.2517 33.8565
29.4361 33.5393
29.6207 33.1561
29.8053 32.4743
29.99 32.0786
30.1748 31.884
30.3597 32.133
30.5447 31.7637
30.7297 31.5273
30.915 31.3803
31.1002 30.8513
31.2855 30.5253
31.4708 30.2816
31.6563 30.3819
31.8418 29.7675
32.0275 29.5851
32.2132 29.222
32.399 28.6104
32.5848 28.1436
32.7708 27.8587
32.9569 27.6762
33.143 27.3188
33.3293 27.1321
33.5158 26.8376
33.7022 26.2883
33.8887 25.8913
34.0753 25.6866
34.262 25.1881
34.4488 25.02
34.6357 24.6094
34.8227 24.3499
35.0098 24.2178
35.1969 23.9499
35.3842 23.6243
35.5716 23.428
35.759 23.2792
35.9468 22.7972
36.1345 22.5728
36.3222 22.4023
36.5101 22.1955
36.6981 21.872
36.8861 21.6395
37.0743 21.2026
37.2626 21.0209
37.451 20.6814
37.6395 20.5871
37.8281 20.2482
38.0168 19.9207
38.2056 19.6847
38.3945 19.3874
38.5837 19.2405
38.7728 18.9793
38.9621 18.747
39.1514 18.4633
39.3409 18.2527
39.5304 17.9781
39.7201 17.8691
39.9099 17.5841
40.0999 17.3929
40.2899 17.2094
40.48 16.9438
40.6703 16.6612
40.8607 16.5282
41.0512 16.3367
41.242 16.1052
41.4327 15.9039
41.6236 15.6558
41.8146 15.482
42.0057 15.199
42.1969 15.0321
42.3882 14.8026
42.5797 14.644
42.7713 14.4674
42.963 14.2452
43.1549 14.0878
43.3468 13.8554
43.5389 13.6327
43.7312 13.4784
43.9237 13.3094
44.1162 13.0959
44.3088 12.9604
44.5016 12.7235
44.6945 12.5844
44.8875 12.3729
45.0806 12.2116
45.2739 12.0186
45.4673 11.8597
45.6609 11.6769
45.8546 11.5688
46.0484 11.4006
46.2424 11.1991
46.4365 11.0833
46.631 10.8694
46.8254 10.7138
47.0199 10.5656
47.2146 10.4269
47.4095 10.2749
47.6044 10.1107
47.7996 9.92398
47.9948 9.82539
48.1902 9.66617
48.3858 9.55982
48.5815 9.41732
48.7774 9.30074
48.9734 9.15895
49.1696 9.01568
49.3661 8.8604
49.5626 8.71805
49.7592 8.58687
49.956 8.46212
50.153 8.35366
50.3501 8.21179
50.5474 8.11522
50.7448 7.9802
50.9424 7.87423
51.1402 7.73339
51.3381 7.59692
51.5362 7.5138
51.7344 7.35944
51.9328 7.23478
52.1316 7.07439
52.3304 6.99106
52.5293 6.87348
52.7284 6.76559
52.9276 6.66797
53.1271 6.55501
53.3267 6.42308
53.5265 6.29623
53.7264 6.20519
53.9266 6.12761
54.1269 5.92277
54.3274 5.83263
54.528 5.67491
54.7289 5.48944
54.9301 5.3038
55.1314 5.19271
55.3328 4.94815
55.5344 4.76975
55.7361 4.72396