File: XRD/Ni3Fe_FD1012.xy
TT I
1.27165 6.99761
1.45013 5.65004
1.62863 4.87896
1.80712 4.52105
1.98562 3.9838
2.16411 4.18762
2.34263 5.51156
2.52115 7.75609
2.69965 8.45211
2.87818 9.5565
3.05672 11.4731
3.23527 14.7744
3.4138 18.4081
3.59237 21.6588
3.77094 24.6089
3.9495 28.1277
4.12809 32.0751
4.30669 65.9673
4.4853 46.5868
4.6639 52.3606
4.84253 63.0862
5.02118 81.0469
5.19981 220.655
5.37848 256.503
5.55716 96.3451
5.73586 86.5893
5.91455 86.9758
6.09328 4341.38
6.27201 75.2626
6.45075 62.7341
6.62952 57.2737
6.8083 54.268
6.98711 51.8729
7.16591 51.0981
7.34475 58.0177
7.5236 65.4184
7.70247 52.95
7.88135 54.0226
8.06026 57.8313
8.23919 64.4773
8.41812 76.18
8.59709 1028.1
8.77609 93.9249
8.9551 81.5343
9.13412 78.5493
9.31318 99.5865
9.49226 79.7748
9.67134 85.3471
9.85047 92.2413
10.0296 286.671
10.2088 467.252
10.388 96.2287
10.5672 500.057
10.7465 88.85
10.9257 72.4172
11.105 67.3274
11.2844 63.7334
11.4637 60.7763
11.6431 59.8133
11.8225 58.846
12.002 71.2388
12.1814 139.07
12.3609 64.1052
12.5405 60.5114
12.72 62.9871
12.8996 66.3875
13.0792 75.6999
13.2589 211.042
13.4386 126.56
13.6183 223.297
13.7981 99.9433
13.9779 72.1384
14.1577 80.3543
14.3376 66.2058
14.5175 65.1995
14.6974 66.1162
14.8774 101.23
15.0574 160.093
15.2374 65.6425
15.4175 63.1594
15.5976 61.9776
15.7778 86.9136
15.958 173.072
16.1382 60.2156
16.3185 54.6527
16.4988 52.7598
16.6792 51.4981
16.8596 51.9013
17.04 53.0384
17.2205 62.1519
17.401 70.7916
17.5815 56.2561
17.7622 59.2271
17.9428 69.2905
18.1237 140.538
18.3044 86.6336
18.4852 77.8633
18.666 58.0597
18.8469 55.4526
19.0278 54.1246
19.2088 56.3082
19.3898 75.9973
19.5709 51.9774
19.752 51.0667
19.9332 53.3564
20.1144 69.2488
20.2957 62.1009
20.477 52.162
20.6586 47.5932
20.84 47.4091
21.0215 46.401
21.203 48.6952
21.3846 47.178
21.5662 46.7559
21.7479 50.2524
21.9297 64.2566
22.1115 55.4501
22.2933 48.3595
22.4753 46.6965
22.6572 46.8661
22.8393 50.0168
23.0214 56.6949
23.2037 47.0129
23.3859 48.015
23.5682 56.3469
23.7505 47.6445
23.9329 43.5588
24.1154 42.4987
24.2979 41.7085
24.4805 41.2469
24.6631 41.3727
24.8458 40.5909
25.0286 41.1857
25.2114 43.3783
25.3943 43.7207
25.5773 39.4356
25.7605 38.914
25.9436 39.3211
26.1268 40.7231
26.31 38.6606
26.4933 39.1539
26.6767 41.2108
26.8601 39.4827
27.0437 37.7078
27.2272 37.1808
27.4109 37.1505
27.5946 37.3809
27.7784 36.6356
27.9623 37.341
28.1462 37.9843
28.3304 36.2806
28.5145 34.7862
28.6987 34.4506
28.8829 34.3837
29.0673 33.5877
29.2517 33.2258
29.4361 33.0693
29.6207 32.0444
29.8053 31.7093
29.99 31.4394
30.1748 31.4532
30.3597 31.2159
30.5447 31.1529
30.7297 31.3913
30.915 30.6725
31.1002 30.011
31.2855 29.8825
31.4708 29.9218
31.6563 29.3783
31.8418 29.1808
32.0275 29.112
32.2132 28.5327
32.399 28.0225
32.5848 27.598
32.7708 27.1858
32.9569 27.1064
33.143 26.9734
33.3293 26.5994
33.5158 26.221
33.7022 25.7546
33.8887 25.5181
34.0753 25.1932
34.262 24.8396
34.4488 24.5123
34.6357 24.0845
34.8227 23.8286
35.0098 23.772
35.1969 23.4596
35.3842 23.18
35.5716 23.1517
35.759 22.714
35.9468 22.4977
36.1345 22.2183
36.3222 22.0345
36.5101 21.7369
36.6981 21.4653
36.8861 21.2111
37.0743 20.8078
37.2626 20.7221
37.451 20.2614
37.6395 20.1778
37.8281 19.8304
38.0168 19.5389
38.2056 19.3562
38.3945 19.0949
38.5837 18.845
38.7728 18.6397
38.9621 18.3425
39.1514 18.1169
39.3409 17.8591
39.5304 17.6898
39.7201 17.4725
39.9099 17.2837
40.0999 17.0546
40.2899 16.8179
40.48 16.5574
40.6703 16.3495
40.8607 16.2028
41.0512 15.927
41.242 15.745
41.4327 15.5862
41.6236 15.2971
41.8146 15.1534
42.0057 14.9544
42.1969 14.8177
42.3882 14.6166
42.5797 14.3963
42.7713 14.1677
42.963 14.011
43.1549 13.7963
43.3468 13.5802
43.5389 13.4164
43.7312 13.2278
43.9237 13.0666
44.1162 12.8461
44.3088 12.6688
44.5016 12.4861
44.6945 12.3442
44.8875 12.178
45.0806 11.9939
45.2739 11.8015
45.4673 11.6558
45.6609 11.5092
45.8546 11.3557
46.0484 11.1738
46.2424 10.9695
46.4365 10.8961
46.631 10.6739
46.8254 10.5324
47.0199 10.3816
47.2146 10.2368
47.4095 10.0693
47.6044 9.94672
47.7996 9.77065
47.9948 9.66902
48.1902 9.51148
48.3858 9.34959
48.5815 9.21991
48.7774 9.09576
48.9734 8.94547
49.1696 8.84846
49.3661 8.69169
49.5626 8.51644
49.7592 8.39999
49.956 8.29284
50.153 8.16824
50.3501 8.05491
50.5474 7.93631
50.7448 7.82177
50.9424 7.71807
51.1402 7.57857
51.3381 7.42826
51.5362 7.31154
51.7344 7.20976
51.9328 7.04891
52.1316 6.95107
52.3304 6.85251
52.5293 6.73527
52.7284 6.57754
52.9276 6.50551
53.1271 6.42386
53.3267 6.28835
53.5265 6.17683
53.7264 6.09903
53.9266 6.00748
54.1269 5.8569
54.3274 5.76163
54.528 5.63345
54.7289 5.4361
54.9301 5.34989
55.1314 5.16984
55.3328 4.93962
55.5344 4.80617
55.7361 4.70247