File: XRD/Ni3Fe_FD1076.xy
TT I
1.27165 6.60753
1.45013 5.65959
1.62863 5.38213
1.80712 4.57145
1.98562 4.13641
2.16411 4.11851
2.34263 5.34191
2.52115 7.07007
2.69965 8.25837
2.87818 9.0065
3.05672 10.6742
3.23527 14.7133
3.4138 18.1476
3.59237 21.2496
3.77094 24.3503
3.9495 28.3284
4.12809 32.0328
4.30669 56.3722
4.4853 46.0212
4.6639 52.439
4.84253 63.983
5.02118 82.8083
5.19981 230.508
5.37848 205.384
5.55716 97.9912
5.73586 87.8304
5.91455 88.671
6.09328 4497.57
6.27201 75.4742
6.45075 63.3255
6.62952 57.7607
6.8083 54.6081
6.98711 52.4838
7.16591 51.8564
7.34475 55.8222
7.5236 57.9714
7.70247 53.0637
7.88135 54.8517
8.06026 58.7902
8.23919 65.3647
8.41812 77.9786
8.59709 1112.2
8.77609 94.9576
8.9551 82.283
9.13412 78.5305
9.31318 88.2489
9.49226 80.8423
9.67134 86.376
9.85047 94.0662
10.0296 351.703
10.2088 448.031
10.388 98.0174
10.5672 513.73
10.7465 86.2135
10.9257 73.5566
11.105 68.3839
11.2844 64.8995
11.4637 61.809
11.6431 60.54
11.8225 59.8963
12.002 66.1152
12.1814 147.031
12.3609 64.5137
12.5405 61.5239
12.72 64.0514
12.8996 67.7409
13.0792 76.4684
13.2589 230.514
13.4386 126.062
13.6183 237.221
13.7981 100.212
13.9779 73.4186
14.1577 75.0152
14.3376 67.3736
14.5175 66.5439
14.6974 67.5662
14.8774 110.664
15.0574 158.691
15.2374 66.76
15.4175 64.1279
15.5976 63.5598
15.7778 95.3233
15.958 169.201
16.1382 59.7756
16.3185 55.6563
16.4988 53.4881
16.6792 52.6274
16.8596 52.9885
17.04 54.0223
17.2205 65.1331
17.401 72.1866
17.5815 57.3955
17.7622 60.091
17.9428 73.5947
18.1237 142.119
18.3044 89.0697
18.4852 78.9828
18.666 59.0631
18.8469 56.4437
19.0278 55.0831
19.2088 58.2722
19.3898 76.0038
19.5709 53.0357
19.752 51.8634
19.9332 55.3683
20.1144 70.6439
20.2957 63.6735
20.477 52.8214
20.6586 48.4998
20.84 47.8418
21.0215 47.4032
21.203 49.7239
21.3846 47.9653
21.5662 47.7009
21.7479 52.0571
21.9297 65.2992
22.1115 55.9699
22.2933 49.0438
22.4753 47.5816
22.6572 47.777
22.8393 51.3505
23.0214 57.4033
23.2037 47.7791
23.3859 49.338
23.5682 57.09
23.7505 48.2482
23.9329 44.3433
24.1154 43.2019
24.2979 42.4871
24.4805 42.0103
24.6631 42.0559
24.8458 41.3473
25.0286 42.0136
25.2114 44.3403
25.3943 44.4316
25.5773 40.0364
25.7605 39.5873
25.9436 40.0641
26.1268 41.4003
26.31 39.522
26.4933 40.152
26.6767 41.9389
26.8601 39.9751
27.0437 38.2358
27.2272 37.8712
27.4109 37.8021
27.5946 37.8769
27.7784 37.3093
27.9623 38.1165
28.1462 38.5632
28.3304 36.9089
28.5145 35.5301
28.6987 35.0603
28.8829 34.8881
29.0673 34.178
29.2517 33.6842
29.4361 33.7061
29.6207 32.6059
29.8053 32.3568
29.99 32.0767
30.1748 31.9201
30.3597 31.6776
30.5447 31.7402
30.7297 31.8717
30.915 31.2851
31.1002 30.7089
31.2855 30.3967
31.4708 30.4567
31.6563 30.0806
31.8418 29.6543
32.0275 29.5678
32.2132 28.9908
32.399 28.4699
32.5848 28.0726
32.7708 27.7569
32.9569 27.6112
33.143 27.4443
33.3293 27.1243
33.5158 26.621
33.7022 26.2377
33.8887 25.9198
34.0753 25.5968
34.262 25.2548
34.4488 24.9329
34.6357 24.6072
34.8227 24.3726
35.0098 24.1312
35.1969 23.8504
35.3842 23.6309
35.5716 23.4739
35.759 23.1199
35.9468 22.8439
36.1345 22.6473
36.3222 22.3936
36.5101 22.1837
36.6981 21.8028
36.8861 21.5512
37.0743 21.2361
37.2626 20.9709
37.451 20.7204
37.6395 20.5333
37.8281 20.18
38.0168 19.9044
38.2056 19.7275
38.3945 19.4619
38.5837 19.1835
38.7728 18.9693
38.9621 18.6747
39.1514 18.397
39.3409 18.2528
39.5304 18.009
39.7201 17.7317
39.9099 17.6265
40.0999 17.378
40.2899 17.1518
40.48 16.902
40.6703 16.6666
40.8607 16.5714
41.0512 16.2979
41.242 16.0098
41.4327 15.7804
41.6236 15.5816
41.8146 15.4202
42.0057 15.2251
42.1969 15.002
42.3882 14.8703
42.5797 14.6183
42.7713 14.4137
42.963 14.1664
43.1549 14.0229
43.3468 13.8054
43.5389 13.663
43.7312 13.42
43.9237 13.2622
44.1162 13.062
44.3088 12.8802
44.5016 12.6966
44.6945 12.5272
44.8875 12.3364
45.0806 12.2049
45.2739 12.0238
45.4673 11.8635
45.6609 11.7269
45.8546 11.4965
46.0484 11.3847
46.2424 11.1874
46.4365 11.0524
46.631 10.8762
46.8254 10.6973
47.0199 10.542
47.2146 10.4179
47.4095 10.256
47.6044 10.0856
47.7996 9.96087
47.9948 9.8078
48.1902 9.65716
48.3858 9.53941
48.5815 9.40018
48.7774 9.27221
48.9734 9.11548
49.1696 8.96166
49.3661 8.83286
49.5626 8.68
49.7592 8.60062
49.956 8.46819
50.153 8.2818
50.3501 8.18576
50.5474 8.07305
50.7448 7.92826
50.9424 7.81606
51.1402 7.67813
51.3381 7.55766
51.5362 7.45808
51.7344 7.3304
51.9328 7.18357
52.1316 7.07414
52.3304 6.9772
52.5293 6.88201
52.7284 6.74055
52.9276 6.60445
53.1271 6.49511
53.3267 6.41201
53.5265 6.32796
53.7264 6.20679
53.9266 6.06632
54.1269 5.98337
54.3274 5.88342
54.528 5.74303
54.7289 5.56274
54.9301 5.38605
55.1314 5.27582
55.3328 5.10106
55.5344 4.90221
55.7361 4.78154