File: XRD/Ni3Fe_FD0996.xy
TT I
1.27165 7.03534
1.45013 5.76091
1.62863 5.1686
1.80712 4.80008
1.98562 4.51559
2.16411 4.3895
2.34263 5.99612
2.52115 6.62682
2.69965 8.65725
2.87818 9.60749
3.05672 11.5552
3.23527 14.97
3.4138 18.8857
3.59237 24.253
3.77094 26.2674
3.9495 29.8378
4.12809 34.7077
4.30669 255.778
4.4853 68.9713
4.6639 54.1789
4.84253 65.7123
5.02118 83.5909
5.19981 267.737
5.37848 173.327
5.55716 99.3794
5.73586 89.4511
5.91455 89.6905
6.09328 4539.47
6.27201 81.6055
6.45075 66.3681
6.62952 62.0561
6.8083 58.0322
6.98711 55.257
7.16591 54.7517
7.34475 99.3977
7.5236 53.8951
7.70247 55.7095
7.88135 56.5693
8.06026 60.9446
8.23919 67.8007
8.41812 82.9262
8.59709 1101.44
8.77609 96.149
8.9551 91.321
9.13412 80.3472
9.31318 80.7795
9.49226 82.3951
9.67134 98.3278
9.85047 97.2006
10.0296 282.069
10.2088 370.078
10.388 102.193
10.5672 530.497
10.7465 84.6046
10.9257 77.1259
11.105 70.6852
11.2844 69.5922
11.4637 63.5349
11.6431 62.6179
11.8225 61.1522
12.002 62.0587
12.1814 148.506
12.3609 70.2925
12.5405 63.3636
12.72 69.7982
12.8996 69.3912
13.0792 76.3463
13.2589 221.879
13.4386 120.947
13.6183 235.508
13.7981 94.6953
13.9779 74.0153
14.1577 71.0622
14.3376 70.6005
14.5175 67.131
14.6974 68.7752
14.8774 102.544
15.0574 150.573
15.2374 70.0033
15.4175 64.9584
15.5976 64.4398
15.7778 88.1328
15.958 153.64
16.1382 61.9575
16.3185 57.6625
16.4988 54.296
16.6792 53.456
16.8596 54.2153
17.04 54.4788
17.2205 64.2874
17.401 69.0038
17.5815 57.7858
17.7622 59.9385
17.9428 70.0271
18.1237 138.735
18.3044 87.9077
18.4852 75.7779
18.666 59.0381
18.8469 56.773
19.0278 55.6577
19.2088 57.8219
19.3898 75.3917
19.5709 53.0146
19.752 52.2122
19.9332 54.5916
20.1144 69.1479
20.2957 62.8775
20.477 52.5237
20.6586 48.4775
20.84 47.8169
21.0215 47.5706
21.203 49.9324
21.3846 47.8716
21.5662 47.643
21.7479 50.9885
21.9297 63.4136
22.1115 55.0824
22.2933 48.9133
22.4753 48.0452
22.6572 47.7229
22.8393 50.4357
23.0214 56.4329
23.2037 47.7846
23.3859 48.3505
23.5682 56.3238
23.7505 47.3125
23.9329 44.2852
24.1154 43.199
24.2979 42.6876
24.4805 42.0237
24.6631 41.8992
24.8458 41.3724
25.0286 41.8098
25.2114 43.5929
25.3943 43.8065
25.5773 40.0986
25.7605 39.5769
25.9436 39.9697
26.1268 40.9615
26.31 39.441
26.4933 39.8012
26.6767 41.3413
26.8601 39.738
27.0437 37.9766
27.2272 37.7848
27.4109 37.6816
27.5946 37.5619
27.7784 37.1091
27.9623 37.7207
28.1462 38.0019
28.3304 36.5082
28.5145 35.203
28.6987 34.9496
28.8829 34.6887
29.0673 33.9783
29.2517 33.6088
29.4361 33.5555
29.6207 32.411
29.8053 32.2738
29.99 31.8534
30.1748 31.8892
30.3597 31.7146
30.5447 31.5245
30.7297 31.6087
30.915 31.0092
31.1002 30.5584
31.2855 30.1391
31.4708 30.1792
31.6563 29.7606
31.8418 29.5786
32.0275 29.3533
32.2132 28.8589
32.399 28.3945
32.5848 27.9137
32.7708 27.5783
32.9569 27.4188
33.143 27.2557
33.3293 26.9182
33.5158 26.5478
33.7022 26.0794
33.8887 25.8736
34.0753 25.4587
34.262 25.1931
34.4488 24.7673
34.6357 24.5318
34.8227 24.2586
35.0098 24.0351
35.1969 23.6884
35.3842 23.5563
35.5716 23.3511
35.759 23.0566
35.9468 22.72
36.1345 22.4189
36.3222 22.159
36.5101 22.0453
36.6981 21.7
36.8861 21.3506
37.0743 21.071
37.2626 20.8737
37.451 20.5491
37.6395 20.437
37.8281 20.0444
38.0168 19.8131
38.2056 19.6127
38.3945 19.2887
38.5837 19.0701
38.7728 18.8736
38.9621 18.5909
39.1514 18.4054
39.3409 18.129
39.5304 17.9393
39.7201 17.7634
39.9099 17.5337
40.0999 17.2736
40.2899 17.0416
40.48 16.8019
40.6703 16.6044
40.8607 16.3914
41.0512 16.2304
41.242 15.9298
41.4327 15.7422
41.6236 15.5574
41.8146 15.3971
42.0057 15.1016
42.1969 14.9601
42.3882 14.7985
42.5797 14.549
42.7713 14.3902
42.963 14.1461
43.1549 13.9721
43.3468 13.7767
43.5389 13.575
43.7312 13.3569
43.9237 13.2215
44.1162 13.0333
44.3088 12.8871
44.5016 12.6562
44.6945 12.4921
44.8875 12.3599
45.0806 12.1693
45.2739 11.9486
45.4673 11.8054
45.6609 11.6372
45.8546 11.5047
46.0484 11.334
46.2424 11.1357
46.4365 11.004
46.631 10.7903
46.8254 10.6444
47.0199 10.5038
47.2146 10.381
47.4095 10.202
47.6044 10.083
47.7996 9.90972
47.9948 9.75892
48.1902 9.63433
48.3858 9.50464
48.5815 9.37986
48.7774 9.20585
48.9734 9.09696
49.1696 8.9925
49.3661 8.78618
49.5626 8.64251
49.7592 8.56472
49.956 8.42546
50.153 8.26678
50.3501 8.13538
50.5474 8.01407
50.7448 7.91957
50.9424 7.79262
51.1402 7.6611
51.3381 7.5174
51.5362 7.44798
51.7344 7.28484
51.9328 7.1509
52.1316 7.06609
52.3304 6.95029
52.5293 6.83575
52.7284 6.70454
52.9276 6.61111
53.1271 6.49671
53.3267 6.41346
53.5265 6.2825
53.7264 6.19907
53.9266 6.05479
54.1269 6.00079
54.3274 5.8515
54.528 5.73147
54.7289 5.57584
54.9301 5.3969
55.1314 5.2531
55.3328 5.0537
55.5344 4.89211
55.7361 4.76227