File: XRD/Ni3Fe_FD0282.xy
TT I
1.27165 7.68128
1.45013 6.56099
1.62863 6.12139
1.80712 5.05438
1.98562 4.32636
2.16411 5.21317
2.34263 4.484
2.52115 5.3353
2.69965 7.1052
2.87818 8.29503
3.05672 11.3542
3.23527 14.6467
3.4138 18.6427
3.59237 24.8395
3.77094 26.8324
3.9495 30.7901
4.12809 36.2164
4.30669 247.166
4.4853 69.6449
4.6639 57.1995
4.84253 69.507
5.02118 91.8442
5.19981 509.537
5.37848 263.879
5.55716 108.531
5.73586 97.4252
5.91455 101.573
6.09328 3666.81
6.27201 89.7259
6.45075 70.3862
6.62952 65.4163
6.8083 61.3657
6.98711 57.7152
7.16591 58.0131
7.34475 100.401
7.5236 56.5757
7.70247 58.6585
7.88135 60.0099
8.06026 64.7075
8.23919 72.4695
8.41812 89.3539
8.59709 1041.87
8.77609 109.183
8.9551 96.4782
9.13412 85.0734
9.31318 86.2524
9.49226 87.6488
9.67134 103.707
9.85047 104.379
10.0296 403.606
10.2088 597.346
10.388 110.76
10.5672 452.877
10.7465 91.0478
10.9257 81.7008
11.105 74.5683
11.2844 73.5597
11.4637 67.4053
11.6431 65.8534
11.8225 65.2134
12.002 66.301
12.1814 139.975
12.3609 76.0892
12.5405 67.2977
12.72 73.5359
12.8996 73.7603
13.0792 82.0933
13.2589 218.716
13.4386 151.403
13.6183 221.82
13.7981 112.906
13.9779 78.8585
14.1577 75.3447
14.3376 74.5749
14.5175 71.248
14.6974 73.5942
14.8774 111.855
15.0574 175.116
15.2374 74.2236
15.4175 69.1845
15.5976 68.4362
15.7778 97.7343
15.958 176.16
16.1382 65.6761
16.3185 61.1843
16.4988 57.734
16.6792 56.6252
16.8596 57.3613
17.04 58.2229
17.2205 67.6627
17.401 77.9404
17.5815 61.5252
17.7622 63.6247
17.9428 78.1566
18.1237 136.947
18.3044 89.6708
18.4852 86.2495
18.666 62.991
18.8469 60.5058
19.0278 59.2545
19.2088 62.1721
19.3898 77.6603
19.5709 56.7757
19.752 55.3824
19.9332 58.6963
20.1144 71.5334
20.2957 64.3298
20.477 57.0485
20.6586 51.8065
20.84 50.8068
21.0215 50.7205
21.203 52.4753
21.3846 51.2375
21.5662 50.6562
21.7479 54.4354
21.9297 66.5087
22.1115 57.8145
22.2933 52.6362
22.4753 50.9692
22.6572 50.8773
22.8393 53.6792
23.0214 59.8636
23.2037 51.0992
23.3859 51.9064
23.5682 57.6496
23.7505 51.3577
23.9329 47.2814
24.1154 46.0625
24.2979 45.1575
24.4805 44.7254
24.6631 44.6566
24.8458 43.9078
25.0286 44.4247
25.2114 46.2968
25.3943 46.5983
25.5773 42.619
25.7605 42.0358
25.9436 42.4385
26.1268 43.3071
26.31 41.8206
26.4933 42.3597
26.6767 43.6827
26.8601 42.1881
27.0437 40.5592
27.2272 40.0121
27.4109 39.8488
27.5946 39.9679
27.7784 39.4298
27.9623 39.7412
28.1462 40.3652
28.3304 38.8646
28.5145 37.41
28.6987 37.0866
28.8829 36.7099
29.0673 36.0532
29.2517 35.692
29.4361 35.4833
29.6207 34.5791
29.8053 34.2784
29.99 33.9306
30.1748 33.6827
30.3597 33.6574
30.5447 33.4594
30.7297 33.3752
30.915 32.8936
31.1002 32.332
31.2855 32.1093
31.4708 31.9984
31.6563 31.6017
31.8418 31.308
32.0275 31.2018
32.2132 30.5925
32.399 30.1314
32.5848 29.5152
32.7708 29.3348
32.9569 29.1379
33.143 28.8478
33.3293 28.4845
33.5158 28.1454
33.7022 27.683
33.8887 27.363
34.0753 26.9712
34.262 26.663
34.4488 26.3724
34.6357 26.0001
34.8227 25.7477
35.0098 25.4476
35.1969 25.1483
35.3842 24.9054
35.5716 24.703
35.759 24.3154
35.9468 24.0337
36.1345 23.7643
36.3222 23.7073
36.5101 23.3014
36.6981 23.047
36.8861 22.7107
37.0743 22.3898
37.2626 22.0456
37.451 21.8288
37.6395 21.6588
37.8281 21.3035
38.0168 20.9871
38.2056 20.8068
38.3945 20.532
38.5837 20.2269
38.7728 20.0058
38.9621 19.6793
39.1514 19.4098
39.3409 19.1755
39.5304 18.9543
39.7201 18.8033
39.9099 18.5374
40.0999 18.3279
40.2899 18.004
40.48 17.8259
40.6703 17.5768
40.8607 17.4335
41.0512 17.1719
41.242 16.8994
41.4327 16.7335
41.6236 16.4403
41.8146 16.3001
42.0057 16.0352
42.1969 15.8536
42.3882 15.6609
42.5797 15.3651
42.7713 15.2039
42.963 15.069
43.1549 14.8241
43.3468 14.5609
43.5389 14.3644
43.7312 14.1271
43.9237 13.9536
44.1162 13.8383
44.3088 13.5685
44.5016 13.4126
44.6945 13.2156
44.8875 13.024
45.0806 12.8718
45.2739 12.6966
45.4673 12.5315
45.6609 12.2913
45.8546 12.1837
46.0484 12.0393
46.2424 11.8171
46.4365 11.6676
46.631 11.4356
46.8254 11.2934
47.0199 11.0953
47.2146 10.9664
47.4095 10.8253
47.6044 10.6099
47.7996 10.4734
47.9948 10.3474
48.1902 10.1768
48.3858 10.0271
48.5815 9.87143
48.7774 9.75105
48.9734 9.65329
49.1696 9.47574
49.3661 9.32806
49.5626 9.15674
49.7592 9.05695
49.956 8.90929
50.153 8.76989
50.3501 8.61135
50.5474 8.51928
50.7448 8.38682
50.9424 8.25707
51.1402 8.11413
51.3381 7.97701
51.5362 7.83591
51.7344 7.72633
51.9328 7.58641
52.1316 7.44933
52.3304 7.35392
52.5293 7.21174
52.7284 7.10061
52.9276 6.97845
53.1271 6.86344
53.3267 6.74978
53.5265 6.62496
53.7264 6.53427
53.9266 6.40056
54.1269 6.26211
54.3274 6.13242
54.528 5.98259
54.7289 5.80724
54.9301 5.66423
55.1314 5.57604
55.3328 5.3462
55.5344 5.1098
55.7361 5.03572