File: XRD/Ni3Fe_FD0632.xy
TT I
1.27165 7.27827
1.45013 6.59378
1.62863 4.78161
1.80712 4.40214
1.98562 4.82192
2.16411 4.92178
2.34263 4.80396
2.52115 6.48854
2.69965 7.81097
2.87818 8.57266
3.05672 10.8083
3.23527 14.6769
3.4138 19.2827
3.59237 24.4863
3.77094 26.423
3.9495 30.0625
4.12809 34.9906
4.30669 242.38
4.4853 68.5169
4.6639 55.0093
4.84253 67.2242
5.02118 86.3949
5.19981 342.473
5.37848 194.476
5.55716 102.391
5.73586 92.1432
5.91455 93.3681
6.09328 4407.79
6.27201 84.0403
6.45075 67.7064
6.62952 63.2776
6.8083 59.0837
6.98711 56.1055
7.16591 55.4083
7.34475 97.4409
7.5236 55.1738
7.70247 56.5864
7.88135 58.2437
8.06026 62.4364
8.23919 69.5826
8.41812 85.5871
8.59709 1135.34
8.77609 100.471
8.9551 92.8851
9.13412 82.0929
9.31318 82.5011
9.49226 84.9022
9.67134 100.092
9.85047 100.027
10.0296 328.613
10.2088 430.036
10.388 105.281
10.5672 501.144
10.7465 87.2457
10.9257 79.2212
11.105 72.1307
11.2844 70.9214
11.4637 65.4097
11.6431 63.7471
11.8225 62.781
12.002 63.8676
12.1814 148.893
12.3609 71.9838
12.5405 64.6664
12.72 70.5223
12.8996 71.0648
13.0792 78.9263
13.2589 232.723
13.4386 127.873
13.6183 242.421
13.7981 100.443
13.9779 76.0393
14.1577 72.8347
14.3376 72.4094
14.5175 69.2307
14.6974 70.5964
14.8774 108.63
15.0574 154.408
15.2374 71.5565
15.4175 66.553
15.5976 65.8054
15.7778 93.6746
15.958 159.533
16.1382 63.4647
16.3185 59.0967
16.4988 55.8036
16.6792 54.645
16.8596 55.555
17.04 56.0436
17.2205 66.5337
17.401 72.2879
17.5815 59.4838
17.7622 61.356
17.9428 73.301
18.1237 138.746
18.3044 90.1487
18.4852 79.2792
18.666 60.622
18.8469 58.2242
19.0278 57.2526
19.2088 59.6951
19.3898 76.709
19.5709 54.4737
19.752 53.4832
19.9332 56.3258
20.1144 69.6898
20.2957 63.9014
20.477 54.1413
20.6586 49.7672
20.84 48.8868
21.0215 48.7713
21.203 50.9116
21.3846 49.2012
21.5662 48.9498
21.7479 52.5564
21.9297 64.5817
22.1115 56.0984
22.2933 50.2349
22.4753 49.0346
22.6572 48.8024
22.8393 51.9245
23.0214 57.763
23.2037 49.0366
23.3859 49.9312
23.5682 56.8929
23.7505 48.6829
23.9329 45.2695
24.1154 44.1862
24.2979 43.6047
24.4805 43.0647
24.6631 42.9819
24.8458 42.3602
25.0286 42.8645
25.2114 44.719
25.3943 44.8392
25.5773 41.1765
25.7605 40.562
25.9436 41.0523
26.1268 41.9307
26.31 40.2114
26.4933 40.7556
26.6767 42.3042
26.8601 40.6224
27.0437 39.0315
27.2272 38.6408
27.4109 38.6365
27.5946 38.5146
27.7784 38.0676
27.9623 38.4822
28.1462 39.0726
28.3304 37.455
28.5145 36.2041
28.6987 35.8451
28.8829 35.6415
29.0673 34.8463
29.2517 34.5444
29.4361 34.307
29.6207 33.327
29.8053 33.0653
29.99 32.66
30.1748 32.654
30.3597 32.4166
30.5447 32.3209
30.7297 32.3657
30.915 31.7362
31.1002 31.3276
31.2855 30.9502
31.4708 30.9043
31.6563 30.4932
31.8418 30.2926
32.0275 30.0494
32.2132 29.546
32.399 29.1312
32.5848 28.5653
32.7708 28.2053
32.9569 28.159
33.143 27.9148
33.3293 27.5055
33.5158 27.2047
33.7022 26.717
33.8887 26.5529
34.0753 26.1388
34.262 25.7241
34.4488 25.3807
34.6357 25.0972
34.8227 24.8023
35.0098 24.6143
35.1969 24.2858
35.3842 24.073
35.5716 23.9192
35.759 23.5027
35.9468 23.2146
36.1345 23.0215
36.3222 22.7857
36.5101 22.4847
36.6981 22.1701
36.8861 21.9176
37.0743 21.6219
37.2626 21.4406
37.451 21.1588
37.6395 20.9915
37.8281 20.577
38.0168 20.3636
38.2056 20.0846
38.3945 19.8374
38.5837 19.5506
38.7728 19.3066
38.9621 19.0164
39.1514 18.8512
39.3409 18.5422
39.5304 18.3738
39.7201 18.2112
39.9099 17.9637
40.0999 17.636
40.2899 17.4756
40.48 17.1682
40.6703 17.0207
40.8607 16.8112
41.0512 16.5893
41.242 16.3944
41.4327 16.1301
41.6236 15.9212
41.8146 15.7565
42.0057 15.439
42.1969 15.266
42.3882 15.1283
42.5797 14.9587
42.7713 14.6633
42.963 14.5535
43.1549 14.3046
43.3468 14.1079
43.5389 13.8809
43.7312 13.6893
43.9237 13.5494
44.1162 13.3235
44.3088 13.16
44.5016 12.9705
44.6945 12.7688
44.8875 12.6026
45.0806 12.4078
45.2739 12.2691
45.4673 12.1088
45.6609 11.9062
45.8546 11.7459
46.0484 11.5761
46.2424 11.3872
46.4365 11.2625
46.631 11.0808
46.8254 10.9379
47.0199 10.7759
47.2146 10.6072
47.4095 10.4588
47.6044 10.3182
47.7996 10.1317
47.9948 9.98451
48.1902 9.8381
48.3858 9.75172
48.5815 9.6085
48.7774 9.41684
48.9734 9.31881
49.1696 9.12327
49.3661 9.05517
49.5626 8.85376
49.7592 8.73694
49.956 8.63022
50.153 8.48049
50.3501 8.31791
50.5474 8.23798
50.7448 8.08554
50.9424 7.92437
51.1402 7.8517
51.3381 7.71819
51.5362 7.60549
51.7344 7.46867
51.9328 7.34333
52.1316 7.17764
52.3304 7.10394
52.5293 6.9771
52.7284 6.93294
52.9276 6.76541
53.1271 6.65028
53.3267 6.52979
53.5265 6.43962
53.7264 6.2755
53.9266 6.20844
54.1269 6.06654
54.3274 5.99542
54.528 5.8573
54.7289 5.67086
54.9301 5.5229
55.1314 5.3907
55.3328 5.23614
55.5344 4.98517
55.7361 4.8644