File: XRD/Ni3Fe_FD0624.xy
TT I
1.27165 7.66016
1.45013 5.75388
1.62863 5.41017
1.80712 4.76119
1.98562 5.16649
2.16411 4.68237
2.34263 5.39583
2.52115 7.17048
2.69965 7.89705
2.87818 8.09703
3.05672 11.3617
3.23527 15.3148
3.4138 19.1285
3.59237 24.4522
3.77094 26.4439
3.9495 30.0321
4.12809 35.3369
4.30669 222.748
4.4853 66.4311
4.6639 55.865
4.84253 67.3436
5.02118 86.8567
5.19981 346.638
5.37848 194.828
5.55716 102.406
5.73586 92.2135
5.91455 94.2081
6.09328 4379.57
6.27201 83.7293
6.45075 67.7876
6.62952 63.3392
6.8083 58.8592
6.98711 56.4111
7.16591 55.4735
7.34475 93.744
7.5236 54.9501
7.70247 56.071
7.88135 58.026
8.06026 62.4722
8.23919 70.2818
8.41812 85.8108
8.59709 1169.72
8.77609 100.35
8.9551 91.9682
9.13412 81.9441
9.31318 82.6566
9.49226 84.4934
9.67134 99.4021
9.85047 100.193
10.0296 335.227
10.2088 425.587
10.388 104.964
10.5672 502.935
10.7465 87.3775
10.9257 78.7606
11.105 72.1107
11.2844 70.8011
11.4637 65.1233
11.6431 63.7304
11.8225 62.5221
12.002 63.6802
12.1814 150.912
12.3609 71.3335
12.5405 64.9484
12.72 70.3915
12.8996 71.0106
13.0792 78.9706
13.2589 235.383
13.4386 129.001
13.6183 245.837
13.7981 100.491
13.9779 76.2806
14.1577 73.0135
14.3376 72.0335
14.5175 68.9416
14.6974 70.7513
14.8774 110.301
15.0574 151.519
15.2374 71.5606
15.4175 66.677
15.5976 66.1042
15.7778 94.6951
15.958 157.053
16.1382 63.1027
16.3185 59.0724
16.4988 55.7856
16.6792 54.6885
16.8596 55.5567
17.04 55.9976
17.2205 66.9371
17.401 72.6501
17.5815 59.6636
17.7622 61.4817
17.9428 73.4953
18.1237 138.717
18.3044 90.9201
18.4852 78.85
18.666 60.8677
18.8469 58.2386
19.0278 57.2927
19.2088 59.8548
19.3898 76.4033
19.5709 54.6421
19.752 53.5607
19.9332 56.3415
20.1144 69.8265
20.2957 63.9638
20.477 54.3382
20.6586 49.886
20.84 48.9005
21.0215 48.8349
21.203 51.1385
21.3846 49.1466
21.5662 48.8599
21.7479 52.6586
21.9297 64.5547
22.1115 56.261
22.2933 50.0896
22.4753 49.262
22.6572 49.0707
22.8393 52.0085
23.0214 57.649
23.2037 49.0795
23.3859 49.9602
23.5682 57.0289
23.7505 48.7995
23.9329 45.5073
24.1154 44.3608
24.2979 43.6261
24.4805 43.0981
24.6631 43.1351
24.8458 42.5201
25.0286 42.9464
25.2114 44.8447
25.3943 44.7277
25.5773 41.1477
25.7605 40.6314
25.9436 40.9845
26.1268 41.8705
26.31 40.1858
26.4933 41.0789
26.6767 42.3333
26.8601 40.6884
27.0437 39.0239
27.2272 38.6416
27.4109 38.5959
27.5946 38.5262
27.7784 38.0977
27.9623 38.6756
28.1462 38.8918
28.3304 37.3565
28.5145 36.1044
28.6987 35.8155
28.8829 35.56
29.0673 34.8217
29.2517 34.4895
29.4361 34.3266
29.6207 33.3268
29.8053 33.1687
29.99 32.8038
30.1748 32.6873
30.3597 32.5098
30.5447 32.2941
30.7297 32.4447
30.915 31.8394
31.1002 31.3524
31.2855 31.0469
31.4708 30.9937
31.6563 30.4325
31.8418 30.2582
32.0275 30.0426
32.2132 29.5652
32.399 29.1115
32.5848 28.5792
32.7708 28.3109
32.9569 28.1861
33.143 27.8866
33.3293 27.6145
33.5158 27.2707
33.7022 26.7941
33.8887 26.4646
34.0753 26.1618
34.262 25.9471
34.4488 25.4175
34.6357 25.0928
34.8227 24.8449
35.0098 24.665
35.1969 24.3072
35.3842 24.1418
35.5716 23.9193
35.759 23.6301
35.9468 23.2143
36.1345 23.0815
36.3222 22.7795
36.5101 22.5297
36.6981 22.2546
36.8861 21.9237
37.0743 21.6181
37.2626 21.3747
37.451 21.1686
37.6395 20.9079
37.8281 20.5341
38.0168 20.3181
38.2056 20.077
38.3945 19.7681
38.5837 19.573
38.7728 19.3232
38.9621 19.0593
39.1514 18.829
39.3409 18.57
39.5304 18.3489
39.7201 18.1779
39.9099 17.9208
40.0999 17.7273
40.2899 17.4778
40.48 17.2012
40.6703 16.9795
40.8607 16.8364
41.0512 16.5641
41.242 16.3767
41.4327 16.1344
41.6236 15.8799
41.8146 15.7459
42.0057 15.5428
42.1969 15.3241
42.3882 15.1555
42.5797 14.9172
42.7713 14.6921
42.963 14.4913
43.1549 14.3428
43.3468 14.0258
43.5389 13.9327
43.7312 13.665
43.9237 13.4801
44.1162 13.3482
44.3088 13.1548
44.5016 12.9486
44.6945 12.7997
44.8875 12.6801
45.0806 12.5288
45.2739 12.2867
45.4673 12.0783
45.6609 11.9233
45.8546 11.7437
46.0484 11.5999
46.2424 11.4555
46.4365 11.2586
46.631 11.0713
46.8254 10.9093
47.0199 10.7608
47.2146 10.6573
47.4095 10.4482
47.6044 10.3195
47.7996 10.1672
47.9948 9.96035
48.1902 9.87313
48.3858 9.70248
48.5815 9.58809
48.7774 9.44891
48.9734 9.27991
49.1696 9.17729
49.3661 9.03831
49.5626 8.86346
49.7592 8.74544
49.956 8.5794
50.153 8.50738
50.3501 8.37383
50.5474 8.22517
50.7448 8.10202
50.9424 7.95469
51.1402 7.85132
51.3381 7.71217
51.5362 7.62581
51.7344 7.45288
51.9328 7.3165
52.1316 7.21742
52.3304 7.1232
52.5293 6.94759
52.7284 6.88859
52.9276 6.7587
53.1271 6.67835
53.3267 6.54446
53.5265 6.44914
53.7264 6.31915
53.9266 6.24089
54.1269 6.09384
54.3274 5.95912
54.528 5.82067
54.7289 5.65902
54.9301 5.49843
55.1314 5.33877
55.3328 5.11709
55.5344 4.90209
55.7361 4.87056