File: XRD/Ni3Fe_FD0614.xy
TT I
1.27165 7.38566
1.45013 5.64521
1.62863 5.62737
1.80712 4.96517
1.98562 4.39186
2.16411 5.16751
2.34263 4.72372
2.52115 6.51562
2.69965 8.05481
2.87818 8.02368
3.05672 11.3371
3.23527 15.0188
3.4138 19.4678
3.59237 24.227
3.77094 25.9936
3.9495 30.0564
4.12809 35.4477
4.30669 194.863
4.4853 64.0185
4.6639 55.8083
4.84253 67.5677
5.02118 87.5889
5.19981 359.741
5.37848 193.603
5.55716 103.206
5.73586 93.3946
5.91455 94.8369
6.09328 4372.59
6.27201 83.8368
6.45075 67.4499
6.62952 63.0163
6.8083 58.7318
6.98711 56.0284
7.16591 55.722
7.34475 87.2335
7.5236 55.0846
7.70247 56.3909
7.88135 58.0768
8.06026 62.4068
8.23919 69.8741
8.41812 85.8005
8.59709 1207.17
8.77609 100.958
8.9551 91.6052
9.13412 82.7866
9.31318 83.2749
9.49226 85.2089
9.67134 98.2035
9.85047 100.432
10.0296 345.928
10.2088 414.881
10.388 105.015
10.5672 509.986
10.7465 87.4691
10.9257 78.6911
11.105 72.2977
11.2844 70.3714
11.4637 65.2519
11.6431 63.9502
11.8225 62.7527
12.002 63.7977
12.1814 153.535
12.3609 70.8591
12.5405 64.6735
12.72 69.9469
12.8996 71.2614
13.0792 79.1528
13.2589 242.393
13.4386 128.068
13.6183 250.516
13.7981 99.436
13.9779 76.4791
14.1577 72.9452
14.3376 71.6968
14.5175 69.2556
14.6974 70.9253
14.8774 112.276
15.0574 152.156
15.2374 71.273
15.4175 66.7604
15.5976 66.1197
15.7778 96.2062
15.958 155.14
16.1382 62.9351
16.3185 58.9628
16.4988 55.9678
16.6792 54.9229
16.8596 55.5686
17.04 56.2093
17.2205 67.1592
17.401 72.3841
17.5815 59.6093
17.7622 61.7519
17.9428 74.2004
18.1237 139.094
18.3044 91.6796
18.4852 78.8654
18.666 60.7036
18.8469 58.3828
19.0278 57.1898
19.2088 59.9384
19.3898 76.0238
19.5709 54.4785
19.752 53.566
19.9332 56.4592
20.1144 69.6039
20.2957 64.1376
20.477 54.2349
20.6586 49.9797
20.84 49.1441
21.0215 48.9812
21.203 51.1563
21.3846 49.2603
21.5662 49.0608
21.7479 53.1908
21.9297 64.4022
22.1115 56.41
22.2933 50.3295
22.4753 49.1061
22.6572 49.2074
22.8393 52.2426
23.0214 57.4381
23.2037 49.1414
23.3859 50.1039
23.5682 57.1176
23.7505 48.8012
23.9329 45.5144
24.1154 44.4676
24.2979 43.8022
24.4805 43.2413
24.6631 43.1117
24.8458 42.6018
25.0286 43.1231
25.2114 44.8878
25.3943 44.8222
25.5773 41.179
25.7605 40.6648
25.9436 41.0695
26.1268 41.9558
26.31 40.5087
26.4933 41.0258
26.6767 42.2971
26.8601 40.8303
27.0437 39.0425
27.2272 38.7538
27.4109 38.6013
27.5946 38.6214
27.7784 38.0813
27.9623 38.6062
28.1462 38.9596
28.3304 37.4243
28.5145 36.1844
28.6987 35.8953
28.8829 35.5684
29.0673 34.8533
29.2517 34.5159
29.4361 34.282
29.6207 33.2995
29.8053 33.1519
29.99 32.8939
30.1748 32.6081
30.3597 32.4966
30.5447 32.3682
30.7297 32.4269
30.915 31.7606
31.1002 31.3287
31.2855 31.0502
31.4708 30.9728
31.6563 30.5443
31.8418 30.356
32.0275 30.0924
32.2132 29.5091
32.399 29.1182
32.5848 28.6315
32.7708 28.3345
32.9569 28.1663
33.143 27.9696
33.3293 27.6486
33.5158 27.2226
33.7022 26.7622
33.8887 26.5096
34.0753 26.156
34.262 25.7828
34.4488 25.4975
34.6357 25.1859
34.8227 24.8655
35.0098 24.6301
35.1969 24.3779
35.3842 24.0943
35.5716 23.928
35.759 23.5529
35.9468 23.2677
36.1345 23.0927
36.3222 22.82
36.5101 22.5407
36.6981 22.215
36.8861 21.9486
37.0743 21.7051
37.2626 21.3945
37.451 21.1254
37.6395 20.9063
37.8281 20.613
38.0168 20.2997
38.2056 20.1219
38.3945 19.8402
38.5837 19.5626
38.7728 19.3206
38.9621 19.0552
39.1514 18.9063
39.3409 18.5856
39.5304 18.3497
39.7201 18.1815
39.9099 17.9974
40.0999 17.7299
40.2899 17.4693
40.48 17.2308
40.6703 17.0374
40.8607 16.8597
41.0512 16.5389
41.242 16.3642
41.4327 16.1758
41.6236 15.9071
41.8146 15.7758
42.0057 15.5047
42.1969 15.3429
42.3882 15.1325
42.5797 14.8823
42.7713 14.7376
42.963 14.5463
43.1549 14.3559
43.3468 14.0854
43.5389 13.9153
43.7312 13.6643
43.9237 13.5478
44.1162 13.3656
44.3088 13.1552
44.5016 12.9677
44.6945 12.8137
44.8875 12.7112
45.0806 12.4486
45.2739 12.2941
45.4673 12.1042
45.6609 11.9496
45.8546 11.7809
46.0484 11.601
46.2424 11.4301
46.4365 11.2981
46.631 11.097
46.8254 10.9457
47.0199 10.7859
47.2146 10.6163
47.4095 10.4408
47.6044 10.2609
47.7996 10.1581
47.9948 10.0059
48.1902 9.8552
48.3858 9.71594
48.5815 9.59145
48.7774 9.44836
48.9734 9.31019
49.1696 9.16781
49.3661 9.016
49.5626 8.85153
49.7592 8.73527
49.956 8.61665
50.153 8.50629
50.3501 8.34008
50.5474 8.2526
50.7448 8.12878
50.9424 7.98079
51.1402 7.87219
51.3381 7.71258
51.5362 7.61876
51.7344 7.47083
51.9328 7.34804
52.1316 7.18095
52.3304 7.13922
52.5293 6.99
52.7284 6.8573
52.9276 6.78846
53.1271 6.68676
53.3267 6.53166
53.5265 6.39904
53.7264 6.36194
53.9266 6.18159
54.1269 6.0654
54.3274 5.96538
54.528 5.80056
54.7289 5.70961
54.9301 5.49575
55.1314 5.42467
55.3328 5.17579
55.5344 5.02363
55.7361 4.86276