File: XRD/Ni3Fe_FD1056.xy
TT I
1.27165 7.0956
1.45013 5.96189
1.62863 5.34669
1.80712 4.24959
1.98562 4.23325
2.16411 4.26981
2.34263 5.5725
2.52115 6.69329
2.69965 9.30979
2.87818 9.09908
3.05672 10.8179
3.23527 14.7072
3.4138 18.2205
3.59237 20.8065
3.77094 24.6139
3.9495 28.317
4.12809 32.3093
4.30669 55.8533
4.4853 46.6109
4.6639 53.0217
4.84253 64.0518
5.02118 82.9861
5.19981 232.47
5.37848 211.554
5.55716 97.4461
5.73586 87.9045
5.91455 89.1469
6.09328 4550.53
6.27201 76.1388
6.45075 63.6089
6.62952 58.0288
6.8083 54.5717
6.98711 52.5806
7.16591 51.3462
7.34475 55.9733
7.5236 59.0496
7.70247 53.2592
7.88135 54.9669
8.06026 58.904
8.23919 65.7672
8.41812 77.7677
8.59709 1093.17
8.77609 94.7389
8.9551 82.553
9.13412 79.1145
9.31318 89.1852
9.49226 80.9432
9.67134 86.4953
9.85047 94.1525
10.0296 351.18
10.2088 438.664
10.388 98.2453
10.5672 507.439
10.7465 86.3492
10.9257 73.4603
11.105 67.9563
11.2844 64.9755
11.4637 61.8608
11.6431 60.5066
11.8225 59.7395
12.002 66.5685
12.1814 146.213
12.3609 64.6647
12.5405 61.3589
12.72 63.9443
12.8996 67.9845
13.0792 76.8396
13.2589 229.59
13.4386 127.35
13.6183 237.493
13.7981 100.271
13.9779 73.5689
14.1577 75.5321
14.3376 67.3872
14.5175 66.5244
14.6974 67.6731
14.8774 110.57
15.0574 160.566
15.2374 66.7545
15.4175 63.9477
15.5976 63.5907
15.7778 94.7036
15.958 168.581
16.1382 59.8317
16.3185 55.6481
16.4988 53.3987
16.6792 52.633
16.8596 53.0051
17.04 54.0717
17.2205 65.0171
17.401 72.1423
17.5815 57.3818
17.7622 60.0067
17.9428 73.5459
18.1237 142.087
18.3044 88.9977
18.4852 79.117
18.666 58.9509
18.8469 56.5138
19.0278 55.0684
19.2088 58.0431
19.3898 76.1253
19.5709 52.9922
19.752 51.8907
19.9332 55.168
20.1144 70.4341
20.2957 63.3646
20.477 52.7748
20.6586 48.3534
20.84 48.0242
21.0215 47.4016
21.203 49.6779
21.3846 48.0111
21.5662 47.5219
21.7479 51.683
21.9297 65.2707
22.1115 55.9032
22.2933 49.2205
22.4753 47.5524
22.6572 47.752
22.8393 51.1566
23.0214 57.5344
23.2037 47.9403
23.3859 49.3489
23.5682 57.1149
23.7505 48.2577
23.9329 44.3565
24.1154 43.1589
24.2979 42.5461
24.4805 42.0913
24.6631 42.1834
24.8458 41.2801
25.0286 42.0211
25.2114 44.3441
25.3943 44.4228
25.5773 40.2419
25.7605 39.6714
25.9436 40.0153
26.1268 41.2492
26.31 39.357
26.4933 40.1201
26.6767 41.9111
26.8601 40.0265
27.0437 38.301
27.2272 37.859
27.4109 37.9212
27.5946 37.9427
27.7784 37.288
27.9623 38.0515
28.1462 38.6376
28.3304 36.887
28.5145 35.4679
28.6987 35.0029
28.8829 34.8311
29.0673 34.2049
29.2517 33.777
29.4361 33.765
29.6207 32.5903
29.8053 32.4031
29.99 32.1062
30.1748 31.9587
30.3597 31.6999
30.5447 31.6819
30.7297 31.9183
30.915 31.3508
31.1002 30.7041
31.2855 30.4522
31.4708 30.4234
31.6563 30.0047
31.8418 29.721
32.0275 29.5757
32.2132 29.0718
32.399 28.5688
32.5848 27.9737
32.7708 27.7704
32.9569 27.5728
33.143 27.4369
33.3293 27.0436
33.5158 26.693
33.7022 26.228
33.8887 25.9975
34.0753 25.6127
34.262 25.2434
34.4488 24.9622
34.6357 24.6652
34.8227 24.3565
35.0098 24.1755
35.1969 23.8964
35.3842 23.6483
35.5716 23.4561
35.759 23.1472
35.9468 22.7707
36.1345 22.61
36.3222 22.3274
36.5101 22.1249
36.6981 21.8675
36.8861 21.4695
37.0743 21.2038
37.2626 20.9213
37.451 20.6551
37.6395 20.5296
37.8281 20.1798
38.0168 19.9384
38.2056 19.6655
38.3945 19.4138
38.5837 19.1808
38.7728 18.9078
38.9621 18.6641
39.1514 18.4694
39.3409 18.173
39.5304 17.9585
39.7201 17.7955
39.9099 17.6171
40.0999 17.3174
40.2899 17.1588
40.48 16.8792
40.6703 16.6901
40.8607 16.4891
41.0512 16.2758
41.242 15.9857
41.4327 15.808
41.6236 15.5645
41.8146 15.4721
42.0057 15.2156
42.1969 14.9563
42.3882 14.8203
42.5797 14.5895
42.7713 14.4026
42.963 14.2377
43.1549 14.007
43.3468 13.8141
43.5389 13.6105
43.7312 13.4578
43.9237 13.2736
44.1162 13.0366
44.3088 12.9304
44.5016 12.7164
44.6945 12.5858
44.8875 12.3845
45.0806 12.2331
45.2739 11.9853
45.4673 11.8674
45.6609 11.7203
45.8546 11.5156
46.0484 11.3547
46.2424 11.1968
46.4365 11.0525
46.631 10.9232
46.8254 10.7227
47.0199 10.5536
47.2146 10.4276
47.4095 10.2204
47.6044 10.0964
47.7996 9.93847
47.9948 9.77009
48.1902 9.68173
48.3858 9.54216
48.5815 9.39104
48.7774 9.24527
48.9734 9.14888
49.1696 8.98898
49.3661 8.82621
49.5626 8.68073
49.7592 8.56863
49.956 8.42337
50.153 8.33329
50.3501 8.18422
50.5474 8.01391
50.7448 7.93273
50.9424 7.78811
51.1402 7.6663
51.3381 7.57619
51.5362 7.45037
51.7344 7.33868
51.9328 7.18803
52.1316 7.07663
52.3304 6.96152
52.5293 6.86751
52.7284 6.75633
52.9276 6.59729
53.1271 6.52082
53.3267 6.40225
53.5265 6.30405
53.7264 6.1483
53.9266 6.08572
54.1269 5.9703
54.3274 5.85579
54.528 5.74268
54.7289 5.56055
54.9301 5.42702
55.1314 5.29306
55.3328 5.10289
55.5344 4.91633
55.7361 4.74503