File: XRD/Ni3Fe_FD0252.xy
TT I
1.27165 8.02351
1.45013 6.31643
1.62863 5.42209
1.80712 5.04429
1.98562 4.96851
2.16411 4.88973
2.34263 4.6459
2.52115 4.97779
2.69965 6.62278
2.87818 7.70165
3.05672 10.6033
3.23527 15.0203
3.4138 19.364
3.59237 22.3915
3.77094 26.006
3.9495 30.0192
4.12809 34.9028
4.30669 40.3833
4.4853 48.7507
4.6639 57.8435
4.84253 71.7334
5.02118 95.432
5.19981 880.089
5.37848 261.35
5.55716 111.517
5.73586 100.506
5.91455 108.557
6.09328 3716.07
6.27201 88.1312
6.45075 71.2065
6.62952 64.4774
6.8083 60.294
6.98711 57.5749
7.16591 56.5954
7.34475 55.6404
7.5236 56.1154
7.70247 58.1372
7.88135 59.9605
8.06026 65.212
8.23919 73.0099
8.41812 89.6099
8.59709 1086.02
8.77609 109.278
8.9551 90.6257
9.13412 86.7524
9.31318 87.9992
9.49226 89.3046
9.67134 95.3292
9.85047 106.275
10.0296 513.708
10.2088 518.74
10.388 114.872
10.5672 452.087
10.7465 91.632
10.9257 80.7319
11.105 74.2993
11.2844 70.2909
11.4637 67.5029
11.6431 66.1863
11.8225 65.1576
12.002 68.1554
12.1814 142.194
12.3609 69.82
12.5405 67.14
12.72 69.5867
12.8996 74.4311
13.0792 86.238
13.2589 233.148
13.4386 146.62
13.6183 229.496
13.7981 109.605
13.9779 79.3862
14.1577 75.0354
14.3376 72.6828
14.5175 72.3461
14.6974 74.5389
14.8774 120.492
15.0574 167.472
15.2374 72.2227
15.4175 69.4274
15.5976 69.42
15.7778 104.005
15.958 169.079
16.1382 63.4848
16.3185 60.0149
16.4988 57.8767
16.6792 56.8208
16.8596 57.0918
17.04 59.0255
17.2205 69.204
17.401 76.3051
17.5815 61.8262
17.7622 64.4623
17.9428 82.4685
18.1237 139.08
18.3044 90.4235
18.4852 82.9101
18.666 63.0575
18.8469 60.7902
19.0278 59.4453
19.2088 62.6818
19.3898 76.3098
19.5709 56.8398
19.752 55.9778
19.9332 59.409
20.1144 72.3432
20.2957 64.486
20.477 56.2066
20.6586 51.9571
20.84 50.9109
21.0215 50.9857
21.203 52.4471
21.3846 51.3046
21.5662 51.8028
21.7479 55.4863
21.9297 66.506
22.1115 57.6969
22.2933 52.2186
22.4753 50.7436
22.6572 51.8303
22.8393 54.054
23.0214 59.7242
23.2037 51.2608
23.3859 52.4046
23.5682 57.7586
23.7505 50.9221
23.9329 47.2968
24.1154 46.0412
24.2979 45.3285
24.4805 44.8515
24.6631 44.7795
24.8458 44.17
25.0286 44.9418
25.2114 46.47
25.3943 46.4491
25.5773 42.7261
25.7605 42.2257
25.9436 42.6068
26.1268 43.3796
26.31 42.0998
26.4933 42.4266
26.6767 43.9681
26.8601 42.216
27.0437 40.5932
27.2272 40.2113
27.4109 40.109
27.5946 40.1219
27.7784 39.5663
27.9623 39.8645
28.1462 40.5191
28.3304 38.7637
28.5145 37.4063
28.6987 37.1816
28.8829 36.9337
29.0673 36.3597
29.2517 35.735
29.4361 35.5784
29.6207 34.6249
29.8053 34.2755
29.99 33.939
30.1748 33.7758
30.3597 33.581
30.5447 33.4685
30.7297 33.5597
30.915 32.925
31.1002 32.404
31.2855 32.2236
31.4708 32.1387
31.6563 31.7237
31.8418 31.3818
32.0275 31.2255
32.2132 30.6315
32.399 30.221
32.5848 29.6897
32.7708 29.253
32.9569 29.2934
33.143 28.8637
33.3293 28.5101
33.5158 28.1679
33.7022 27.7248
33.8887 27.4024
34.0753 27.0988
34.262 26.7191
34.4488 26.3634
34.6357 25.973
34.8227 25.6651
35.0098 25.5958
35.1969 25.2635
35.3842 25.0363
35.5716 24.8063
35.759 24.4546
35.9468 24.0459
36.1345 23.8591
36.3222 23.6492
36.5101 23.2649
36.6981 23.0552
36.8861 22.6669
37.0743 22.3402
37.2626 22.1796
37.451 21.858
37.6395 21.6925
37.8281 21.354
38.0168 21.1055
38.2056 20.8054
38.3945 20.5182
38.5837 20.2268
38.7728 20.0237
38.9621 19.7372
39.1514 19.4923
39.3409 19.249
39.5304 18.9866
39.7201 18.8702
39.9099 18.5895
40.0999 18.3479
40.2899 18.0667
40.48 17.8369
40.6703 17.629
40.8607 17.4482
41.0512 17.1718
41.242 16.9232
41.4327 16.7813
41.6236 16.4459
41.8146 16.3214
42.0057 16.0946
42.1969 15.8261
42.3882 15.7312
42.5797 15.4603
42.7713 15.2065
42.963 15.0147
43.1549 14.8158
43.3468 14.5434
43.5389 14.405
43.7312 14.2028
43.9237 14.0725
44.1162 13.8299
44.3088 13.6515
44.5016 13.4097
44.6945 13.2616
44.8875 13.0255
45.0806 12.8683
45.2739 12.6984
45.4673 12.5428
45.6609 12.322
45.8546 12.1482
46.0484 11.9738
46.2424 11.8144
46.4365 11.6852
46.631 11.4584
46.8254 11.2979
47.0199 11.1257
47.2146 10.9522
47.4095 10.793
47.6044 10.6103
47.7996 10.4723
47.9948 10.3141
48.1902 10.1962
48.3858 10.0498
48.5815 9.87978
48.7774 9.77302
48.9734 9.60866
49.1696 9.45317
49.3661 9.34955
49.5626 9.13236
49.7592 9.03162
49.956 8.88961
50.153 8.76577
50.3501 8.60019
50.5474 8.50623
50.7448 8.34646
50.9424 8.21535
51.1402 8.0934
51.3381 7.95866
51.5362 7.85205
51.7344 7.71132
51.9328 7.59613
52.1316 7.46972
52.3304 7.34281
52.5293 7.19564
52.7284 7.11189
52.9276 7.02059
53.1271 6.87212
53.3267 6.74453
53.5265 6.64258
53.7264 6.51209
53.9266 6.39112
54.1269 6.29067
54.3274 6.15508
54.528 5.99979
54.7289 5.81144
54.9301 5.6788
55.1314 5.52403
55.3328 5.31546
55.5344 5.14369
55.7361 4.9825