File: XRD/Ni3Fe_FD0904.xy
TT I
1.27165 7.93051
1.45013 6.4396
1.62863 5.21015
1.80712 5.00391
1.98562 4.0922
2.16411 4.65295
2.34263 5.29133
2.52115 7.32271
2.69965 8.60011
2.87818 9.53171
3.05672 11.1286
3.23527 15.2621
3.4138 18.2189
3.59237 23.144
3.77094 25.7961
3.9495 29.5552
4.12809 34.3519
4.30669 149.156
4.4853 58.0879
4.6639 54.539
4.84253 66.9271
5.02118 85.673
5.19981 336.489
5.37848 172.548
5.55716 100.615
5.73586 90.6403
5.91455 92.3978
6.09328 4575.44
6.27201 79.357
6.45075 66.8194
6.62952 61.7551
6.8083 57.4184
6.98711 54.806
7.16591 54.2861
7.34475 76.2307
7.5236 53.6132
7.70247 55.3813
7.88135 56.8082
8.06026 61.5086
8.23919 68.399
8.41812 82.9975
8.59709 1193.37
8.77609 95.9148
8.9551 88.267
9.13412 80.7929
9.31318 81.7192
9.49226 83.423
9.67134 94.3704
9.85047 98.6106
10.0296 326.803
10.2088 323.271
10.388 102.806
10.5672 541.273
10.7465 84.6276
10.9257 76.62
11.105 70.5771
11.2844 68.0997
11.4637 63.7722
11.6431 62.7058
11.8225 61.3836
12.002 62.6818
12.1814 156.281
12.3609 66.6448
12.5405 63.1615
12.72 67.51
12.8996 69.9709
13.0792 78.1931
13.2589 242.577
13.4386 113.456
13.6183 257.275
13.7981 91.5062
13.9779 74.6354
14.1577 70.8169
14.3376 69.6047
14.5175 67.8155
14.6974 69.2056
14.8774 109.403
15.0574 136.926
15.2374 69.0996
15.4175 65.317
15.5976 64.723
15.7778 93.2273
15.958 146.631
16.1382 60.8466
16.3185 57.1766
16.4988 54.4833
16.6792 53.3589
16.8596 53.9656
17.04 54.9
17.2205 65.837
17.401 67.9027
17.5815 58.1445
17.7622 60.2713
17.9428 72.0558
18.1237 139.55
18.3044 90.5455
18.4852 73.1272
18.666 59.2043
18.8469 56.8647
19.0278 55.8986
19.2088 58.39
19.3898 75.1025
19.5709 53.0158
19.752 52.3445
19.9332 55.2103
20.1144 69.4017
20.2957 63.7468
20.477 51.9069
20.6586 48.7003
20.84 47.9304
21.0215 47.7616
21.203 50.0964
21.3846 47.928
21.5662 48.1229
21.7479 51.8469
21.9297 63.9814
22.1115 55.5434
22.2933 48.6684
22.4753 47.9149
22.6572 47.9209
22.8393 51.1226
23.0214 56.2727
23.2037 47.8779
23.3859 48.8629
23.5682 56.7719
23.7505 47.122
23.9329 44.3466
24.1154 43.3025
24.2979 42.7094
24.4805 42.2239
24.6631 41.9202
24.8458 41.5083
25.0286 42.1893
25.2114 43.9295
25.3943 43.8537
25.5773 40.12
25.7605 39.8009
25.9436 40.0959
26.1268 41.09
26.31 39.3404
26.4933 39.9127
26.6767 41.628
26.8601 39.7626
27.0437 38.2466
27.2272 37.8719
27.4109 37.7758
27.5946 37.7139
27.7784 37.3001
27.9623 37.8107
28.1462 38.1455
28.3304 36.5288
28.5145 35.3242
28.6987 34.9714
28.8829 34.835
29.0673 34.1152
29.2517 33.8063
29.4361 33.4732
29.6207 32.5073
29.8053 32.2762
29.99 31.8963
30.1748 32.0112
30.3597 31.6409
30.5447 31.6891
30.7297 31.6798
30.915 31.0232
31.1002 30.4957
31.2855 30.3263
31.4708 30.2373
31.6563 29.7484
31.8418 29.5784
32.0275 29.3509
32.2132 28.824
32.399 28.4132
32.5848 28.0036
32.7708 27.6386
32.9569 27.5077
33.143 27.272
33.3293 26.801
33.5158 26.5842
33.7022 26.1588
33.8887 25.8786
34.0753 25.564
34.262 25.2368
34.4488 24.8101
34.6357 24.4987
34.8227 24.1836
35.0098 23.9912
35.1969 23.8148
35.3842 23.5413
35.5716 23.322
35.759 23.143
35.9468 22.7367
36.1345 22.4936
36.3222 22.2988
36.5101 22.0658
36.6981 21.7271
36.8861 21.4091
37.0743 21.1365
37.2626 20.855
37.451 20.5838
37.6395 20.4724
37.8281 20.1508
38.0168 19.9169
38.2056 19.608
38.3945 19.3677
38.5837 19.0907
38.7728 18.8873
38.9621 18.5788
39.1514 18.3609
39.3409 18.0635
39.5304 17.8803
39.7201 17.7885
39.9099 17.542
40.0999 17.1979
40.2899 17.0807
40.48 16.7652
40.6703 16.6714
40.8607 16.454
41.0512 16.166
41.242 15.9676
41.4327 15.816
41.6236 15.5733
41.8146 15.3579
42.0057 15.1837
42.1969 14.9186
42.3882 14.8294
42.5797 14.5633
42.7713 14.3449
42.963 14.1917
43.1549 13.9565
43.3468 13.7296
43.5389 13.5798
43.7312 13.3855
43.9237 13.2637
44.1162 13.0224
44.3088 12.8465
44.5016 12.6922
44.6945 12.5008
44.8875 12.3132
45.0806 12.1836
45.2739 11.9866
45.4673 11.8347
45.6609 11.6585
45.8546 11.512
46.0484 11.365
46.2424 11.174
46.4365 11.0136
46.631 10.8429
46.8254 10.6686
47.0199 10.5106
47.2146 10.3689
47.4095 10.1785
47.6044 10.0858
47.7996 9.9317
47.9948 9.73382
48.1902 9.62272
48.3858 9.50506
48.5815 9.35411
48.7774 9.21436
48.9734 9.11349
49.1696 8.95031
49.3661 8.79684
49.5626 8.64274
49.7592 8.55028
49.956 8.43618
50.153 8.28402
50.3501 8.13258
50.5474 8.0595
50.7448 7.94274
50.9424 7.81976
51.1402 7.68971
51.3381 7.54725
51.5362 7.415
51.7344 7.32369
51.9328 7.15334
52.1316 7.07581
52.3304 6.90806
52.5293 6.84285
52.7284 6.75485
52.9276 6.60953
53.1271 6.51071
53.3267 6.39926
53.5265 6.26193
53.7264 6.20705
53.9266 6.08124
54.1269 5.9893
54.3274 5.82524
54.528 5.76605
54.7289 5.53269
54.9301 5.38391
55.1314 5.2735
55.3328 5.05941
55.5344 4.88169
55.7361 4.74272