File: XRD/Ni3Fe_FD0505.xy
TT I
1.27165 7.61976
1.45013 6.77004
1.62863 5.50146
1.80712 5.02568
1.98562 5.01099
2.16411 4.8631
2.34263 5.05935
2.52115 6.726
2.69965 7.03236
2.87818 8.37964
3.05672 11.0586
3.23527 15.2994
3.4138 19.0753
3.59237 24.3462
3.77094 26.3156
3.9495 30.2124
4.12809 35.229
4.30669 214.895
4.4853 66.1645
4.6639 56.0468
4.84253 68.1459
5.02118 87.748
5.19981 393.282
5.37848 206.009
5.55716 104.004
5.73586 93.7632
5.91455 96.3556
6.09328 4196.34
6.27201 85.0246
6.45075 68.092
6.62952 63.7639
6.8083 59.4312
6.98711 56.459
7.16591 56.1933
7.34475 91.4194
7.5236 55.2698
7.70247 57.012
7.88135 58.7341
8.06026 63.2422
8.23919 70.4119
8.41812 86.8552
8.59709 1166.23
8.77609 102.114
8.9551 92.7545
9.13412 83.2209
9.31318 83.5679
9.49226 85.7164
9.67134 99.3933
9.85047 101.209
10.0296 358.628
10.2088 447.497
10.388 105.806
10.5672 493.07
10.7465 88.1236
10.9257 79.4724
11.105 72.6566
11.2844 71.4119
11.4637 65.8269
11.6431 64.6566
11.8225 63.2922
12.002 64.2829
12.1814 153.977
12.3609 72.1223
12.5405 65.6707
12.72 70.797
12.8996 71.89
13.0792 79.9388
13.2589 237.67
13.4386 131.674
13.6183 245.225
13.7981 103.358
13.9779 76.7628
14.1577 73.5505
14.3376 72.7488
14.5175 69.8548
14.6974 71.3649
14.8774 112.22
15.0574 155.041
15.2374 71.756
15.4175 67.2966
15.5976 66.6752
15.7778 96.4721
15.958 160.18
16.1382 63.4986
16.3185 59.3985
16.4988 56.443
16.6792 55.3486
16.8596 55.989
17.04 56.4831
17.2205 67.3368
17.401 72.7658
17.5815 60.1623
17.7622 62.0682
17.9428 74.8992
18.1237 137.608
18.3044 91.1567
18.4852 80.462
18.666 61.1228
18.8469 58.6657
19.0278 57.5688
19.2088 60.2057
19.3898 76.7809
19.5709 55.0454
19.752 53.8158
19.9332 57.0911
20.1144 70.2202
20.2957 64.1742
20.477 54.6634
20.6586 50.4468
20.84 49.4645
21.0215 49.3227
21.203 51.5162
21.3846 49.872
21.5662 49.4389
21.7479 53.2404
21.9297 64.9843
22.1115 56.5717
22.2933 50.7434
22.4753 49.6215
22.6572 49.5058
22.8393 52.5524
23.0214 58.1068
23.2037 49.4429
23.3859 50.4374
23.5682 56.9574
23.7505 49.3706
23.9329 45.7448
24.1154 44.6509
24.2979 44.075
24.4805 43.5849
24.6631 43.3828
24.8458 42.9509
25.0286 43.3602
25.2114 45.1782
25.3943 45.2359
25.5773 41.594
25.7605 41.1395
25.9436 41.5286
26.1268 42.2375
26.31 40.6549
26.4933 41.4172
26.6767 42.6569
26.8601 41.0195
27.0437 39.4334
27.2272 38.9891
27.4109 39.0478
27.5946 38.7816
27.7784 38.4805
27.9623 38.9806
28.1462 39.3885
28.3304 37.7902
28.5145 36.4526
28.6987 36.0474
28.8829 35.9432
29.0673 35.1888
29.2517 34.9172
29.4361 34.5457
29.6207 33.6407
29.8053 33.3572
29.99 33.0155
30.1748 32.9066
30.3597 32.7236
30.5447 32.5928
30.7297 32.5988
30.915 32.0092
31.1002 31.4816
31.2855 31.3854
31.4708 31.2062
31.6563 30.7864
31.8418 30.4983
32.0275 30.3542
32.2132 29.7162
32.399 29.3555
32.5848 28.8609
32.7708 28.537
32.9569 28.432
33.143 28.1537
33.3293 27.6938
33.5158 27.3321
33.7022 27.0111
33.8887 26.776
34.0753 26.4391
34.262 25.9947
34.4488 25.6004
34.6357 25.319
34.8227 24.9802
35.0098 24.8617
35.1969 24.5192
35.3842 24.2881
35.5716 24.0183
35.759 23.7693
35.9468 23.365
36.1345 23.1623
36.3222 22.9108
36.5101 22.7044
36.6981 22.4468
36.8861 22.0886
37.0743 21.7875
37.2626 21.6166
37.451 21.2908
37.6395 21.1691
37.8281 20.7172
38.0168 20.5306
38.2056 20.2006
38.3945 19.9578
38.5837 19.7634
38.7728 19.4907
38.9621 19.2238
39.1514 18.9351
39.3409 18.6811
39.5304 18.5567
39.7201 18.302
39.9099 18.082
40.0999 17.8173
40.2899 17.5954
40.48 17.3791
40.6703 17.1574
40.8607 16.9537
41.0512 16.7457
41.242 16.4973
41.4327 16.3514
41.6236 16.1283
41.8146 15.9247
42.0057 15.6239
42.1969 15.4266
42.3882 15.2049
42.5797 15.014
42.7713 14.8419
42.963 14.6147
43.1549 14.4361
43.3468 14.1648
43.5389 14.024
43.7312 13.7774
43.9237 13.6523
44.1162 13.4379
44.3088 13.2457
44.5016 13.0849
44.6945 12.8926
44.8875 12.7518
45.0806 12.5655
45.2739 12.3871
45.4673 12.1792
45.6609 11.9981
45.8546 11.8237
46.0484 11.7112
46.2424 11.5141
46.4365 11.3416
46.631 11.138
46.8254 10.9858
47.0199 10.8576
47.2146 10.6902
47.4095 10.5105
47.6044 10.3942
47.7996 10.216
47.9948 10.074
48.1902 9.92718
48.3858 9.7706
48.5815 9.66511
48.7774 9.49734
48.9734 9.36388
49.1696 9.23733
49.3661 9.0916
49.5626 8.92839
49.7592 8.8306
49.956 8.71688
50.153 8.60062
50.3501 8.40033
50.5474 8.25111
50.7448 8.16341
50.9424 8.07688
51.1402 7.93283
51.3381 7.74483
51.5362 7.65629
51.7344 7.52767
51.9328 7.42783
52.1316 7.24829
52.3304 7.14306
52.5293 7.02257
52.7284 6.89111
52.9276 6.83942
53.1271 6.71399
53.3267 6.57897
53.5265 6.4723
53.7264 6.38202
53.9266 6.25279
54.1269 6.15148
54.3274 6.04483
54.528 5.88623
54.7289 5.71143
54.9301 5.51548
55.1314 5.42283
55.3328 5.25458
55.5344 4.98358
55.7361 4.83843