File: XRD/Ni3Fe_FD0112.xy
TT I
1.27165 8.56057
1.45013 6.46785
1.62863 5.76401
1.80712 5.4082
1.98562 5.0793
2.16411 5.17387
2.34263 4.11289
2.52115 4.29703
2.69965 4.8784
2.87818 6.86364
3.05672 10.9784
3.23527 15.0216
3.4138 18.7335
3.59237 21.587
3.77094 24.9028
3.9495 28.2604
4.12809 32.6499
4.30669 37.0885
4.4853 44.3712
4.6639 53.2312
4.84253 65.8975
5.02118 91.7007
5.19981 614.601
5.37848 578.26
5.55716 109.539
5.73586 96.5043
5.91455 108.865
6.09328 2385.17
6.27201 92.8546
6.45075 66.4576
6.62952 59.3524
6.8083 55.4263
6.98711 52.8742
7.16591 51.9439
7.34475 51.7549
7.5236 57.0621
7.70247 53.3337
7.88135 55.4338
8.06026 60.363
8.23919 67.3273
8.41812 84.0321
8.59709 808.311
8.77609 123.811
8.9551 84.9462
9.13412 80.7429
9.31318 90.4233
9.49226 82.4886
9.67134 87.931
9.85047 98.1361
10.0296 570.247
10.2088 1113.86
10.388 104.845
10.5672 289.475
10.7465 92.9107
10.9257 75.0902
11.105 69.6552
11.2844 65.6402
11.4637 62.8253
11.6431 61.6086
11.8225 60.4665
12.002 67.261
12.1814 109.839
12.3609 78.7495
12.5405 62.4996
12.72 64.4523
12.8996 68.9293
13.0792 79.06
13.2589 192.316
13.4386 236.81
13.6183 177.419
13.7981 171.903
13.9779 75.6242
14.1577 75.2297
14.3376 68.4117
14.5175 67.4893
14.6974 69.1362
14.8774 120.893
15.0574 207.383
15.2374 68.8612
15.4175 65.558
15.5976 65.1093
15.7778 108.017
15.958 181.42
16.1382 62.0583
16.3185 56.8961
16.4988 54.4242
16.6792 53.3839
16.8596 53.7078
17.04 54.8891
17.2205 64.0593
17.401 81.0192
17.5815 58.4756
17.7622 60.6652
17.9428 84.5519
18.1237 106.056
18.3044 87.4394
18.4852 97.8812
18.666 60.4941
18.8469 57.6075
19.0278 56.2863
19.2088 61.368
19.3898 66.7027
19.5709 56.6689
19.752 53.0515
19.9332 58.0876
20.1144 64.8728
20.2957 60.1357
20.477 59.7385
20.6586 49.4155
20.84 48.577
21.0215 48.6197
21.203 48.8152
21.3846 50.3318
21.5662 48.5425
21.7479 53.4182
21.9297 60.059
22.1115 56.0872
22.2933 52.7759
22.4753 48.3916
22.6572 48.6391
22.8393 51.4353
23.0214 55.6956
23.2037 49.8407
23.3859 51.4718
23.5682 52.0473
23.7505 54.2108
23.9329 45.4149
24.1154 44.0718
24.2979 43.3215
24.4805 42.5513
24.6631 42.7754
24.8458 42.1703
25.0286 42.4937
25.2114 43.9441
25.3943 44.204
25.5773 41.4939
25.7605 40.244
25.9436 40.7209
26.1268 41.0737
26.31 40.6687
26.4933 40.4723
26.6767 41.2648
26.8601 41.1379
27.0437 39.363
27.2272 38.6082
27.4109 38.2266
27.5946 38.2569
27.7784 38.3208
27.9623 38.1392
28.1462 38.9405
28.3304 37.7071
28.5145 36.0511
28.6987 35.5932
28.8829 35.1373
29.0673 34.8006
29.2517 34.1683
29.4361 33.8328
29.6207 33.2536
29.8053 32.7114
29.99 32.5827
30.1748 32.2567
30.3597 32.2555
30.5447 32.066
30.7297 31.9395
30.915 31.8154
31.1002 31.2124
31.2855 30.8004
31.4708 30.6527
31.6563 30.5307
31.8418 30.0454
32.0275 29.8542
32.2132 29.4504
32.399 28.9851
32.5848 28.4105
32.7708 28.0808
32.9569 27.9716
33.143 27.7256
33.3293 27.4186
33.5158 27.1222
33.7022 26.5247
33.8887 26.279
34.0753 25.8922
34.262 25.5275
34.4488 25.2549
34.6357 24.9059
34.8227 24.604
35.0098 24.454
35.1969 24.2131
35.3842 23.8594
35.5716 23.8125
35.759 23.5034
35.9468 23.0882
36.1345 22.7419
36.3222 22.578
36.5101 22.3097
36.6981 22.078
36.8861 21.7982
37.0743 21.4097
37.2626 21.1225
37.451 20.9397
37.6395 20.8041
37.8281 20.4901
38.0168 20.1215
38.2056 19.8854
38.3945 19.635
38.5837 19.3717
38.7728 19.1332
38.9621 18.9426
39.1514 18.6532
39.3409 18.3857
39.5304 18.2164
39.7201 18.0118
39.9099 17.7375
40.0999 17.5327
40.2899 17.3673
40.48 17.0552
40.6703 16.8529
40.8607 16.6874
41.0512 16.4471
41.242 16.2018
41.4327 16.0456
41.6236 15.7919
41.8146 15.6314
42.0057 15.3645
42.1969 15.1443
42.3882 15.0132
42.5797 14.7715
42.7713 14.5712
42.963 14.3536
43.1549 14.1914
43.3468 13.9357
43.5389 13.7922
43.7312 13.5708
43.9237 13.4162
44.1162 13.2255
44.3088 13.0232
44.5016 12.8131
44.6945 12.663
44.8875 12.4908
45.0806 12.2899
45.2739 12.1417
45.4673 12.0055
45.6609 11.8438
45.8546 11.6647
46.0484 11.5385
46.2424 11.3459
46.4365 11.2069
46.631 11.0373
46.8254 10.7925
47.0199 10.6286
47.2146 10.5093
47.4095 10.3531
47.6044 10.2058
47.7996 10.0478
47.9948 9.88201
48.1902 9.77037
48.3858 9.59689
48.5815 9.52453
48.7774 9.35821
48.9734 9.1861
49.1696 9.09178
49.3661 8.92513
49.5626 8.83082
49.7592 8.69507
49.956 8.57119
50.153 8.45317
50.3501 8.30722
50.5474 8.17567
50.7448 8.04896
50.9424 7.92019
51.1402 7.81766
51.3381 7.69329
51.5362 7.54645
51.7344 7.41706
51.9328 7.28154
52.1316 7.17286
52.3304 7.08413
52.5293 6.91587
52.7284 6.82832
52.9276 6.64491
53.1271 6.62251
53.3267 6.48428
53.5265 6.3632
53.7264 6.29062
53.9266 6.14459
54.1269 6.04328
54.3274 5.89992
54.528 5.69932
54.7289 5.55602
54.9301 5.37532
55.1314 5.23733
55.3328 5.02097
55.5344 4.87104
55.7361 4.79404