File: XRD/Ni3Fe_FD0191.xy
TT I
1.27165 8.03013
1.45013 6.48488
1.62863 5.62775
1.80712 5.53374
1.98562 5.74725
2.16411 4.75742
2.34263 4.84479
2.52115 4.96938
2.69965 5.71751
2.87818 8.62901
3.05672 11.5014
3.23527 15.5035
3.4138 19.2476
3.59237 22.2767
3.77094 25.54
3.9495 29.6096
4.12809 34.2178
4.30669 39.439
4.4853 47.4064
4.6639 56.4462
4.84253 69.7452
5.02118 95.6037
5.19981 614.57
5.37848 352.148
5.55716 111.168
5.73586 99.4725
5.91455 109.128
6.09328 3126.86
6.27201 89.8617
6.45075 69.121
6.62952 62.5935
6.8083 58.1919
6.98711 55.8939
7.16591 54.8477
7.34475 54.3044
7.5236 58.0479
7.70247 56.6286
7.88135 58.9255
8.06026 63.5706
8.23919 71.3833
8.41812 87.6015
8.59709 966.254
8.77609 114.631
8.9551 88.9909
9.13412 84.9559
9.31318 88.4443
9.49226 87.3784
9.67134 92.9026
9.85047 103.72
10.0296 561.333
10.2088 774.699
10.388 109.011
10.5672 379.355
10.7465 92.5608
10.9257 78.9655
11.105 73.3878
11.2844 69.0082
11.4637 66.2953
11.6431 64.7218
11.8225 63.7811
12.002 67.0024
12.1814 127.705
12.3609 72.6687
12.5405 65.613
12.72 68.1934
12.8996 72.7321
13.0792 82.8548
13.2589 216.521
13.4386 174.418
13.6183 207.212
13.7981 131.029
13.9779 78.6933
14.1577 75.7626
14.3376 71.7807
14.5175 71.0465
14.6974 72.468
14.8774 122.13
15.0574 190.745
15.2374 71.2973
15.4175 68.3944
15.5976 68.0795
15.7778 107.556
15.958 179.969
16.1382 63.4058
16.3185 59.4246
16.4988 57.0424
16.6792 55.8715
16.8596 56.2412
17.04 57.2734
17.2205 67.3249
17.401 79.5605
17.5815 61.0212
17.7622 63.3409
17.9428 85.203
18.1237 123.193
18.3044 88.4011
18.4852 89.9244
18.666 62.4899
18.8469 60.0373
19.0278 58.4414
19.2088 62.9318
19.3898 72.2761
19.5709 56.9435
19.752 54.8887
19.9332 59.5649
20.1144 69.4924
20.2957 62.4628
20.477 57.783
20.6586 51.2281
20.84 50.2662
21.0215 50.3197
21.203 51.3522
21.3846 51.067
21.5662 50.2676
21.7479 55.0649
21.9297 63.9484
22.1115 56.864
22.2933 52.3966
22.4753 50.2182
22.6572 50.5567
22.8393 53.2719
23.0214 58.4952
23.2037 50.655
23.3859 52.5102
23.5682 55.178
23.7505 52.326
23.9329 46.7503
24.1154 45.4314
24.2979 44.7873
24.4805 44.169
24.6631 44.1166
24.8458 43.6639
25.0286 44.2862
25.2114 45.609
25.3943 45.7133
25.5773 42.4741
25.7605 41.7619
25.9436 41.9863
26.1268 42.7019
26.31 41.6582
26.4933 41.8569
26.6767 42.9581
26.8601 41.8644
27.0437 40.2589
27.2272 39.6793
27.4109 39.5928
27.5946 39.5418
27.7784 39.3436
27.9623 39.3813
28.1462 39.9884
28.3304 38.5086
28.5145 37.0476
28.6987 36.6402
28.8829 36.3906
29.0673 35.8845
29.2517 35.2757
29.4361 35.0197
29.6207 34.2869
29.8053 33.7355
29.99 33.5891
30.1748 33.3541
30.3597 33.2992
30.5447 33.0249
30.7297 33.0696
30.915 32.644
31.1002 32.1901
31.2855 31.8169
31.4708 31.5055
31.6563 31.3639
31.8418 30.8905
32.0275 30.8171
32.2132 30.2845
32.399 29.8302
32.5848 29.321
32.7708 29.07
32.9569 28.8834
33.143 28.5284
33.3293 28.2019
33.5158 27.8026
33.7022 27.4004
33.8887 27.0424
34.0753 26.8118
34.262 26.4216
34.4488 26.0221
34.6357 25.7386
34.8227 25.3758
35.0098 25.1996
35.1969 24.992
35.3842 24.68
35.5716 24.4551
35.759 24.1208
35.9468 23.7723
36.1345 23.5056
36.3222 23.3071
36.5101 23.0253
36.6981 22.7787
36.8861 22.4528
37.0743 22.0769
37.2626 21.8782
37.451 21.5417
37.6395 21.3868
37.8281 21.0947
38.0168 20.8151
38.2056 20.4952
38.3945 20.2438
38.5837 19.9734
38.7728 19.7702
38.9621 19.5264
39.1514 19.2147
39.3409 18.9662
39.5304 18.7759
39.7201 18.5475
39.9099 18.3109
40.0999 18.0872
40.2899 17.7951
40.48 17.6121
40.6703 17.3818
40.8607 17.2542
41.0512 16.936
41.242 16.7109
41.4327 16.4297
41.6236 16.2762
41.8146 16.1
42.0057 15.8258
42.1969 15.6192
42.3882 15.4497
42.5797 15.2612
42.7713 15.0196
42.963 14.8017
43.1549 14.6482
43.3468 14.3783
43.5389 14.22
43.7312 14.0062
43.9237 13.8096
44.1162 13.6599
44.3088 13.4092
44.5016 13.2516
44.6945 13.0684
44.8875 12.8887
45.0806 12.6807
45.2739 12.5165
45.4673 12.3289
45.6609 12.1417
45.8546 11.966
46.0484 11.882
46.2424 11.6554
46.4365 11.5086
46.631 11.3035
46.8254 11.1737
47.0199 10.976
47.2146 10.8491
47.4095 10.6665
47.6044 10.4847
47.7996 10.3643
47.9948 10.1949
48.1902 10.0803
48.3858 9.91136
48.5815 9.78064
48.7774 9.64927
48.9734 9.4757
49.1696 9.32803
49.3661 9.20571
49.5626 9.0678
49.7592 8.93518
49.956 8.8005
50.153 8.682
50.3501 8.52099
50.5474 8.41383
50.7448 8.29885
50.9424 8.15662
51.1402 8.04019
51.3381 7.88818
51.5362 7.7804
51.7344 7.63953
51.9328 7.49077
52.1316 7.37204
52.3304 7.24476
52.5293 7.13296
52.7284 7.00643
52.9276 6.94648
53.1271 6.81891
53.3267 6.69658
53.5265 6.56898
53.7264 6.46474
53.9266 6.33232
54.1269 6.2196
54.3274 6.06542
54.528 5.90797
54.7289 5.70534
54.9301 5.59168
55.1314 5.46134
55.3328 5.15935
55.5344 5.03929
55.7361 4.88153