File: XRD/Ni3Fe_FD0499.xy
TT I
1.27165 7.52812
1.45013 6.28457
1.62863 5.23083
1.80712 5.12253
1.98562 4.44194
2.16411 5.14455
2.34263 4.81706
2.52115 6.71168
2.69965 7.07856
2.87818 9.2723
3.05672 11.2597
3.23527 15.0865
3.4138 19.13
3.59237 24.127
3.77094 26.3023
3.9495 30.1491
4.12809 35.7341
4.30669 198.045
4.4853 64.2915
4.6639 56.2765
4.84253 68.2351
5.02118 88.5963
5.19981 401.741
5.37848 204.713
5.55716 103.979
5.73586 93.9546
5.91455 96.1825
6.09328 4152.1
6.27201 84.8969
6.45075 68.5949
6.62952 63.3618
6.8083 59.0715
6.98711 56.4881
7.16591 55.979
7.34475 88.606
7.5236 55.6836
7.70247 57.139
7.88135 58.8712
8.06026 63.0201
8.23919 70.3817
8.41812 86.3303
8.59709 1191.66
8.77609 101.751
8.9551 92.4835
9.13412 83.4039
9.31318 84.0569
9.49226 85.7207
9.67134 99.0132
9.85047 101.523
10.0296 364.595
10.2088 449.846
10.388 106.377
10.5672 502.14
10.7465 88.2248
10.9257 79.459
11.105 72.7713
11.2844 70.8102
11.4637 65.9312
11.6431 64.5727
11.8225 63.4055
12.002 64.4352
12.1814 154.229
12.3609 71.6437
12.5405 65.3267
12.72 70.2466
12.8996 72.06
13.0792 80.1654
13.2589 240.572
13.4386 132.334
13.6183 246.439
13.7981 103.001
13.9779 77.0952
14.1577 73.4609
14.3376 72.4902
14.5175 69.8304
14.6974 71.4697
14.8774 113.224
15.0574 157.66
15.2374 71.8692
15.4175 67.219
15.5976 66.8282
15.7778 97.3408
15.958 160.769
16.1382 63.4853
16.3185 59.5067
16.4988 56.2234
16.6792 55.4393
16.8596 55.9976
17.04 56.4709
17.2205 67.5617
17.401 72.8218
17.5815 60.1227
17.7622 62.1525
17.9428 75.2857
18.1237 136.897
18.3044 91.5206
18.4852 80.7383
18.666 61.2282
18.8469 58.7741
19.0278 57.4963
19.2088 60.5854
19.3898 76.2494
19.5709 55.2077
19.752 54.0576
19.9332 57.1438
20.1144 69.9015
20.2957 64.289
20.477 55.111
20.6586 50.4602
20.84 49.4732
21.0215 49.3223
21.203 51.4627
21.3846 49.8382
21.5662 49.6067
21.7479 53.5707
21.9297 64.7405
22.1115 56.5288
22.2933 50.8141
22.4753 49.5911
22.6572 49.6432
22.8393 52.6236
23.0214 57.9407
23.2037 49.5329
23.3859 50.6044
23.5682 56.9343
23.7505 49.3733
23.9329 45.931
24.1154 44.9173
24.2979 44.0526
24.4805 43.5648
24.6631 43.3556
24.8458 42.8793
25.0286 43.3793
25.2114 45.1266
25.3943 45.1964
25.5773 41.5796
25.7605 41.1016
25.9436 41.4059
26.1268 42.1959
26.31 40.7807
26.4933 41.2066
26.6767 42.6187
26.8601 41.081
27.0437 39.4477
27.2272 39.0882
27.4109 38.8364
27.5946 38.9463
27.7784 38.468
27.9623 38.9379
28.1462 39.3997
28.3304 37.6913
28.5145 36.4239
28.6987 36.119
28.8829 35.8535
29.0673 35.1739
29.2517 34.928
29.4361 34.7035
29.6207 33.6669
29.8053 33.3108
29.99 32.985
30.1748 32.9662
30.3597 32.842
30.5447 32.6364
30.7297 32.6482
30.915 32.1959
31.1002 31.5941
31.2855 31.3118
31.4708 31.2801
31.6563 30.7443
31.8418 30.5588
32.0275 30.4465
32.2132 29.8467
32.399 29.3901
32.5848 28.8636
32.7708 28.5716
32.9569 28.4547
33.143 28.2694
33.3293 27.8484
33.5158 27.4466
33.7022 26.9647
33.8887 26.6818
34.0753 26.3521
34.262 25.939
34.4488 25.6716
34.6357 25.3073
34.8227 25.0627
35.0098 24.8187
35.1969 24.544
35.3842 24.3861
35.5716 24.0981
35.759 23.8031
35.9468 23.4566
36.1345 23.3141
36.3222 23.0
36.5101 22.6886
36.6981 22.4585
36.8861 22.1377
37.0743 21.7825
37.2626 21.5126
37.451 21.3531
37.6395 21.1253
37.8281 20.7756
38.0168 20.4677
38.2056 20.2288
38.3945 19.9916
38.5837 19.6671
38.7728 19.4857
38.9621 19.2296
39.1514 18.9435
39.3409 18.7574
39.5304 18.5
39.7201 18.327
39.9099 18.0902
40.0999 17.8857
40.2899 17.5982
40.48 17.3612
40.6703 17.1759
40.8607 17.0375
41.0512 16.7222
41.242 16.4909
41.4327 16.2789
41.6236 16.0447
41.8146 15.8306
42.0057 15.6294
42.1969 15.4269
42.3882 15.2269
42.5797 15.0516
42.7713 14.85
42.963 14.5987
43.1549 14.4717
43.3468 14.1936
43.5389 14.0703
43.7312 13.8263
43.9237 13.6206
44.1162 13.4524
44.3088 13.2578
44.5016 13.0253
44.6945 12.9413
44.8875 12.7034
45.0806 12.5321
45.2739 12.3564
45.4673 12.1882
45.6609 12.0319
45.8546 11.8698
46.0484 11.672
46.2424 11.5078
46.4365 11.3218
46.631 11.1795
46.8254 11.0055
47.0199 10.8241
47.2146 10.7171
47.4095 10.5588
47.6044 10.3816
47.7996 10.2596
47.9948 10.0674
48.1902 9.94014
48.3858 9.75702
48.5815 9.66774
48.7774 9.53426
48.9734 9.35792
49.1696 9.24097
49.3661 9.08337
49.5626 8.943
49.7592 8.81383
49.956 8.67468
50.153 8.52975
50.3501 8.41975
50.5474 8.27394
50.7448 8.17987
50.9424 8.03319
51.1402 7.94662
51.3381 7.79474
51.5362 7.67643
51.7344 7.54087
51.9328 7.39569
52.1316 7.2635
52.3304 7.13657
52.5293 7.02078
52.7284 6.94327
52.9276 6.82428
53.1271 6.70977
53.3267 6.58789
53.5265 6.46136
53.7264 6.34054
53.9266 6.2572
54.1269 6.19003
54.3274 6.03228
54.528 5.88434
54.7289 5.70976
54.9301 5.57606
55.1314 5.45062
55.3328 5.24589
55.5344 5.03957
55.7361 4.86951