File: XRD/Ni3Fe_FD0327.xy
TT I
1.27165 7.99034
1.45013 6.48515
1.62863 5.18135
1.80712 4.6382
1.98562 5.30827
2.16411 5.42363
2.34263 4.30241
2.52115 5.32217
2.69965 7.2265
2.87818 8.31348
3.05672 10.4911
3.23527 15.5854
3.4138 19.1779
3.59237 23.6084
3.77094 26.4606
3.9495 30.5186
4.12809 35.3601
4.30669 184.79
4.4853 63.1415
4.6639 56.8113
4.84253 69.4792
5.02118 91.6313
5.19981 544.575
5.37848 231.015
5.55716 106.678
5.73586 96.1577
5.91455 101.577
6.09328 4012.88
6.27201 86.3583
6.45075 69.7779
6.62952 64.3272
6.8083 60.1939
6.98711 57.0186
7.16591 57.1946
7.34475 86.5732
7.5236 56.1986
7.70247 57.7673
7.88135 59.4754
8.06026 64.1374
8.23919 71.5615
8.41812 88.7307
8.59709 1150.51
8.77609 105.088
8.9551 93.303
9.13412 84.4308
9.31318 85.5485
9.49226 87.0851
9.67134 100.169
9.85047 103.768
10.0296 415.997
10.2088 494.29
10.388 109.616
10.5672 479.462
10.7465 89.5224
10.9257 80.4227
11.105 74.0469
11.2844 71.8645
11.4637 66.8988
11.6431 65.3342
11.8225 64.2324
12.002 65.9475
12.1814 149.184
12.3609 72.3132
12.5405 66.6458
12.72 71.231
12.8996 73.2713
13.0792 82.2342
13.2589 240.265
13.4386 134.147
13.6183 238.679
13.7981 103.536
13.9779 78.0486
14.1577 74.5355
14.3376 73.3886
14.5175 70.8693
14.6974 72.8798
14.8774 117.367
15.0574 157.83
15.2374 73.0197
15.4175 68.3855
15.5976 68.1115
15.7778 101.017
15.958 167.546
16.1382 64.3727
16.3185 60.1489
16.4988 57.0464
16.6792 56.3112
16.8596 56.7931
17.04 57.7414
17.2205 68.8797
17.401 74.4013
17.5815 61.0479
17.7622 63.222
17.9428 78.1532
18.1237 139.778
18.3044 91.2325
18.4852 81.1542
18.666 62.3662
18.8469 59.7596
19.0278 58.7074
19.2088 61.8671
19.3898 77.5523
19.5709 56.1901
19.752 54.9405
19.9332 58.4232
20.1144 71.4953
20.2957 64.4398
20.477 55.654
20.6586 51.2347
20.84 50.3393
21.0215 50.1923
21.203 52.1376
21.3846 50.5518
21.5662 50.3784
21.7479 54.6211
21.9297 66.3309
22.1115 57.2809
22.2933 51.4934
22.4753 50.4298
22.6572 50.3694
22.8393 53.5608
23.0214 59.0943
23.2037 50.3821
23.3859 51.6636
23.5682 57.6267
23.7505 50.0827
23.9329 46.6135
24.1154 45.4305
24.2979 44.8368
24.4805 44.3278
24.6631 44.2276
24.8458 43.5169
25.0286 44.2105
25.2114 46.0918
25.3943 46.0892
25.5773 42.1438
25.7605 41.6897
25.9436 42.1546
26.1268 42.897
26.31 41.4515
26.4933 42.0014
26.6767 43.3354
26.8601 41.6927
27.0437 40.1241
27.2272 39.7476
27.4109 39.5508
27.5946 39.6258
27.7784 39.1381
27.9623 39.3957
28.1462 40.0496
28.3304 38.4116
28.5145 37.1048
28.6987 36.6569
28.8829 36.596
29.0673 35.7285
29.2517 35.3922
29.4361 35.2113
29.6207 34.2153
29.8053 33.9852
29.99 33.5948
30.1748 33.4713
30.3597 33.271
30.5447 33.1833
30.7297 33.1519
30.915 32.632
31.1002 32.0881
31.2855 31.8265
31.4708 31.7277
31.6563 31.3939
31.8418 31.064
32.0275 30.7592
32.2132 30.2595
32.399 29.8353
32.5848 29.4383
32.7708 28.9979
32.9569 28.8594
33.143 28.5259
33.3293 28.2784
33.5158 27.8436
33.7022 27.4398
33.8887 27.0967
34.0753 26.824
34.262 26.447
34.4488 26.1752
34.6357 25.7994
34.8227 25.4912
35.0098 25.1952
35.1969 24.9358
35.3842 24.7553
35.5716 24.5554
35.759 24.2071
35.9468 23.826
36.1345 23.5399
36.3222 23.3316
36.5101 23.0804
36.6981 22.7728
36.8861 22.4816
37.0743 22.1668
37.2626 21.9078
37.451 21.6194
37.6395 21.4897
37.8281 21.1677
38.0168 20.8258
38.2056 20.5392
38.3945 20.308
38.5837 20.0392
38.7728 19.7503
38.9621 19.5403
39.1514 19.2488
39.3409 19.0615
39.5304 18.8533
39.7201 18.5703
39.9099 18.3802
40.0999 18.1093
40.2899 17.9212
40.48 17.6634
40.6703 17.3968
40.8607 17.2535
41.0512 17.0038
41.242 16.7119
41.4327 16.5497
41.6236 16.2696
41.8146 16.1269
42.0057 15.8749
42.1969 15.6794
42.3882 15.5271
42.5797 15.2563
42.7713 15.0934
42.963 14.8804
43.1549 14.668
43.3468 14.4479
43.5389 14.2426
43.7312 14.094
43.9237 13.8521
44.1162 13.6553
44.3088 13.448
44.5016 13.2805
44.6945 13.141
44.8875 12.9646
45.0806 12.7788
45.2739 12.5523
45.4673 12.4461
45.6609 12.2306
45.8546 12.0319
46.0484 11.8705
46.2424 11.7175
46.4365 11.52
46.631 11.3443
46.8254 11.2189
47.0199 11.0159
47.2146 10.8729
47.4095 10.7053
47.6044 10.5459
47.7996 10.4025
47.9948 10.2436
48.1902 10.0712
48.3858 9.97085
48.5815 9.77592
48.7774 9.65717
48.9734 9.53901
49.1696 9.38337
49.3661 9.24803
49.5626 9.06683
49.7592 8.93544
49.956 8.83066
50.153 8.66546
50.3501 8.52408
50.5474 8.41202
50.7448 8.29432
50.9424 8.16668
51.1402 8.01225
51.3381 7.90446
51.5362 7.74754
51.7344 7.68312
51.9328 7.51721
52.1316 7.38166
52.3304 7.26139
52.5293 7.14238
52.7284 7.07903
52.9276 6.89655
53.1271 6.81105
53.3267 6.69321
53.5265 6.51756
53.7264 6.46786
53.9266 6.36467
54.1269 6.22867
54.3274 6.1166
54.528 5.96905
54.7289 5.80863
54.9301 5.62784
55.1314 5.50284
55.3328 5.31878
55.5344 5.12817
55.7361 4.91398