File: XRD/Ni3Fe_FD0277.xy
TT I
1.27165 8.0488
1.45013 6.46438
1.62863 5.529
1.80712 5.02258
1.98562 5.1438
2.16411 4.91962
2.34263 5.17656
2.52115 5.23279
2.69965 6.33684
2.87818 7.70137
3.05672 11.199
3.23527 14.7662
3.4138 19.243
3.59237 24.4643
3.77094 26.9901
3.9495 30.6819
4.12809 36.0335
4.30669 224.864
4.4853 67.1292
4.6639 57.3684
4.84253 69.8649
5.02118 92.1329
5.19981 520.757
5.37848 269.063
5.55716 108.652
5.73586 97.5583
5.91455 102.591
6.09328 3716.86
6.27201 90.5187
6.45075 70.6293
6.62952 65.3856
6.8083 61.2729
6.98711 58.325
7.16591 57.8089
7.34475 96.0275
7.5236 56.5708
7.70247 58.3171
7.88135 60.3056
8.06026 64.714
8.23919 72.4784
8.41812 89.9046
8.59709 1065.91
8.77609 109.177
8.9551 95.9034
9.13412 85.5799
9.31318 86.4214
9.49226 88.2394
9.67134 103.263
9.85047 104.934
10.0296 415.611
10.2088 607.592
10.388 111.007
10.5672 451.825
10.7465 91.4833
10.9257 81.8162
11.105 74.9653
11.2844 73.497
11.4637 67.2901
11.6431 66.2153
11.8225 65.2568
12.002 66.666
12.1814 140.634
12.3609 75.4279
12.5405 67.2511
12.72 73.3813
12.8996 74.1106
13.0792 82.545
13.2589 222.401
13.4386 152.349
13.6183 223.988
13.7981 115.293
13.9779 79.2019
14.1577 75.5222
14.3376 74.6907
14.5175 71.5051
14.6974 73.7563
14.8774 113.726
15.0574 173.544
15.2374 74.1736
15.4175 69.341
15.5976 68.5777
15.7778 98.435
15.958 177.45
16.1382 65.7772
16.3185 61.1824
16.4988 57.861
16.6792 56.9183
16.8596 57.6535
17.04 58.3818
17.2205 68.0622
17.401 78.0122
17.5815 61.8549
17.7622 64.1645
17.9428 79.0289
18.1237 136.824
18.3044 90.3222
18.4852 86.0447
18.666 63.1104
18.8469 60.6719
19.0278 59.3335
19.2088 62.5985
19.3898 77.7074
19.5709 57.0373
19.752 55.6953
19.9332 58.939
20.1144 71.6362
20.2957 64.8488
20.477 57.0187
20.6586 51.7667
20.84 50.8994
21.0215 50.6325
21.203 52.6811
21.3846 51.3479
21.5662 50.9146
21.7479 54.657
21.9297 66.2285
22.1115 57.9357
22.2933 52.5948
22.4753 51.003
22.6572 51.013
22.8393 53.5975
23.0214 59.8659
23.2037 51.0205
23.3859 51.9706
23.5682 57.7076
23.7505 51.2203
23.9329 47.147
24.1154 46.087
24.2979 45.2974
24.4805 44.6757
24.6631 44.5963
24.8458 44.0144
25.0286 44.5293
25.2114 46.2575
25.3943 46.3559
25.5773 42.8018
25.7605 42.1099
25.9436 42.4927
26.1268 43.4322
26.31 42.0135
26.4933 42.2777
26.6767 43.6871
26.8601 42.2175
27.0437 40.5777
27.2272 40.1665
27.4109 39.9759
27.5946 39.8567
27.7784 39.4782
27.9623 39.8484
28.1462 40.4874
28.3304 38.8802
28.5145 37.6446
28.6987 37.1173
28.8829 36.8439
29.0673 36.1952
29.2517 35.7149
29.4361 35.4545
29.6207 34.5903
29.8053 34.2195
29.99 33.9067
30.1748 33.7345
30.3597 33.555
30.5447 33.4797
30.7297 33.6029
30.915 32.9893
31.1002 32.3466
31.2855 32.1272
31.4708 32.0391
31.6563 31.7209
31.8418 31.3003
32.0275 31.212
32.2132 30.5806
32.399 30.1653
32.5848 29.7272
32.7708 29.2771
32.9569 29.2021
33.143 28.8947
33.3293 28.4809
33.5158 28.1613
33.7022 27.6184
33.8887 27.3954
34.0753 27.1207
34.262 26.6302
34.4488 26.3595
34.6357 26.0143
34.8227 25.6797
35.0098 25.5106
35.1969 25.2524
35.3842 24.9579
35.5716 24.723
35.759 24.4037
35.9468 24.0679
36.1345 23.8662
36.3222 23.646
36.5101 23.3281
36.6981 23.0536
36.8861 22.7356
37.0743 22.392
37.2626 22.1204
37.451 21.8685
37.6395 21.6695
37.8281 21.3566
38.0168 21.0728
38.2056 20.776
38.3945 20.4916
38.5837 20.2409
38.7728 19.9633
38.9621 19.7746
39.1514 19.4618
39.3409 19.2274
39.5304 19.0021
39.7201 18.7891
39.9099 18.5894
40.0999 18.3457
40.2899 18.0938
40.48 17.8029
40.6703 17.5984
40.8607 17.4076
41.0512 17.1932
41.242 16.9726
41.4327 16.7323
41.6236 16.4581
41.8146 16.2879
42.0057 16.0581
42.1969 15.8491
42.3882 15.683
42.5797 15.4032
42.7713 15.2365
42.963 14.9714
43.1549 14.831
43.3468 14.6243
43.5389 14.3806
43.7312 14.2111
43.9237 14.0429
44.1162 13.8102
44.3088 13.5897
44.5016 13.4138
44.6945 13.215
44.8875 13.091
45.0806 12.8691
45.2739 12.7293
45.4673 12.5653
45.6609 12.3522
45.8546 12.2277
46.0484 12.0316
46.2424 11.8545
46.4365 11.6628
46.631 11.4571
46.8254 11.304
47.0199 11.1505
47.2146 10.9971
47.4095 10.8143
47.6044 10.6028
47.7996 10.4627
47.9948 10.3402
48.1902 10.1967
48.3858 10.0445
48.5815 9.89617
48.7774 9.80825
48.9734 9.63897
49.1696 9.46435
49.3661 9.324
49.5626 9.17666
49.7592 9.09108
49.956 8.93086
50.153 8.75899
50.3501 8.64485
50.5474 8.51177
50.7448 8.39175
50.9424 8.23627
51.1402 8.08764
51.3381 7.96368
51.5362 7.8556
51.7344 7.69349
51.9328 7.58121
52.1316 7.45598
52.3304 7.38041
52.5293 7.20359
52.7284 7.11246
52.9276 6.96701
53.1271 6.87795
53.3267 6.71426
53.5265 6.62548
53.7264 6.57015
53.9266 6.44729
54.1269 6.27021
54.3274 6.16289
54.528 5.9743
54.7289 5.82852
54.9301 5.65674
55.1314 5.54918
55.3328 5.35936
55.5344 5.14614
55.7361 4.92907