File: XRD/Ni3Fe_FD0641.xy
TT I
1.27165 7.71207
1.45013 6.55665
1.62863 5.67044
1.80712 4.935
1.98562 5.00729
2.16411 5.07288
2.34263 5.54457
2.52115 7.41578
2.69965 8.09728
2.87818 8.53193
3.05672 11.7281
3.23527 15.3574
3.4138 19.1109
3.59237 24.9357
3.77094 26.3111
3.9495 30.0532
4.12809 35.6428
4.30669 260.955
4.4853 70.1842
4.6639 55.8476
4.84253 67.2113
5.02118 86.487
5.19981 336.017
5.37848 196.622
5.55716 102.269
5.73586 92.082
5.91455 93.7312
6.09328 4367.26
6.27201 84.3028
6.45075 68.0266
6.62952 63.6289
6.8083 59.3656
6.98711 56.4597
7.16591 55.9559
7.34475 101.767
7.5236 55.3627
7.70247 56.5451
7.88135 58.4739
8.06026 62.5145
8.23919 69.6993
8.41812 86.2004
8.59709 1111.81
8.77609 100.613
8.9551 93.4928
9.13412 82.1321
9.31318 82.8786
9.49226 85.0344
9.67134 101.103
9.85047 100.723
10.0296 326.866
10.2088 439.161
10.388 105.19
10.5672 500.563
10.7465 87.4187
10.9257 79.4454
11.105 72.1588
11.2844 71.5019
11.4637 65.1653
11.6431 64.04
11.8225 62.6044
12.002 63.8945
12.1814 147.85
12.3609 72.6143
12.5405 64.6075
12.72 71.3679
12.8996 71.179
13.0792 78.7883
13.2589 228.643
13.4386 128.613
13.6183 240.893
13.7981 100.429
13.9779 76.1296
14.1577 72.9081
14.3376 72.4962
14.5175 69.1029
14.6974 70.736
14.8774 107.959
15.0574 152.099
15.2374 71.9493
15.4175 66.6167
15.5976 66.1552
15.7778 92.8301
15.958 160.672
16.1382 63.4603
16.3185 59.249
16.4988 55.8889
16.6792 54.8472
16.8596 55.6264
17.04 55.8992
17.2205 66.6039
17.401 72.4722
17.5815 59.6421
17.7622 61.4842
17.9428 73.1516
18.1237 138.5
18.3044 89.7395
18.4852 79.3613
18.666 60.7216
18.8469 58.1638
19.0278 57.1033
19.2088 59.6105
19.3898 76.8172
19.5709 54.5485
19.752 53.6565
19.9332 56.2297
20.1144 69.8994
20.2957 63.6649
20.477 54.0962
20.6586 49.8756
20.84 49.1118
21.0215 48.7029
21.203 50.8936
21.3846 49.1873
21.5662 48.8748
21.7479 52.447
21.9297 64.5054
22.1115 56.2066
22.2933 50.0036
22.4753 49.0641
22.6572 48.9201
22.8393 51.919
23.0214 57.6662
23.2037 48.8721
23.3859 49.6464
23.5682 56.7928
23.7505 48.6438
23.9329 45.4114
24.1154 44.3757
24.2979 43.6043
24.4805 43.0719
24.6631 42.9941
24.8458 42.3499
25.0286 42.8959
25.2114 44.7262
25.3943 44.8806
25.5773 41.0783
25.7605 40.5823
25.9436 40.945
26.1268 41.9007
26.31 40.2782
26.4933 40.7536
26.6767 42.3331
26.8601 40.5499
27.0437 39.0689
27.2272 38.6949
27.4109 38.427
27.5946 38.4906
27.7784 38.0456
27.9623 38.4864
28.1462 38.895
28.3304 37.4458
28.5145 36.0961
28.6987 35.738
28.8829 35.5578
29.0673 34.8561
29.2517 34.5746
29.4361 34.3034
29.6207 33.2558
29.8053 32.9719
29.99 32.7686
30.1748 32.5956
30.3597 32.3564
30.5447 32.2404
30.7297 32.279
30.915 31.6462
31.1002 31.2254
31.2855 31.0221
31.4708 30.8966
31.6563 30.4933
31.8418 30.3111
32.0275 30.0223
32.2132 29.6457
32.399 29.0756
32.5848 28.5571
32.7708 28.3142
32.9569 28.1357
33.143 27.942
33.3293 27.5349
33.5158 27.1717
33.7022 26.7247
33.8887 26.4859
34.0753 26.0968
34.262 25.7705
34.4488 25.4436
34.6357 25.113
34.8227 24.8507
35.0098 24.5917
35.1969 24.2484
35.3842 24.1153
35.5716 23.9135
35.759 23.5715
35.9468 23.274
36.1345 23.0294
36.3222 22.8057
36.5101 22.5884
36.6981 22.2452
36.8861 21.9115
37.0743 21.6071
37.2626 21.3652
37.451 21.1209
37.6395 20.8808
37.8281 20.5522
38.0168 20.3557
38.2056 20.0564
38.3945 19.7974
38.5837 19.5509
38.7728 19.2244
38.9621 19.0097
39.1514 18.8502
39.3409 18.595
39.5304 18.3545
39.7201 18.1471
39.9099 17.8953
40.0999 17.7136
40.2899 17.434
40.48 17.2242
40.6703 16.9825
40.8607 16.8308
41.0512 16.5704
41.242 16.3257
41.4327 16.1634
41.6236 15.8763
41.8146 15.7396
42.0057 15.5412
42.1969 15.2759
42.3882 15.1241
42.5797 14.9087
42.7713 14.7004
42.963 14.4872
43.1549 14.2904
43.3468 14.1473
43.5389 13.8973
43.7312 13.7528
43.9237 13.5146
44.1162 13.3227
44.3088 13.1311
44.5016 12.9388
44.6945 12.8167
44.8875 12.64
45.0806 12.4222
45.2739 12.2871
45.4673 12.1033
45.6609 11.9017
45.8546 11.8001
46.0484 11.5531
46.2424 11.4648
46.4365 11.2665
46.631 11.1069
46.8254 10.9003
47.0199 10.7736
47.2146 10.6454
47.4095 10.4902
47.6044 10.2725
47.7996 10.1477
47.9948 10.0067
48.1902 9.86282
48.3858 9.74007
48.5815 9.57383
48.7774 9.42648
48.9734 9.32235
49.1696 9.13443
49.3661 9.03651
49.5626 8.846
49.7592 8.7541
49.956 8.6263
50.153 8.49244
50.3501 8.3479
50.5474 8.22868
50.7448 8.09888
50.9424 7.98695
51.1402 7.87077
51.3381 7.70955
51.5362 7.60899
51.7344 7.47279
51.9328 7.31647
52.1316 7.21452
52.3304 7.12158
52.5293 6.97205
52.7284 6.91609
52.9276 6.76267
53.1271 6.70363
53.3267 6.48814
53.5265 6.41562
53.7264 6.29727
53.9266 6.15126
54.1269 6.06658
54.3274 5.93694
54.528 5.82465
54.7289 5.68774
54.9301 5.53858
55.1314 5.42164
55.3328 5.15351
55.5344 5.00432
55.7361 4.8587