File: XRD/Ni3Fe_FD0243.xy
TT I
1.27165 7.96348
1.45013 6.16628
1.62863 5.69958
1.80712 5.62819
1.98562 4.83344
2.16411 4.60244
2.34263 4.17439
2.52115 5.26432
2.69965 6.65408
2.87818 8.47396
3.05672 10.1902
3.23527 14.7996
3.4138 18.6581
3.59237 22.3363
3.77094 25.5904
3.9495 30.1756
4.12809 34.8891
4.30669 40.9003
4.4853 48.2205
4.6639 57.9898
4.84253 71.3984
5.02118 96.0085
5.19981 887.213
5.37848 268.087
5.55716 112.153
5.73586 100.162
5.91455 109.192
6.09328 3709.79
6.27201 88.3429
6.45075 70.8235
6.62952 63.9591
6.8083 60.2261
6.98711 57.2258
7.16591 56.7102
7.34475 55.678
7.5236 55.998
7.70247 58.001
7.88135 60.428
8.06026 65.3819
8.23919 73.052
8.41812 90.2807
8.59709 1077.69
8.77609 109.799
8.9551 90.7244
9.13412 86.51
9.31318 87.8965
9.49226 89.3423
9.67134 95.519
9.85047 106.453
10.0296 511.042
10.2088 529.392
10.388 115.09
10.5672 448.126
10.7465 91.8864
10.9257 80.669
11.105 74.7367
11.2844 70.4058
11.4637 67.6042
11.6431 66.3186
11.8225 65.3677
12.002 68.382
12.1814 141.13
12.3609 69.591
12.5405 67.3915
12.72 69.8068
12.8996 74.5116
13.0792 86.6859
13.2589 231.068
13.4386 148.388
13.6183 228.162
13.7981 109.24
13.9779 79.4989
14.1577 75.0488
14.3376 73.1691
14.5175 72.2633
14.6974 74.5389
14.8774 120.195
15.0574 168.747
15.2374 72.0977
15.4175 69.8647
15.5976 69.7229
15.7778 103.845
15.958 172.589
16.1382 63.588
16.3185 60.1442
16.4988 57.8216
16.6792 56.7648
16.8596 57.3122
17.04 59.2386
17.2205 68.7172
17.401 77.0841
17.5815 62.1933
17.7622 64.3985
17.9428 82.3202
18.1237 139.628
18.3044 90.3115
18.4852 82.9684
18.666 63.0373
18.8469 60.7583
19.0278 59.3926
19.2088 62.9232
19.3898 76.6386
19.5709 56.7486
19.752 55.9962
19.9332 59.4011
20.1144 72.6582
20.2957 64.4207
20.477 56.5577
20.6586 52.1731
20.84 51.1293
21.0215 51.1834
21.203 52.4472
21.3846 51.5466
21.5662 51.7255
21.7479 55.4463
21.9297 66.8966
22.1115 57.6761
22.2933 52.3157
22.4753 50.8868
22.6572 51.9242
22.8393 54.2395
23.0214 60.1689
23.2037 51.4054
23.3859 52.5117
23.5682 57.7462
23.7505 51.1213
23.9329 47.3241
24.1154 46.0686
24.2979 45.4274
24.4805 44.8451
24.6631 44.7392
24.8458 44.2579
25.0286 44.9573
25.2114 46.4784
25.3943 46.7427
25.5773 42.7947
25.7605 42.337
25.9436 42.5735
26.1268 43.4709
26.31 42.1862
26.4933 42.458
26.6767 43.924
26.8601 42.2759
27.0437 40.6913
27.2272 40.3261
27.4109 40.1094
27.5946 40.1538
27.7784 39.7717
27.9623 39.8616
28.1462 40.4627
28.3304 38.8136
28.5145 37.5553
28.6987 37.184
28.8829 36.8246
29.0673 36.2862
29.2517 35.9291
29.4361 35.6172
29.6207 34.634
29.8053 34.3652
29.99 33.9761
30.1748 33.8359
30.3597 33.6979
30.5447 33.5159
30.7297 33.6657
30.915 32.9711
31.1002 32.5483
31.2855 32.1455
31.4708 32.2132
31.6563 31.7605
31.8418 31.4201
32.0275 31.2682
32.2132 30.6778
32.399 30.1612
32.5848 29.7605
32.7708 29.3363
32.9569 29.2298
33.143 28.9707
33.3293 28.6201
33.5158 28.2282
33.7022 27.6826
33.8887 27.4952
34.0753 27.1748
34.262 26.7831
34.4488 26.4503
34.6357 26.1155
34.8227 25.9027
35.0098 25.586
35.1969 25.254
35.3842 25.0264
35.5716 24.8391
35.759 24.4408
35.9468 23.9946
36.1345 23.9143
36.3222 23.6267
36.5101 23.3653
36.6981 23.1254
36.8861 22.7005
37.0743 22.4431
37.2626 22.1818
37.451 21.8871
37.6395 21.7769
37.8281 21.3624
38.0168 21.0548
38.2056 20.8557
38.3945 20.583
38.5837 20.2608
38.7728 20.0573
38.9621 19.7537
39.1514 19.5545
39.3409 19.2575
39.5304 19.0988
39.7201 18.7965
39.9099 18.6217
40.0999 18.3638
40.2899 18.1424
40.48 17.8179
40.6703 17.6585
40.8607 17.4613
41.0512 17.2198
41.242 16.9746
41.4327 16.7633
41.6236 16.4982
41.8146 16.3482
42.0057 16.1068
42.1969 15.8174
42.3882 15.6969
42.5797 15.4733
42.7713 15.2477
42.963 15.0182
43.1549 14.8242
43.3468 14.5742
43.5389 14.4209
43.7312 14.2291
43.9237 14.0609
44.1162 13.7986
44.3088 13.645
44.5016 13.4341
44.6945 13.2904
44.8875 13.1066
45.0806 12.883
45.2739 12.7312
45.4673 12.5687
45.6609 12.3103
45.8546 12.1807
46.0484 12.0069
46.2424 11.8138
46.4365 11.6779
46.631 11.5029
46.8254 11.2916
47.0199 11.131
47.2146 11.0385
47.4095 10.8028
47.6044 10.6621
47.7996 10.4826
47.9948 10.3478
48.1902 10.1862
48.3858 10.0818
48.5815 9.90582
48.7774 9.75787
48.9734 9.63054
49.1696 9.4757
49.3661 9.31752
49.5626 9.16453
49.7592 9.05464
49.956 8.95038
50.153 8.80147
50.3501 8.63094
50.5474 8.5156
50.7448 8.38432
50.9424 8.2612
51.1402 8.14038
51.3381 7.96889
51.5362 7.85484
51.7344 7.73153
51.9328 7.56336
52.1316 7.46375
52.3304 7.36129
52.5293 7.21552
52.7284 7.14607
52.9276 7.00394
53.1271 6.87952
53.3267 6.75715
53.5265 6.63949
53.7264 6.5034
53.9266 6.40341
54.1269 6.30529
54.3274 6.16438
54.528 6.00056
54.7289 5.84049
54.9301 5.69731
55.1314 5.53693
55.3328 5.32814
55.5344 5.14077
55.7361 4.99933