File: XRD/Ni3Fe_FD0694.xy
TT I
1.27165 7.27754
1.45013 5.7602
1.62863 5.23649
1.80712 4.48355
1.98562 5.02765
2.16411 4.6935
2.34263 4.77135
2.52115 6.67423
2.69965 7.92105
2.87818 8.72983
3.05672 10.9206
3.23527 14.8255
3.4138 19.1748
3.59237 22.8245
3.77094 25.5367
3.9495 29.5554
4.12809 33.936
4.30669 118.676
4.4853 55.4526
4.6639 55.7813
4.84253 68.0889
5.02118 87.9615
5.19981 431.321
5.37848 191.859
5.55716 102.3
5.73586 92.6496
5.91455 96.4921
6.09328 4615.77
6.27201 81.1556
6.45075 68.7232
6.62952 62.7742
6.8083 58.8681
6.98711 55.6933
7.16591 55.779
7.34475 70.6876
7.5236 54.1891
7.70247 56.4742
7.88135 57.5485
8.06026 62.8134
8.23919 69.8329
8.41812 84.5336
8.59709 1242.76
8.77609 98.4034
8.9551 89.4715
9.13412 82.6232
9.31318 84.4056
9.49226 85.224
9.67134 95.5853
9.85047 101.609
10.0296 367.511
10.2088 354.56
10.388 105.855
10.5672 513.697
10.7465 86.3351
10.9257 77.9892
11.105 71.5481
11.2844 68.7632
11.4637 64.8737
11.6431 63.3699
11.8225 62.4423
12.002 64.5635
12.1814 154.588
12.3609 67.3849
12.5405 64.6642
12.72 68.3233
12.8996 71.2833
13.0792 80.367
13.2589 251.2
13.4386 119.831
13.6183 256.555
13.7981 93.6186
13.9779 75.674
14.1577 71.9637
14.3376 70.7083
14.5175 69.0234
14.6974 70.924
14.8774 114.273
15.0574 139.593
15.2374 69.6772
15.4175 66.2713
15.5976 65.881
15.7778 97.1767
15.958 148.71
16.1382 61.491
16.3185 57.7237
16.4988 55.4047
16.6792 54.3096
16.8596 54.887
17.04 56.2529
17.2205 67.5622
17.401 69.7342
17.5815 59.0652
17.7622 61.4926
17.9428 74.6422
18.1237 141.562
18.3044 91.3208
18.4852 74.9572
18.666 60.0508
18.8469 57.8633
19.0278 56.8808
19.2088 59.178
19.3898 75.9815
19.5709 54.0534
19.752 53.2933
19.9332 56.2768
20.1144 69.8256
20.2957 64.1003
20.477 52.9658
20.6586 49.5736
20.84 48.6272
21.0215 48.5504
21.203 50.9067
21.3846 48.8358
21.5662 49.0075
21.7479 53.0309
21.9297 64.6259
22.1115 56.0223
22.2933 49.5514
22.4753 48.8409
22.6572 48.9836
22.8393 52.2377
23.0214 56.9989
23.2037 48.6573
23.3859 50.1126
23.5682 57.219
23.7505 47.825
23.9329 45.1664
24.1154 44.023
24.2979 43.3783
24.4805 42.8158
24.6631 42.7893
24.8458 42.1231
25.0286 42.7521
25.2114 44.544
25.3943 44.4387
25.5773 40.6787
25.7605 40.4365
25.9436 40.7631
26.1268 41.5722
26.31 40.0503
26.4933 40.6257
26.6767 42.1393
26.8601 40.405
27.0437 38.8188
27.2272 38.4938
27.4109 38.3652
27.5946 38.2221
27.7784 37.8543
27.9623 38.5183
28.1462 38.8192
28.3304 37.1214
28.5145 35.8381
28.6987 35.5754
28.8829 35.3146
29.0673 34.5296
29.2517 34.2768
29.4361 34.12
29.6207 33.0621
29.8053 32.8673
29.99 32.4666
30.1748 32.3807
30.3597 32.1898
30.5447 32.1802
30.7297 32.1867
30.915 31.5365
31.1002 31.049
31.2855 30.8173
31.4708 30.714
31.6563 30.2879
31.8418 30.1765
32.0275 29.9
32.2132 29.3397
32.399 28.8726
32.5848 28.4872
32.7708 28.1506
32.9569 27.9615
33.143 27.8231
33.3293 27.3618
33.5158 26.9297
33.7022 26.6147
33.8887 26.2125
34.0753 26.0292
34.262 25.5568
34.4488 25.1989
34.6357 24.9243
34.8227 24.6157
35.0098 24.4768
35.1969 24.1016
35.3842 23.9533
35.5716 23.6818
35.759 23.4032
35.9468 23.0389
36.1345 22.8871
36.3222 22.5646
36.5101 22.4029
36.6981 22.0656
36.8861 21.7142
37.0743 21.5139
37.2626 21.2937
37.451 20.9384
37.6395 20.8228
37.8281 20.4019
38.0168 20.1676
38.2056 19.9554
38.3945 19.6727
38.5837 19.459
38.7728 19.1766
38.9621 18.8973
39.1514 18.7005
39.3409 18.4339
39.5304 18.2452
39.7201 17.9555
39.9099 17.7878
40.0999 17.555
40.2899 17.3239
40.48 17.0348
40.6703 16.8726
40.8607 16.7501
41.0512 16.5094
41.242 16.2022
41.4327 16.0375
41.6236 15.8562
41.8146 15.6241
42.0057 15.3831
42.1969 15.2281
42.3882 14.9702
42.5797 14.8283
42.7713 14.5828
42.963 14.4474
43.1549 14.2032
43.3468 13.9647
43.5389 13.8237
43.7312 13.6207
43.9237 13.48
44.1162 13.2607
44.3088 13.0604
44.5016 12.8846
44.6945 12.7029
44.8875 12.4852
45.0806 12.3647
45.2739 12.1613
45.4673 11.9841
45.6609 11.8151
45.8546 11.6835
46.0484 11.5732
46.2424 11.3495
46.4365 11.1877
46.631 11.0176
46.8254 10.8145
47.0199 10.6776
47.2146 10.5366
47.4095 10.3935
47.6044 10.198
47.7996 10.1045
47.9948 9.95836
48.1902 9.76934
48.3858 9.65457
48.5815 9.5242
48.7774 9.37186
48.9734 9.22441
49.1696 9.09411
49.3661 8.91771
49.5626 8.75955
49.7592 8.70239
49.956 8.57155
50.153 8.42362
50.3501 8.29222
50.5474 8.16237
50.7448 8.05953
50.9424 7.87978
51.1402 7.76001
51.3381 7.63995
51.5362 7.56025
51.7344 7.37086
51.9328 7.25294
52.1316 7.1585
52.3304 7.05186
52.5293 6.92816
52.7284 6.81351
52.9276 6.68588
53.1271 6.63052
53.3267 6.49283
53.5265 6.36933
53.7264 6.26503
53.9266 6.18426
54.1269 6.02979
54.3274 5.92108
54.528 5.76755
54.7289 5.62582
54.9301 5.51345
55.1314 5.31582
55.3328 5.12678
55.5344 4.98015
55.7361 4.81759