File: XRD/Ni3Fe_FD0879.xy
TT I
1.27165 7.62178
1.45013 5.85916
1.62863 5.02055
1.80712 4.88877
1.98562 4.44724
2.16411 5.33726
2.34263 5.03824
2.52115 7.70147
2.69965 8.26392
2.87818 8.90487
3.05672 11.302
3.23527 15.5329
3.4138 18.7099
3.59237 24.2447
3.77094 26.2626
3.9495 30.1303
4.12809 35.0913
4.30669 264.205
4.4853 69.6895
4.6639 55.0768
4.84253 66.1076
5.02118 84.7708
5.19981 286.916
5.37848 181.788
5.55716 99.9603
5.73586 90.0382
5.91455 90.3104
6.09328 4327.24
6.27201 81.7299
6.45075 66.5348
6.62952 61.976
6.8083 58.3913
6.98711 55.7093
7.16591 54.9014
7.34475 100.963
7.5236 54.4642
7.70247 55.6758
7.88135 57.0916
8.06026 61.4115
8.23919 68.4113
8.41812 83.3727
8.59709 1079.68
8.77609 97.3645
8.9551 91.8696
9.13412 80.3149
9.31318 81.1798
9.49226 83.2018
9.67134 99.1168
9.85047 97.5369
10.0296 291.256
10.2088 414.263
10.388 103.03
10.5672 510.059
10.7465 85.1395
10.9257 77.5302
11.105 70.7955
11.2844 70.1675
11.4637 64.1638
11.6431 63.0804
11.8225 61.5734
12.002 62.4888
12.1814 147.864
12.3609 71.1208
12.5405 63.6298
12.72 69.9726
12.8996 69.6774
13.0792 76.75
13.2589 221.311
13.4386 124.608
13.6183 237.846
13.7981 96.7049
13.9779 74.5573
14.1577 71.4742
14.3376 70.9349
14.5175 67.7792
14.6974 69.1902
14.8774 103.844
15.0574 148.657
15.2374 70.3074
15.4175 65.3703
15.5976 64.3859
15.7778 89.107
15.958 158.325
16.1382 62.2981
16.3185 58.1569
16.4988 54.6456
16.6792 53.7566
16.8596 54.4795
17.04 54.8419
17.2205 64.6203
17.401 69.8901
17.5815 58.3314
17.7622 60.3176
17.9428 70.4279
18.1237 137.868
18.3044 88.6759
18.4852 76.831
18.666 59.5164
18.8469 57.0586
19.0278 55.9254
19.2088 58.2958
19.3898 76.5238
19.5709 53.414
19.752 52.3794
19.9332 54.7773
20.1144 69.5156
20.2957 63.3449
20.477 53.1091
20.6586 49.0185
20.84 48.1118
21.0215 47.8537
21.203 50.2688
21.3846 48.3246
21.5662 47.9088
21.7479 51.5304
21.9297 64.0967
22.1115 55.6723
22.2933 49.1061
22.4753 48.2298
22.6572 48.0687
22.8393 50.8952
23.0214 56.9627
23.2037 48.2037
23.3859 48.9009
23.5682 56.4258
23.7505 47.9133
23.9329 44.6166
24.1154 43.6155
24.2979 42.9333
24.4805 42.3548
24.6631 42.3141
24.8458 41.6066
25.0286 42.2236
25.2114 43.9942
25.3943 44.0673
25.5773 40.3498
25.7605 39.9711
25.9436 40.2676
26.1268 41.1391
26.31 39.3989
26.4933 40.1311
26.6767 41.6367
26.8601 39.8585
27.0437 38.3578
27.2272 37.9671
27.4109 37.868
27.5946 37.8761
27.7784 37.4145
27.9623 37.9538
28.1462 38.3671
28.3304 36.7124
28.5145 35.5993
28.6987 35.1379
28.8829 35.0533
29.0673 34.2924
29.2517 33.8725
29.4361 33.723
29.6207 32.8275
29.8053 32.5046
29.99 32.0872
30.1748 31.9523
30.3597 31.7383
30.5447 31.8051
30.7297 31.7124
30.915 31.1875
31.1002 30.8067
31.2855 30.4955
31.4708 30.4456
31.6563 29.9307
31.8418 29.7055
32.0275 29.5007
32.2132 29.0209
32.399 28.5854
32.5848 28.1571
32.7708 27.7678
32.9569 27.648
33.143 27.4517
33.3293 27.0604
33.5158 26.6447
33.7022 26.257
33.8887 25.9891
34.0753 25.6655
34.262 25.3067
34.4488 24.9992
34.6357 24.6196
34.8227 24.4139
35.0098 24.2217
35.1969 23.895
35.3842 23.6765
35.5716 23.5183
35.759 23.1291
35.9468 22.8465
36.1345 22.6815
36.3222 22.3322
36.5101 22.189
36.6981 21.923
36.8861 21.5447
37.0743 21.2492
37.2626 21.0126
37.451 20.7008
37.6395 20.5533
37.8281 20.2539
38.0168 20.0027
38.2056 19.7204
38.3945 19.452
38.5837 19.1741
38.7728 18.9784
38.9621 18.7202
39.1514 18.4766
39.3409 18.269
39.5304 18.0405
39.7201 17.8725
39.9099 17.6217
40.0999 17.38
40.2899 17.1776
40.48 16.8719
40.6703 16.7436
40.8607 16.5721
41.0512 16.2994
41.242 16.0626
41.4327 15.8816
41.6236 15.6838
41.8146 15.506
42.0057 15.2293
42.1969 15.0394
42.3882 14.9144
42.5797 14.5957
42.7713 14.494
42.963 14.253
43.1549 14.0293
43.3468 13.8478
43.5389 13.6888
43.7312 13.4878
43.9237 13.3612
44.1162 13.115
44.3088 12.9122
44.5016 12.7703
44.6945 12.5818
44.8875 12.4467
45.0806 12.2357
45.2739 12.0753
45.4673 11.8934
45.6609 11.6911
45.8546 11.6064
46.0484 11.3967
46.2424 11.2079
46.4365 11.0816
46.631 10.911
46.8254 10.7597
47.0199 10.5841
47.2146 10.4252
47.4095 10.2895
47.6044 10.1654
47.7996 9.96264
47.9948 9.84778
48.1902 9.71084
48.3858 9.55676
48.5815 9.40143
48.7774 9.29787
48.9734 9.1677
49.1696 9.00478
49.3661 8.85264
49.5626 8.72633
49.7592 8.6187
49.956 8.47162
50.153 8.3564
50.3501 8.22006
50.5474 8.10304
50.7448 7.95811
50.9424 7.85605
51.1402 7.71304
51.3381 7.58258
51.5362 7.47577
51.7344 7.33845
51.9328 7.23275
52.1316 7.11525
52.3304 7.00595
52.5293 6.86743
52.7284 6.74316
52.9276 6.6703
53.1271 6.60388
53.3267 6.40504
53.5265 6.28991
53.7264 6.2433
53.9266 6.05759
54.1269 5.98377
54.3274 5.86601
54.528 5.76243
54.7289 5.58206
54.9301 5.41782
55.1314 5.28876
55.3328 5.09025
55.5344 4.85514
55.7361 4.75516