File: XRD/Ni3Fe_FD0147.xy
TT I
1.27165 8.5321
1.45013 6.67447
1.62863 5.91852
1.80712 5.76487
1.98562 4.868
2.16411 4.66009
2.34263 4.15974
2.52115 4.45855
2.69965 5.37482
2.87818 8.03939
3.05672 11.2835
3.23527 15.0908
3.4138 18.7174
3.59237 21.7035
3.77094 24.6522
3.9495 28.438
4.12809 32.2293
4.30669 37.5404
4.4853 44.8971
4.6639 53.4923
4.84253 65.9428
5.02118 90.2953
5.19981 549.968
5.37848 457.188
5.55716 107.355
5.73586 95.0038
5.91455 104.636
6.09328 2684.14
6.27201 89.2506
6.45075 66.4358
6.62952 59.32
6.8083 55.7388
6.98711 53.1515
7.16591 52.1901
7.34475 51.7724
7.5236 55.8694
7.70247 53.7323
7.88135 55.9543
8.06026 60.1601
8.23919 67.81
8.41812 83.5501
8.59709 881.042
8.77609 116.077
8.9551 85.1249
9.13412 81.1902
9.31318 86.6789
9.49226 83.1751
9.67134 88.0625
9.85047 98.2007
10.0296 545.08
10.2088 1002.63
10.388 104.041
10.5672 326.626
10.7465 90.5292
10.9257 75.5204
11.105 70.1365
11.2844 65.792
11.4637 63.128
11.6431 61.753
11.8225 61.011
12.002 65.3226
12.1814 116.802
12.3609 75.0876
12.5405 63.0404
12.72 64.8665
12.8996 69.229
13.0792 78.772
13.2589 203.057
13.4386 213.387
13.6183 190.816
13.7981 155.057
13.9779 75.5173
14.1577 73.8696
14.3376 68.791
14.5175 68.1243
14.6974 69.5829
14.8774 120.736
15.0574 204.949
15.2374 68.8603
15.4175 65.8489
15.5976 65.09
15.7778 107.202
15.958 184.072
16.1382 61.6222
16.3185 57.0784
16.4988 54.7806
16.6792 53.7652
16.8596 54.0231
17.04 55.138
17.2205 64.8313
17.401 80.8222
17.5815 58.8016
17.7622 61.1306
17.9428 83.3731
18.1237 113.825
18.3044 88.0503
18.4852 95.7718
18.666 60.7937
18.8469 58.1899
19.0278 56.5316
19.2088 61.5425
19.3898 68.6202
19.5709 56.3727
19.752 53.1466
19.9332 58.0594
20.1144 66.6277
20.2957 60.7507
20.477 59.1303
20.6586 49.738
20.84 49.0567
21.0215 48.8352
21.203 49.5316
21.3846 50.371
21.5662 48.7769
21.7479 54.0288
21.9297 61.7603
22.1115 56.2903
22.2933 52.5213
22.4753 48.6143
22.6572 48.7716
22.8393 51.8167
23.0214 56.8485
23.2037 49.6988
23.3859 51.5636
23.5682 53.4746
23.7505 53.3497
23.9329 45.486
24.1154 44.2537
24.2979 43.4475
24.4805 42.9035
24.6631 43.0386
24.8458 42.4947
25.0286 42.8416
25.2114 44.4318
25.3943 44.664
25.5773 41.7549
25.7605 40.5128
25.9436 41.0306
26.1268 41.4961
26.31 40.849
26.4933 40.9214
26.6767 41.9796
26.8601 41.1925
27.0437 39.4079
27.2272 38.7951
27.4109 38.6141
27.5946 38.6888
27.7784 38.4475
27.9623 38.4288
28.1462 39.2825
28.3304 37.9285
28.5145 36.2468
28.6987 35.9103
28.8829 35.3547
29.0673 35.1325
29.2517 34.4355
29.4361 34.1787
29.6207 33.4606
29.8053 32.9936
29.99 32.6825
30.1748 32.4392
30.3597 32.505
30.5447 32.3182
30.7297 32.1904
30.915 32.0733
31.1002 31.3985
31.2855 31.1004
31.4708 30.8729
31.6563 30.775
31.8418 30.2661
32.0275 30.0651
32.2132 29.6058
32.399 29.0977
32.5848 28.6297
32.7708 28.2601
32.9569 28.1639
33.143 27.9953
33.3293 27.5456
33.5158 27.3695
33.7022 26.7803
33.8887 26.4513
34.0753 26.1979
34.262 25.7487
34.4488 25.4799
34.6357 25.0996
34.8227 24.7829
35.0098 24.5755
35.1969 24.3382
35.3842 24.0727
35.5716 23.9935
35.759 23.6432
35.9468 23.229
36.1345 23.0366
36.3222 22.7607
36.5101 22.5561
36.6981 22.255
36.8861 21.9539
37.0743 21.6347
37.2626 21.3855
37.451 21.1805
37.6395 20.9342
37.8281 20.6128
38.0168 20.309
38.2056 20.073
38.3945 19.7871
38.5837 19.5398
38.7728 19.2866
38.9621 19.0217
39.1514 18.8246
39.3409 18.5317
39.5304 18.3726
39.7201 18.1269
39.9099 17.9607
40.0999 17.6692
40.2899 17.4154
40.48 17.2365
40.6703 17.0263
40.8607 16.8376
41.0512 16.5771
41.242 16.3272
41.4327 16.1381
41.6236 15.8578
41.8146 15.6995
42.0057 15.4829
42.1969 15.2856
42.3882 15.0986
42.5797 14.9054
42.7713 14.7039
42.963 14.4765
43.1549 14.3022
43.3468 14.1144
43.5389 13.8969
43.7312 13.6991
43.9237 13.5266
44.1162 13.3048
44.3088 13.1772
44.5016 12.9496
44.6945 12.7706
44.8875 12.5932
45.0806 12.3706
45.2739 12.246
45.4673 12.0565
45.6609 11.919
45.8546 11.7418
46.0484 11.5809
46.2424 11.417
46.4365 11.2749
46.631 11.0475
46.8254 10.9003
47.0199 10.7292
47.2146 10.6092
47.4095 10.4356
47.6044 10.298
47.7996 10.1137
47.9948 9.97218
48.1902 9.87199
48.3858 9.68113
48.5815 9.56874
48.7774 9.44483
48.9734 9.27906
49.1696 9.12314
49.3661 9.02006
49.5626 8.86376
49.7592 8.7331
49.956 8.60803
50.153 8.47369
50.3501 8.36641
50.5474 8.24026
50.7448 8.11976
50.9424 7.92901
51.1402 7.86368
51.3381 7.73084
51.5362 7.55118
51.7344 7.45792
51.9328 7.38993
52.1316 7.20474
52.3304 7.09983
52.5293 6.96955
52.7284 6.90553
52.9276 6.74518
53.1271 6.65084
53.3267 6.54506
53.5265 6.39868
53.7264 6.31659
53.9266 6.20366
54.1269 6.10587
54.3274 5.93082
54.528 5.7904
54.7289 5.56837
54.9301 5.42378
55.1314 5.3448
55.3328 5.0716
55.5344 4.89092
55.7361 4.77981