File: XRD/Ni3Fe_FD0323.xy
TT I
1.27165 7.77367
1.45013 6.76463
1.62863 5.04951
1.80712 4.81803
1.98562 4.78142
2.16411 4.78465
2.34263 5.43331
2.52115 5.79886
2.69965 6.87232
2.87818 8.36428
3.05672 11.4807
3.23527 15.2429
3.4138 19.2777
3.59237 24.4648
3.77094 26.3775
3.9495 30.0345
4.12809 35.4794
4.30669 199.68
4.4853 65.0782
4.6639 56.8517
4.84253 69.221
5.02118 91.3902
5.19981 535.17
5.37848 231.373
5.55716 106.673
5.73586 95.9072
5.91455 100.927
6.09328 3938.82
6.27201 87.0345
6.45075 69.5963
6.62952 64.8896
6.8083 60.4202
6.98711 57.5631
7.16591 57.0932
7.34475 89.1251
7.5236 56.2026
7.70247 57.8836
7.88135 59.3208
8.06026 64.3601
8.23919 71.9944
8.41812 89.1093
8.59709 1138.0
8.77609 105.245
8.9551 93.3923
9.13412 84.2519
9.31318 85.7937
9.49226 87.4296
9.67134 100.494
9.85047 103.553
10.0296 409.418
10.2088 497.501
10.388 109.217
10.5672 479.134
10.7465 89.6004
10.9257 80.9148
11.105 74.0234
11.2844 71.9877
11.4637 66.8619
11.6431 65.7615
11.8225 64.4034
12.002 65.8361
12.1814 150.001
12.3609 72.7078
12.5405 66.5693
12.72 71.9855
12.8996 73.2515
13.0792 82.018
13.2589 237.785
13.4386 134.781
13.6183 236.584
13.7981 103.86
13.9779 78.0262
14.1577 74.5633
14.3376 73.8111
14.5175 71.0664
14.6974 72.801
14.8774 116.423
15.0574 158.789
15.2374 73.1914
15.4175 68.3661
15.5976 68.008
15.7778 100.322
15.958 168.065
16.1382 64.6592
16.3185 60.3271
16.4988 57.2669
16.6792 56.0504
16.8596 56.9864
17.04 57.6044
17.2205 68.7162
17.401 74.5103
17.5815 61.1631
17.7622 63.2673
17.9428 77.9019
18.1237 139.72
18.3044 91.1351
18.4852 80.9625
18.666 62.1738
18.8469 59.8213
19.0278 58.5368
19.2088 61.7233
19.3898 77.8945
19.5709 56.0935
19.752 55.0031
19.9332 58.4021
20.1144 71.3035
20.2957 64.5462
20.477 55.467
20.6586 51.2711
20.84 50.4048
21.0215 50.3451
21.203 52.1038
21.3846 50.5223
21.5662 50.4028
21.7479 54.4436
21.9297 66.4951
22.1115 57.2393
22.2933 51.6158
22.4753 50.4113
22.6572 50.6073
22.8393 53.7134
23.0214 59.3223
23.2037 50.5457
23.3859 51.5637
23.5682 57.7072
23.7505 50.014
23.9329 46.6823
24.1154 45.6021
24.2979 44.8402
24.4805 44.2142
24.6631 44.2448
24.8458 43.5492
25.0286 44.3779
25.2114 46.0803
25.3943 46.1345
25.5773 42.3388
25.7605 41.6277
25.9436 42.1609
26.1268 43.0256
26.31 41.5318
26.4933 42.0659
26.6767 43.2337
26.8601 41.7153
27.0437 40.1292
27.2272 39.7345
27.4109 39.6042
27.5946 39.6172
27.7784 39.0949
27.9623 39.4248
28.1462 39.9768
28.3304 38.3501
28.5145 37.0907
28.6987 36.7486
28.8829 36.446
29.0673 35.8029
29.2517 35.3668
29.4361 35.1615
29.6207 34.136
29.8053 33.9
29.99 33.5974
30.1748 33.4377
30.3597 33.3053
30.5447 33.0845
30.7297 33.1595
30.915 32.5341
31.1002 32.04
31.2855 31.8591
31.4708 31.7482
31.6563 31.2349
31.8418 30.9908
32.0275 30.8702
32.2132 30.2863
32.399 29.8294
32.5848 29.3414
32.7708 29.0451
32.9569 28.8923
33.143 28.6622
33.3293 28.2782
33.5158 27.9042
33.7022 27.4054
33.8887 27.1442
34.0753 26.7715
34.262 26.5083
34.4488 26.1478
34.6357 25.7865
34.8227 25.4875
35.0098 25.2163
35.1969 24.9263
35.3842 24.6936
35.5716 24.5194
35.759 24.1606
35.9468 23.864
36.1345 23.61
36.3222 23.3382
36.5101 23.1378
36.6981 22.8118
36.8861 22.4687
37.0743 22.141
37.2626 21.9134
37.451 21.6349
37.6395 21.4346
37.8281 21.0494
38.0168 20.8429
38.2056 20.5517
38.3945 20.2435
38.5837 20.0366
38.7728 19.7926
38.9621 19.5819
39.1514 19.234
39.3409 19.0508
39.5304 18.829
39.7201 18.5961
39.9099 18.4261
40.0999 18.1112
40.2899 17.8284
40.48 17.6786
40.6703 17.444
40.8607 17.2703
41.0512 16.9913
41.242 16.7835
41.4327 16.5246
41.6236 16.2972
41.8146 16.1258
42.0057 15.8796
42.1969 15.6948
42.3882 15.5021
42.5797 15.2394
42.7713 15.0861
42.963 14.8809
43.1549 14.6653
43.3468 14.4296
43.5389 14.2978
43.7312 14.0476
43.9237 13.8478
44.1162 13.6512
44.3088 13.5279
44.5016 13.2652
44.6945 13.1001
44.8875 12.9626
45.0806 12.7567
45.2739 12.5787
45.4673 12.4025
45.6609 12.2238
45.8546 12.0511
46.0484 11.9031
46.2424 11.6796
46.4365 11.5726
46.631 11.3178
46.8254 11.1415
47.0199 11.0449
47.2146 10.8807
47.4095 10.6871
47.6044 10.5151
47.7996 10.3976
47.9948 10.242
48.1902 10.0868
48.3858 9.94025
48.5815 9.8229
48.7774 9.64725
48.9734 9.52635
49.1696 9.36832
49.3661 9.23821
49.5626 9.07827
49.7592 8.97885
49.956 8.8479
50.153 8.697
50.3501 8.57123
50.5474 8.4229
50.7448 8.32749
50.9424 8.14646
51.1402 8.03935
51.3381 7.89257
51.5362 7.7587
51.7344 7.65871
51.9328 7.5033
52.1316 7.39086
52.3304 7.28098
52.5293 7.19642
52.7284 7.01496
52.9276 6.94927
53.1271 6.79266
53.3267 6.7005
53.5265 6.53121
53.7264 6.47366
53.9266 6.37686
54.1269 6.26822
54.3274 6.1083
54.528 5.96427
54.7289 5.80593
54.9301 5.67548
55.1314 5.4941
55.3328 5.28583
55.5344 5.16849
55.7361 4.93325