File: XRD/Ni3Fe_FD0983.xy
TT I
1.27165 7.38643
1.45013 6.23145
1.62863 4.92071
1.80712 4.37871
1.98562 5.02601
2.16411 5.37022
2.34263 5.89917
2.52115 8.16077
2.69965 8.47634
2.87818 8.93543
3.05672 11.1977
3.23527 15.3676
3.4138 18.8499
3.59237 23.7622
3.77094 26.2697
3.9495 29.4601
4.12809 34.6991
4.30669 234.055
4.4853 66.4685
4.6639 54.6838
4.84253 65.985
5.02118 83.9222
5.19981 270.931
5.37848 173.253
5.55716 98.929
5.73586 89.6883
5.91455 89.9621
6.09328 4584.55
6.27201 80.8047
6.45075 66.2317
6.62952 61.5898
6.8083 57.4426
6.98711 55.0254
7.16591 54.3456
7.34475 94.5598
7.5236 53.7933
7.70247 55.4066
7.88135 56.8656
8.06026 60.7172
8.23919 67.9385
8.41812 82.6683
8.59709 1116.74
8.77609 96.2363
8.9551 90.4649
9.13412 80.2032
9.31318 80.2601
9.49226 82.5784
9.67134 97.3839
9.85047 97.3789
10.0296 289.373
10.2088 370.374
10.388 101.918
10.5672 530.369
10.7465 84.5553
10.9257 77.1234
11.105 70.3051
11.2844 69.3508
11.4637 63.6839
11.6431 62.6522
11.8225 61.0517
12.002 62.0303
12.1814 150.397
12.3609 69.4622
12.5405 63.3686
12.72 68.8668
12.8996 69.3285
13.0792 76.5803
13.2589 227.514
13.4386 120.093
13.6183 243.063
13.7981 94.692
13.9779 74.1077
14.1577 71.1262
14.3376 70.2901
14.5175 67.2217
14.6974 68.5628
14.8774 103.762
15.0574 148.278
15.2374 69.5965
15.4175 64.7589
15.5976 64.2653
15.7778 89.2725
15.958 153.388
16.1382 61.4781
16.3185 57.5429
16.4988 54.5028
16.6792 53.378
16.8596 54.0319
17.04 54.2956
17.2205 64.7854
17.401 68.84
17.5815 57.7943
17.7622 59.7219
17.9428 70.345
18.1237 138.587
18.3044 88.939
18.4852 75.6184
18.666 59.0963
18.8469 56.7064
19.0278 55.6595
19.2088 57.8423
19.3898 75.3387
19.5709 53.0025
19.752 52.1909
19.9332 54.7916
20.1144 68.9299
20.2957 63.3311
20.477 52.7095
20.6586 48.6846
20.84 47.8893
21.0215 47.6545
21.203 49.9073
21.3846 47.8816
21.5662 47.6912
21.7479 51.2016
21.9297 63.5905
22.1115 55.364
22.2933 48.949
22.4753 47.9528
22.6572 47.6661
22.8393 50.6227
23.0214 56.3517
23.2037 47.8567
23.3859 48.5506
23.5682 56.5107
23.7505 47.3638
23.9329 44.3244
24.1154 43.3505
24.2979 42.6386
24.4805 42.0407
24.6631 42.0643
24.8458 41.2534
25.0286 42.0426
25.2114 43.8781
25.3943 43.7562
25.5773 40.104
25.7605 39.7439
25.9436 40.0287
26.1268 41.023
26.31 39.3573
26.4933 39.9365
26.6767 41.4617
26.8601 39.6982
27.0437 37.9303
27.2272 37.7909
27.4109 37.6754
27.5946 37.6383
27.7784 37.052
27.9623 37.7871
28.1462 38.0938
28.3304 36.4514
28.5145 35.2547
28.6987 34.8583
28.8829 34.7652
29.0673 33.958
29.2517 33.6895
29.4361 33.3975
29.6207 32.4679
29.8053 32.2083
29.99 31.7809
30.1748 31.8717
30.3597 31.66
30.5447 31.5728
30.7297 31.6369
30.915 30.9616
31.1002 30.5567
31.2855 30.2463
31.4708 30.2262
31.6563 29.7448
31.8418 29.5353
32.0275 29.3515
32.2132 28.7557
32.399 28.3668
32.5848 27.9613
32.7708 27.6022
32.9569 27.4905
33.143 27.3078
33.3293 26.8308
33.5158 26.5072
33.7022 26.0435
33.8887 25.818
34.0753 25.5578
34.262 25.2075
34.4488 24.7974
34.6357 24.5478
34.8227 24.189
35.0098 24.0324
35.1969 23.726
35.3842 23.6274
35.5716 23.4038
35.759 23.0471
35.9468 22.6894
36.1345 22.4528
36.3222 22.2434
36.5101 22.0334
36.6981 21.678
36.8861 21.4596
37.0743 21.1021
37.2626 20.8144
37.451 20.6397
37.6395 20.4092
37.8281 20.129
38.0168 19.8254
38.2056 19.5811
38.3945 19.3297
38.5837 19.0843
38.7728 18.828
38.9621 18.6348
39.1514 18.3724
39.3409 18.1584
39.5304 17.9265
39.7201 17.7319
39.9099 17.4781
40.0999 17.2989
40.2899 17.0743
40.48 16.8635
40.6703 16.6098
40.8607 16.428
41.0512 16.1784
41.242 15.9631
41.4327 15.7552
41.6236 15.5726
41.8146 15.3636
42.0057 15.1185
42.1969 14.9457
42.3882 14.7583
42.5797 14.5906
42.7713 14.3422
42.963 14.152
43.1549 13.9768
43.3468 13.7536
43.5389 13.6093
43.7312 13.358
43.9237 13.2166
44.1162 12.9972
44.3088 12.8194
44.5016 12.7093
44.6945 12.4765
44.8875 12.3185
45.0806 12.1666
45.2739 11.9854
45.4673 11.7832
45.6609 11.665
45.8546 11.5032
46.0484 11.3436
46.2424 11.2341
46.4365 11.0304
46.631 10.8692
46.8254 10.6467
47.0199 10.5355
47.2146 10.3736
47.4095 10.227
47.6044 10.0255
47.7996 9.93035
47.9948 9.75448
48.1902 9.63946
48.3858 9.47053
48.5815 9.37615
48.7774 9.25628
48.9734 9.08743
49.1696 8.91969
49.3661 8.79546
49.5626 8.66871
49.7592 8.55402
49.956 8.42181
50.153 8.29132
50.3501 8.15061
50.5474 8.02352
50.7448 7.93042
50.9424 7.79632
51.1402 7.66442
51.3381 7.52299
51.5362 7.42208
51.7344 7.30021
51.9328 7.19592
52.1316 7.04744
52.3304 6.95691
52.5293 6.85832
52.7284 6.74575
52.9276 6.63571
53.1271 6.53214
53.3267 6.41325
53.5265 6.26139
53.7264 6.17892
53.9266 6.06467
54.1269 5.97818
54.3274 5.83627
54.528 5.74885
54.7289 5.55444
54.9301 5.38904
55.1314 5.28983
55.3328 5.06732
55.5344 4.87103
55.7361 4.74231