File: XRD/Ni3Fe_FD0053.xy
TT I
1.27165 33.2575
1.45013 26.6115
1.62863 23.3058
1.80712 21.1901
1.98562 21.2681
2.16411 20.9086
2.34263 21.6868
2.52115 22.3487
2.69965 25.9181
2.87818 37.1808
3.05672 63.8761
3.23527 66.7988
3.4138 34.425
3.59237 27.2808
3.77094 26.0179
3.9495 27.2217
4.12809 29.2241
4.30669 37.5476
4.4853 37.6022
4.6639 42.8153
4.84253 55.0922
5.02118 104.873
5.19981 314.241
5.37848 3114.72
5.55716 150.598
5.73586 103.022
5.91455 118.684
6.09328 573.8
6.27201 218.419
6.45075 64.3911
6.62952 47.3688
6.8083 42.1209
6.98711 40.743
7.16591 43.2542
7.34475 39.4691
7.5236 59.5178
7.70247 43.6698
7.88135 38.7661
8.06026 40.7866
8.23919 46.6901
8.41812 59.2744
8.59709 186.788
8.77609 364.698
8.9551 74.44
9.13412 65.2324
9.31318 325.63
9.49226 58.8277
9.67134 57.4987
9.85047 63.809
10.0296 120.385
10.2088 690.635
10.388 99.6616
10.5672 98.8853
10.7465 196.602
10.9257 52.0401
11.105 45.1497
11.2844 42.8361
11.4637 40.2672
11.6431 39.5016
11.8225 39.8308
12.002 115.467
12.1814 50.5407
12.3609 85.4094
12.5405 42.278
12.72 40.0252
12.8996 41.7149
13.0792 48.2969
13.2589 68.9013
13.4386 189.132
13.6183 80.5896
13.7981 183.362
13.9779 54.6775
14.1577 65.1715
14.3376 47.0696
14.5175 42.0632
14.6974 41.7069
14.8774 49.1562
15.0574 77.9696
15.2374 60.2278
15.4175 42.0553
15.5976 40.9508
15.7778 45.8451
15.958 64.8422
16.1382 79.2114
16.3185 38.5301
16.4988 35.2491
16.6792 34.0915
16.8596 34.0831
17.04 42.0467
17.2205 35.7934
17.401 41.2588
17.5815 39.4586
17.7622 38.4021
17.9428 41.3231
18.1237 45.9917
18.3044 81.2666
18.4852 56.2128
18.666 48.5309
18.8469 37.4127
19.0278 35.6565
19.2088 35.95
19.3898 47.3444
19.5709 44.411
19.752 34.5651
19.9332 33.587
20.1144 34.2917
20.2957 42.59
20.477 39.4254
20.6586 33.451
20.84 35.0843
21.0215 30.5932
21.203 30.2989
21.3846 31.3428
21.5662 31.5634
21.7479 31.1287
21.9297 32.3423
22.1115 40.9468
22.2933 37.4433
22.4753 31.7344
22.6572 30.7401
22.8393 32.214
23.0214 31.8855
23.2037 37.1158
23.3859 31.84
23.5682 33.4177
23.7505 35.8828
23.9329 31.6552
24.1154 29.5065
24.2979 28.0546
24.4805 27.3115
24.6631 27.89
24.8458 27.5677
25.0286 26.9346
25.2114 27.1712
25.3943 28.6615
25.5773 29.1276
25.7605 26.524
25.9436 26.7857
26.1268 25.8691
26.31 26.9176
26.4933 26.1838
26.6767 25.966
26.8601 27.5025
27.0437 27.5444
27.2272 25.5103
27.4109 24.9607
27.5946 25.0303
27.7784 25.0787
27.9623 24.5727
28.1462 25.2375
28.3304 25.685
28.5145 24.5975
28.6987 23.7043
28.8829 23.0694
29.0673 22.7195
29.2517 22.6466
29.4361 22.1189
29.6207 22.1084
29.8053 21.7186
29.99 21.3897
30.1748 21.5454
30.3597 21.166
30.5447 21.0639
30.7297 20.9362
30.915 21.1743
31.1002 21.1216
31.2855 20.5742
31.4708 20.3158
31.6563 20.2866
31.8418 20.1933
32.0275 19.9133
32.2132 19.8626
32.399 19.5275
32.5848 19.0493
32.7708 18.7755
32.9569 18.7212
33.143 18.5137
33.3293 18.2223
33.5158 18.2422
33.7022 17.9085
33.8887 17.7199
34.0753 17.3997
34.262 17.1967
34.4488 16.969
34.6357 16.7946
34.8227 16.5786
35.0098 16.3572
35.1969 16.1549
35.3842 16.0235
35.5716 15.9148
35.759 15.9501
35.9468 15.707
36.1345 15.4716
36.3222 15.3492
36.5101 15.1805
36.6981 14.9397
36.8861 14.7813
37.0743 14.6296
37.2626 14.3742
37.451 14.172
37.6395 14.1154
37.8281 13.8603
38.0168 13.7376
38.2056 13.5371
38.3945 13.3907
38.5837 13.2341
38.7728 13.066
38.9621 12.8447
39.1514 12.7637
39.3409 12.577
39.5304 12.4257
39.7201 12.3191
39.9099 12.1261
40.0999 12.0828
40.2899 11.8851
40.48 11.6831
40.6703 11.607
40.8607 11.4979
41.0512 11.358
41.242 11.1735
41.4327 11.0012
41.6236 10.9323
41.8146 10.7651
42.0057 10.6201
42.1969 10.5379
42.3882 10.4045
42.5797 10.189
42.7713 10.0886
42.963 9.98712
43.1549 9.84793
43.3468 9.67163
43.5389 9.56349
43.7312 9.47628
43.9237 9.32061
44.1162 9.17212
44.3088 9.06957
44.5016 8.94
44.6945 8.8538
44.8875 8.71913
45.0806 8.58548
45.2739 8.51036
45.4673 8.37585
45.6609 8.26708
45.8546 8.13948
46.0484 8.04132
46.2424 7.92878
46.4365 7.81323
46.631 7.6876
46.8254 7.61132
47.0199 7.4953
47.2146 7.41172
47.4095 7.28998
47.6044 7.14995
47.7996 7.06782
47.9948 6.98372
48.1902 6.86294
48.3858 6.76277
48.5815 6.71152
48.7774 6.60689
48.9734 6.48276
49.1696 6.37638
49.3661 6.28558
49.5626 6.1979
49.7592 6.09822
49.956 6.03467
50.153 5.9693
50.3501 5.88462
50.5474 5.79356
50.7448 5.72222
50.9424 5.63034
51.1402 5.53556
51.3381 5.46282
51.5362 5.37484
51.7344 5.28211
51.9328 5.20975
52.1316 5.09571
52.3304 5.06331
52.5293 4.94752
52.7284 4.89136
52.9276 4.79162
53.1271 4.74704
53.3267 4.65921
53.5265 4.58888
53.7264 4.52003
53.9266 4.4223
54.1269 4.33321
54.3274 4.19822
54.528 4.12614
54.7289 3.97406
54.9301 3.85817
55.1314 3.72958
55.3328 3.6071
55.5344 3.42223
55.7361 3.35702