File: XRD/Ni3Fe_FD0477.xy
TT I
1.27165 7.299
1.45013 6.2282
1.62863 5.53523
1.80712 5.02742
1.98562 4.98147
2.16411 4.84752
2.34263 5.19805
2.52115 5.67812
2.69965 7.80764
2.87818 8.72747
3.05672 11.2572
3.23527 14.9837
3.4138 18.9573
3.59237 23.1885
3.77094 26.3393
3.9495 29.8436
4.12809 34.4407
4.30669 113.319
4.4853 55.5566
4.6639 56.7257
4.84253 69.4897
5.02118 90.0987
5.19981 541.727
5.37848 205.718
5.55716 105.211
5.73586 95.2618
5.91455 99.2618
6.09328 4270.49
6.27201 83.6595
6.45075 69.4268
6.62952 63.2679
6.8083 59.6716
6.98711 56.2084
7.16591 56.4736
7.34475 70.0733
7.5236 54.8763
7.70247 57.3612
7.88135 58.4908
8.06026 63.4842
8.23919 70.8223
8.41812 86.6887
8.59709 1251.12
8.77609 101.413
8.9551 90.3347
9.13412 84.0625
9.31318 85.5111
9.49226 86.0998
9.67134 96.1739
9.85047 102.845
10.0296 414.098
10.2088 398.07
10.388 108.679
10.5672 500.846
10.7465 88.2415
10.9257 79.1696
11.105 72.7627
11.2844 69.6882
11.4637 65.8393
11.6431 64.6084
11.8225 63.8063
12.002 65.8325
12.1814 156.466
12.3609 68.4469
12.5405 65.666
12.72 69.4038
12.8996 72.5072
13.0792 82.3049
13.2589 252.755
13.4386 124.805
13.6183 255.182
13.7981 97.3397
13.9779 76.9754
14.1577 73.281
14.3376 71.5772
14.5175 70.2504
14.6974 71.9471
14.8774 118.833
15.0574 147.343
15.2374 70.8671
15.4175 67.6694
15.5976 67.2191
15.7778 101.558
15.958 153.797
16.1382 62.5272
16.3185 58.8469
16.4988 56.4972
16.6792 55.3303
16.8596 55.8378
17.04 57.2035
17.2205 68.8757
17.401 71.4508
17.5815 60.2185
17.7622 62.6034
17.9428 77.4532
18.1237 139.921
18.3044 92.2192
18.4852 77.9762
18.666 61.3185
18.8469 59.0458
19.0278 57.7544
19.2088 60.7479
19.3898 76.4306
19.5709 55.0907
19.752 54.3617
19.9332 57.7679
20.1144 70.3887
20.2957 64.2637
20.477 54.0374
20.6586 50.5566
20.84 49.6055
21.0215 49.6453
21.203 51.5581
21.3846 49.6786
21.5662 49.9243
21.7479 54.1359
21.9297 65.3327
22.1115 56.5483
22.2933 50.572
22.4753 49.2743
22.6572 49.8626
22.8393 53.0563
23.0214 57.9127
23.2037 49.5784
23.3859 51.0751
23.5682 57.4903
23.7505 48.7689
23.9329 45.9765
24.1154 44.9648
24.2979 44.0826
24.4805 43.5009
24.6631 43.4376
24.8458 42.9198
25.0286 43.7047
25.2114 45.309
25.3943 45.3278
25.5773 41.5889
25.7605 41.1169
25.9436 41.5367
26.1268 42.2896
26.31 40.697
26.4933 41.4782
26.6767 42.7868
26.8601 40.9324
27.0437 39.5478
27.2272 39.0978
27.4109 39.0314
27.5946 38.98
27.7784 38.5433
27.9623 38.882
28.1462 39.3201
28.3304 37.6864
28.5145 36.5542
28.6987 36.1483
28.8829 35.9569
29.0673 35.167
29.2517 34.9493
29.4361 34.7146
29.6207 33.7408
29.8053 33.3679
29.99 33.0644
30.1748 32.847
30.3597 32.8459
30.5447 32.5783
30.7297 32.6662
30.915 32.1156
31.1002 31.5883
31.2855 31.3614
31.4708 31.2701
31.6563 30.801
31.8418 30.6137
32.0275 30.3987
32.2132 29.7805
32.399 29.3789
32.5848 28.9224
32.7708 28.5654
32.9569 28.5084
33.143 28.2132
33.3293 27.7838
33.5158 27.3612
33.7022 27.0721
33.8887 26.7427
34.0753 26.4159
34.262 26.055
34.4488 25.6486
34.6357 25.3354
34.8227 25.0631
35.0098 24.8764
35.1969 24.5357
35.3842 24.3518
35.5716 24.0322
35.759 23.8171
35.9468 23.4236
36.1345 23.1738
36.3222 23.0138
36.5101 22.8357
36.6981 22.4167
36.8861 22.1062
37.0743 21.8387
37.2626 21.6117
37.451 21.2726
37.6395 21.0949
37.8281 20.8025
38.0168 20.5489
38.2056 20.2548
38.3945 19.9579
38.5837 19.6442
38.7728 19.4411
38.9621 19.2406
39.1514 18.9356
39.3409 18.7406
39.5304 18.5094
39.7201 18.3176
39.9099 18.1272
40.0999 17.8285
40.2899 17.5654
40.48 17.3323
40.6703 17.1421
40.8607 16.9925
41.0512 16.7481
41.242 16.4886
41.4327 16.2976
41.6236 16.0388
41.8146 15.8718
42.0057 15.6408
42.1969 15.4067
42.3882 15.2683
42.5797 14.9719
42.7713 14.8319
42.963 14.6392
43.1549 14.4495
43.3468 14.2006
43.5389 14.0096
43.7312 13.8666
43.9237 13.6731
44.1162 13.4434
44.3088 13.2445
44.5016 13.061
44.6945 12.8888
44.8875 12.7271
45.0806 12.5709
45.2739 12.3734
45.4673 12.2161
45.6609 11.9984
45.8546 11.8665
46.0484 11.6689
46.2424 11.5409
46.4365 11.3442
46.631 11.1773
46.8254 11.001
47.0199 10.8751
47.2146 10.697
47.4095 10.5356
47.6044 10.3857
47.7996 10.2093
47.9948 10.0569
48.1902 9.93272
48.3858 9.77105
48.5815 9.6639
48.7774 9.4971
48.9734 9.41916
49.1696 9.2188
49.3661 9.09369
49.5626 8.93959
49.7592 8.81656
49.956 8.69188
50.153 8.55222
50.3501 8.40354
50.5474 8.29501
50.7448 8.16233
50.9424 8.0541
51.1402 7.93414
51.3381 7.81871
51.5362 7.65233
51.7344 7.51899
51.9328 7.37014
52.1316 7.27306
52.3304 7.18755
52.5293 7.02478
52.7284 6.93536
52.9276 6.80135
53.1271 6.72376
53.3267 6.57722
53.5265 6.46672
53.7264 6.35616
53.9266 6.27286
54.1269 6.12749
54.3274 5.99632
54.528 5.91429
54.7289 5.74769
54.9301 5.53701
55.1314 5.42414
55.3328 5.19205
55.5344 5.02996
55.7361 4.88427