File: XRD/Ni3Fe_FD0106.xy
TT I
1.27165 8.17298
1.45013 7.07216
1.62863 6.25375
1.80712 5.31328
1.98562 5.13027
2.16411 4.7831
2.34263 3.89837
2.52115 4.52047
2.69965 4.69085
2.87818 7.63666
3.05672 10.3491
3.23527 15.0398
3.4138 18.4072
3.59237 21.1431
3.77094 24.6607
3.9495 28.0225
4.12809 32.2045
4.30669 36.9536
4.4853 44.2373
4.6639 52.7788
4.84253 65.2618
5.02118 91.8425
5.19981 638.918
5.37848 627.049
5.55716 110.385
5.73586 96.8679
5.91455 109.694
6.09328 2287.18
6.27201 93.8106
6.45075 66.3939
6.62952 59.5686
6.8083 55.0719
6.98711 52.8292
7.16591 51.7403
7.34475 51.5343
7.5236 57.4687
7.70247 53.1018
7.88135 55.5138
8.06026 59.744
8.23919 67.0208
8.41812 83.9039
8.59709 783.095
8.77609 125.957
8.9551 84.713
9.13412 80.9328
9.31318 91.7631
9.49226 82.4733
9.67134 87.4058
9.85047 98.1255
10.0296 580.829
10.2088 1151.39
10.388 104.598
10.5672 277.04
10.7465 93.3317
10.9257 74.7368
11.105 69.1246
11.2844 65.0495
11.4637 62.6586
11.6431 61.1801
11.8225 60.2799
12.002 67.7563
12.1814 106.623
12.3609 79.6066
12.5405 62.3586
12.72 64.3022
12.8996 68.698
13.0792 78.5103
13.2589 188.605
13.4386 241.302
13.6183 173.045
13.7981 174.838
13.9779 74.9647
14.1577 75.5953
14.3376 68.0115
14.5175 67.527
14.6974 68.7631
14.8774 120.037
15.0574 206.856
15.2374 68.6046
15.4175 65.0638
15.5976 64.8957
15.7778 107.488
15.958 177.707
16.1382 62.0533
16.3185 56.5615
16.4988 54.0395
16.6792 53.2419
16.8596 53.412
17.04 54.4887
17.2205 63.3798
17.401 81.2642
17.5815 58.1378
17.7622 60.3851
17.9428 84.4212
18.1237 103.403
18.3044 87.4013
18.4852 98.3417
18.666 60.1626
18.8469 57.4626
19.0278 55.9408
19.2088 61.4798
19.3898 65.5734
19.5709 56.7028
19.752 52.5574
19.9332 57.7957
20.1144 64.3848
20.2957 59.6519
20.477 60.2648
20.6586 49.1707
20.84 48.3912
21.0215 48.3495
21.203 48.5534
21.3846 50.1827
21.5662 48.1991
21.7479 53.3695
21.9297 59.1573
22.1115 55.869
22.2933 52.6904
22.4753 48.2748
22.6572 48.3585
22.8393 51.0916
23.0214 55.1031
23.2037 49.6684
23.3859 51.4907
23.5682 51.4969
23.7505 54.195
23.9329 44.932
24.1154 43.794
24.2979 43.078
24.4805 42.3592
24.6631 42.6354
24.8458 41.8569
25.0286 42.3353
25.2114 43.6186
25.3943 43.7782
25.5773 41.4477
25.7605 40.1749
25.9436 40.4618
26.1268 40.7276
26.31 40.5793
26.4933 40.1935
26.6767 41.1675
26.8601 40.9124
27.0437 39.0834
27.2272 38.3217
27.4109 38.1277
27.5946 38.1746
27.7784 38.0159
27.9623 37.8647
28.1462 38.6649
28.3304 37.5607
28.5145 35.8158
28.6987 35.4231
28.8829 34.9477
29.0673 34.7043
29.2517 34.0053
29.4361 33.6402
29.6207 33.2011
29.8053 32.5415
29.99 32.4063
30.1748 32.0714
30.3597 32.1192
30.5447 31.8848
30.7297 31.7175
30.915 31.6307
31.1002 30.9876
31.2855 30.6324
31.4708 30.4191
31.6563 30.4979
31.8418 29.926
32.0275 29.7432
32.2132 29.3382
32.399 28.71
32.5848 28.3381
32.7708 27.9505
32.9569 27.7663
33.143 27.5374
33.3293 27.213
33.5158 26.9639
33.7022 26.4543
33.8887 26.1161
34.0753 25.7691
34.262 25.4129
34.4488 25.0886
34.6357 24.7415
34.8227 24.4382
35.0098 24.2546
35.1969 23.9684
35.3842 23.7409
35.5716 23.5923
35.759 23.3458
35.9468 22.9303
36.1345 22.6478
36.3222 22.467
36.5101 22.3252
36.6981 21.9961
36.8861 21.7398
37.0743 21.3256
37.2626 21.0376
37.451 20.8212
37.6395 20.6427
37.8281 20.3296
38.0168 20.0482
38.2056 19.808
38.3945 19.5009
38.5837 19.2711
38.7728 19.0664
38.9621 18.8
39.1514 18.5313
39.3409 18.2802
39.5304 18.0954
39.7201 17.985
39.9099 17.6424
40.0999 17.4773
40.2899 17.2055
40.48 16.9851
40.6703 16.8011
40.8607 16.5916
41.0512 16.3792
41.242 16.1686
41.4327 15.9641
41.6236 15.712
41.8146 15.5134
42.0057 15.3358
42.1969 15.0516
42.3882 14.9416
42.5797 14.6726
42.7713 14.481
42.963 14.2974
43.1549 14.1306
43.3468 13.9069
43.5389 13.7462
43.7312 13.553
43.9237 13.3323
44.1162 13.1946
44.3088 12.9774
44.5016 12.766
44.6945 12.6079
44.8875 12.4298
45.0806 12.2584
45.2739 12.0897
45.4673 11.9243
45.6609 11.7074
45.8546 11.5894
46.0484 11.4622
46.2424 11.2732
46.4365 11.1217
46.631 10.9388
46.8254 10.7305
47.0199 10.6117
47.2146 10.4409
47.4095 10.3418
47.6044 10.1588
47.7996 9.99934
47.9948 9.85028
48.1902 9.69352
48.3858 9.55223
48.5815 9.43328
48.7774 9.29905
48.9734 9.19064
49.1696 9.05662
49.3661 8.88529
49.5626 8.74082
49.7592 8.64445
49.956 8.53189
50.153 8.35298
50.3501 8.242
50.5474 8.1269
50.7448 7.99773
50.9424 7.88902
51.1402 7.81793
51.3381 7.59036
51.5362 7.48363
51.7344 7.36992
51.9328 7.25182
52.1316 7.11991
52.3304 7.00223
52.5293 6.88468
52.7284 6.83017
52.9276 6.67378
53.1271 6.56921
53.3267 6.4619
53.5265 6.33656
53.7264 6.25745
53.9266 6.11656
54.1269 6.01886
54.3274 5.86806
54.528 5.75477
54.7289 5.52594
54.9301 5.33142
55.1314 5.21707
55.3328 4.94689
55.5344 4.80009
55.7361 4.69723