File: XRD/Ni3Fe_FD0364.xy
TT I
1.27165 7.77541
1.45013 6.24654
1.62863 4.82076
1.80712 4.96243
1.98562 5.38324
2.16411 4.49391
2.34263 4.6637
2.52115 6.36078
2.69965 6.94928
2.87818 8.07771
3.05672 10.9914
3.23527 14.9993
3.4138 18.8765
3.59237 23.2069
3.77094 26.3711
3.9495 29.5761
4.12809 35.0528
4.30669 111.054
4.4853 55.396
4.6639 56.945
4.84253 69.721
5.02118 91.7445
5.19981 619.065
5.37848 221.004
5.55716 106.704
5.73586 96.4711
5.91455 102.316
6.09328 4050.1
6.27201 85.1537
6.45075 69.6106
6.62952 63.6617
6.8083 59.8011
6.98711 56.9282
7.16591 56.5248
7.34475 70.2434
7.5236 55.8385
7.70247 57.6301
7.88135 59.0659
8.06026 63.9172
8.23919 71.2486
8.41812 87.8162
8.59709 1195.76
8.77609 103.887
8.9551 91.0769
9.13412 84.6738
9.31318 85.7452
9.49226 87.2341
9.67134 96.9849
9.85047 103.877
10.0296 446.821
10.2088 451.271
10.388 110.47
10.5672 483.351
10.7465 89.5664
10.9257 79.6349
11.105 73.0735
11.2844 70.2294
11.4637 66.3906
11.6431 65.4189
11.8225 64.1577
12.002 66.4188
12.1814 151.764
12.3609 69.8077
12.5405 66.169
12.72 69.7196
12.8996 73.2105
13.0792 83.1487
13.2589 248.203
13.4386 132.135
13.6183 245.677
13.7981 102.183
13.9779 78.1547
14.1577 73.9047
14.3376 72.5321
14.5175 71.0361
14.6974 72.6537
14.8774 120.427
15.0574 152.339
15.2374 71.3732
15.4175 68.558
15.5976 68.1196
15.7778 103.776
15.958 161.498
16.1382 63.2889
16.3185 59.5436
16.4988 56.8482
16.6792 55.9751
16.8596 56.328
17.04 57.8325
17.2205 69.1929
17.401 73.0296
17.5815 60.6949
17.7622 63.2529
17.9428 79.2775
18.1237 139.634
18.3044 91.8048
18.4852 78.9942
18.666 62.1182
18.8469 59.596
19.0278 58.4151
19.2088 61.8811
19.3898 76.7776
19.5709 55.7263
19.752 54.6955
19.9332 58.7029
20.1144 71.3764
20.2957 64.3229
20.477 54.9631
20.6586 51.0662
20.84 50.15
21.0215 50.1456
21.203 52.1031
21.3846 50.4119
21.5662 50.3771
21.7479 54.8317
21.9297 66.1355
22.1115 57.0253
22.2933 51.3618
22.4753 50.1386
22.6572 50.5706
22.8393 53.7489
23.0214 58.9458
23.2037 50.2489
23.3859 51.5409
23.5682 57.741
23.7505 49.6333
23.9329 46.6157
24.1154 45.3007
24.2979 44.5231
24.4805 44.1493
24.6631 44.047
24.8458 43.4848
25.0286 44.2031
25.2114 45.8499
25.3943 45.8151
25.5773 42.0877
25.7605 41.7734
25.9436 41.9928
26.1268 42.7971
26.31 41.4121
26.4933 41.8066
26.6767 43.3472
26.8601 41.5923
27.0437 40.0238
27.2272 39.7322
27.4109 39.5916
27.5946 39.5801
27.7784 38.9907
27.9623 39.3899
28.1462 39.6898
28.3304 38.3272
28.5145 37.0664
28.6987 36.69
28.8829 36.3633
29.0673 35.7273
29.2517 35.2264
29.4361 35.0885
29.6207 34.0684
29.8053 33.8094
29.99 33.4868
30.1748 33.3794
30.3597 33.064
30.5447 33.1379
30.7297 32.9992
30.915 32.4845
31.1002 31.965
31.2855 31.669
31.4708 31.6196
31.6563 31.1108
31.8418 30.9635
32.0275 30.6082
32.2132 30.2142
32.399 29.7658
32.5848 29.3096
32.7708 28.9769
32.9569 28.6997
33.143 28.4831
33.3293 28.0883
33.5158 27.7375
33.7022 27.3735
33.8887 27.0922
34.0753 26.7379
34.262 26.3268
34.4488 25.9916
34.6357 25.6179
34.8227 25.3491
35.0098 25.1917
35.1969 24.8659
35.3842 24.6304
35.5716 24.3935
35.759 24.114
35.9468 23.7607
36.1345 23.5246
36.3222 23.2222
36.5101 22.9621
36.6981 22.73
36.8861 22.3853
37.0743 21.9881
37.2626 21.8408
37.451 21.5136
37.6395 21.3724
37.8281 21.0065
38.0168 20.7747
38.2056 20.4923
38.3945 20.1543
38.5837 20.0064
38.7728 19.7485
38.9621 19.4761
39.1514 19.2681
39.3409 18.9947
39.5304 18.7652
39.7201 18.5706
39.9099 18.3245
40.0999 18.0824
40.2899 17.8212
40.48 17.5107
40.6703 17.3498
40.8607 17.1517
41.0512 16.9085
41.242 16.6153
41.4327 16.5001
41.6236 16.204
41.8146 16.0098
42.0057 15.8308
42.1969 15.5806
42.3882 15.4438
42.5797 15.2359
42.7713 15.0525
42.963 14.8015
43.1549 14.5965
43.3468 14.3325
43.5389 14.2092
43.7312 13.9786
43.9237 13.8144
44.1162 13.6121
44.3088 13.4099
44.5016 13.2544
44.6945 13.0296
44.8875 12.8475
45.0806 12.6837
45.2739 12.5412
45.4673 12.3315
45.6609 12.1114
45.8546 12.0013
46.0484 11.8177
46.2424 11.6654
46.4365 11.4803
46.631 11.322
46.8254 11.1247
47.0199 10.9477
47.2146 10.8093
47.4095 10.6665
47.6044 10.5369
47.7996 10.3294
47.9948 10.1725
48.1902 10.0294
48.3858 9.93673
48.5815 9.76337
48.7774 9.63125
48.9734 9.4636
49.1696 9.30984
49.3661 9.19326
49.5626 9.03031
49.7592 8.90136
49.956 8.78794
50.153 8.65879
50.3501 8.51391
50.5474 8.38519
50.7448 8.23324
50.9424 8.15001
51.1402 8.02016
51.3381 7.83423
51.5362 7.71772
51.7344 7.60529
51.9328 7.46329
52.1316 7.33385
52.3304 7.22766
52.5293 7.12787
52.7284 6.98657
52.9276 6.87735
53.1271 6.76554
53.3267 6.66079
53.5265 6.51783
53.7264 6.43061
53.9266 6.29378
54.1269 6.21529
54.3274 6.03773
54.528 5.9013
54.7289 5.69625
54.9301 5.60854
55.1314 5.471
55.3328 5.28174
55.5344 5.13406
55.7361 4.90175