File: XRD/Ni3Fe_FD0955.xy
TT I
1.27165 7.32978
1.45013 6.00306
1.62863 5.08777
1.80712 4.81739
1.98562 4.91731
2.16411 5.27057
2.34263 5.56473
2.52115 7.34569
2.69965 8.6018
2.87818 8.94495
3.05672 11.2355
3.23527 15.386
3.4138 18.6774
3.59237 23.289
3.77094 26.1106
3.9495 29.2964
4.12809 33.9028
4.30669 160.499
4.4853 58.8653
4.6639 54.3321
4.84253 66.3988
5.02118 84.7846
5.19981 295.424
5.37848 179.173
5.55716 100.614
5.73586 90.3963
5.91455 91.8081
6.09328 4526.2
6.27201 79.6808
6.45075 66.9152
6.62952 61.8583
6.8083 57.9474
6.98711 54.703
7.16591 54.9021
7.34475 78.914
7.5236 53.4196
7.70247 55.5667
7.88135 56.5873
8.06026 61.7483
8.23919 68.2289
8.41812 82.6934
8.59709 1174.85
8.77609 95.9458
8.9551 89.0173
9.13412 80.9834
9.31318 81.8944
9.49226 83.1661
9.67134 94.9296
9.85047 98.4986
10.0296 314.625
10.2088 367.434
10.388 101.995
10.5672 521.792
10.7465 85.1364
10.9257 76.6295
11.105 70.3504
11.2844 68.0548
11.4637 63.5816
11.6431 62.4368
11.8225 61.2777
12.002 62.1843
12.1814 156.806
12.3609 67.5528
12.5405 63.0112
12.72 67.8598
12.8996 69.3793
13.0792 77.2019
13.2589 239.476
13.4386 119.475
13.6183 253.211
13.7981 95.2152
13.9779 74.389
14.1577 70.8117
14.3376 69.7153
14.5175 67.721
14.6974 68.8165
14.8774 108.006
15.0574 145.162
15.2374 69.1266
15.4175 65.0313
15.5976 64.2525
15.7778 92.7806
15.958 150.388
16.1382 61.0326
16.3185 57.297
16.4988 54.2074
16.6792 53.354
16.8596 54.1396
17.04 54.6667
17.2205 65.5604
17.401 69.0558
17.5815 57.993
17.7622 59.9561
17.9428 71.5319
18.1237 137.375
18.3044 90.5049
18.4852 75.0091
18.666 59.3214
18.8469 56.8973
19.0278 55.8034
19.2088 58.2669
19.3898 74.4093
19.5709 53.2139
19.752 52.2103
19.9332 55.032
20.1144 68.758
20.2957 63.7232
20.477 52.6214
20.6586 48.8998
20.84 47.9255
21.0215 47.803
21.203 50.1315
21.3846 48.1664
21.5662 47.8939
21.7479 51.588
21.9297 63.5669
22.1115 55.2318
22.2933 49.163
22.4753 47.9526
22.6572 47.7429
22.8393 51.1624
23.0214 56.2233
23.2037 47.9875
23.3859 48.8273
23.5682 56.5192
23.7505 47.448
23.9329 44.4165
24.1154 43.3704
24.2979 42.7123
24.4805 42.3073
24.6631 42.0291
24.8458 41.5627
25.0286 42.0226
25.2114 43.821
25.3943 43.6632
25.5773 40.178
25.7605 39.5111
25.9436 40.131
26.1268 41.0532
26.31 39.3327
26.4933 39.9702
26.6767 41.4637
26.8601 39.7801
27.0437 38.3779
27.2272 37.9194
27.4109 37.6933
27.5946 37.8119
27.7784 37.1192
27.9623 37.8877
28.1462 38.0883
28.3304 36.498
28.5145 35.3861
28.6987 35.0264
28.8829 34.8263
29.0673 34.1258
29.2517 33.7275
29.4361 33.6151
29.6207 32.6265
29.8053 32.2803
29.99 32.0333
30.1748 31.9293
30.3597 31.7917
30.5447 31.6061
30.7297 31.7432
30.915 31.1087
31.1002 30.5696
31.2855 30.4367
31.4708 30.3485
31.6563 29.8711
31.8418 29.6586
32.0275 29.4044
32.2132 28.8443
32.399 28.4667
32.5848 28.0087
32.7708 27.7391
32.9569 27.4698
33.143 27.3829
33.3293 26.9654
33.5158 26.6609
33.7022 26.1081
33.8887 25.9198
34.0753 25.5043
34.262 25.2325
34.4488 24.8843
34.6357 24.568
34.8227 24.3908
35.0098 24.0733
35.1969 23.7638
35.3842 23.6305
35.5716 23.375
35.759 23.0876
35.9468 22.6564
36.1345 22.5481
36.3222 22.3115
36.5101 21.9917
36.6981 21.755
36.8861 21.5248
37.0743 21.125
37.2626 20.9114
37.451 20.6543
37.6395 20.4312
37.8281 20.0806
38.0168 19.8336
38.2056 19.6623
38.3945 19.3949
38.5837 19.1247
38.7728 18.8921
38.9621 18.6848
39.1514 18.3875
39.3409 18.1549
39.5304 17.8913
39.7201 17.7701
39.9099 17.5942
40.0999 17.3079
40.2899 17.0385
40.48 16.8095
40.6703 16.6237
40.8607 16.4854
41.0512 16.2245
41.242 15.9673
41.4327 15.8033
41.6236 15.5808
41.8146 15.3845
42.0057 15.1253
42.1969 15.0189
42.3882 14.773
42.5797 14.5884
42.7713 14.413
42.963 14.1717
43.1549 13.99
43.3468 13.7861
43.5389 13.6167
43.7312 13.4074
43.9237 13.2369
44.1162 13.0533
44.3088 12.8215
44.5016 12.6183
44.6945 12.5018
44.8875 12.3248
45.0806 12.1507
45.2739 12.0213
45.4673 11.9059
45.6609 11.6197
45.8546 11.5069
46.0484 11.3343
46.2424 11.1576
46.4365 11.0416
46.631 10.8504
46.8254 10.6931
47.0199 10.5555
47.2146 10.4274
47.4095 10.204
47.6044 10.0667
47.7996 9.95262
47.9948 9.77335
48.1902 9.64919
48.3858 9.51671
48.5815 9.39061
48.7774 9.25969
48.9734 9.09279
49.1696 8.93695
49.3661 8.82196
49.5626 8.65408
49.7592 8.5569
49.956 8.42218
50.153 8.32196
50.3501 8.15029
50.5474 8.07937
50.7448 7.91825
50.9424 7.81319
51.1402 7.65002
51.3381 7.54628
51.5362 7.47832
51.7344 7.31482
51.9328 7.18181
52.1316 7.09533
52.3304 6.9854
52.5293 6.86657
52.7284 6.75751
52.9276 6.58739
53.1271 6.53162
53.3267 6.39733
53.5265 6.27713
53.7264 6.20017
53.9266 6.08191
54.1269 5.95772
54.3274 5.83114
54.528 5.70255
54.7289 5.50459
54.9301 5.39577
55.1314 5.26887
55.3328 5.10519
55.5344 4.87995
55.7361 4.70484