File: XRD/Ni3Fe_FD0184.xy
TT I
1.27165 8.11029
1.45013 6.76461
1.62863 5.69153
1.80712 4.96074
1.98562 5.33297
2.16411 4.21192
2.34263 4.94233
2.52115 4.33997
2.69965 6.51718
2.87818 7.92878
3.05672 11.5454
3.23527 15.2528
3.4138 18.7375
3.59237 21.917
3.77094 25.0073
3.9495 28.7662
4.12809 32.602
4.30669 38.2326
4.4853 45.3605
4.6639 54.1955
4.84253 66.6929
5.02118 90.5191
5.19981 513.704
5.37848 415.078
5.55716 107.562
5.73586 95.5476
5.91455 104.612
6.09328 2901.0
6.27201 88.5802
6.45075 66.8478
6.62952 60.5894
6.8083 56.2263
6.98711 53.7762
7.16591 52.8183
7.34475 52.5749
7.5236 55.9729
7.70247 54.4551
7.88135 56.5442
8.06026 61.1387
8.23919 68.3064
8.41812 83.8141
8.59709 926.411
8.77609 114.5
8.9551 85.7096
9.13412 81.9897
9.31318 85.9963
9.49226 84.1708
9.67134 89.4567
9.85047 99.4461
10.0296 532.387
10.2088 938.791
10.388 104.966
10.5672 347.087
10.7465 90.4651
10.9257 76.2163
11.105 70.6527
11.2844 66.5063
11.4637 63.8933
11.6431 62.5839
11.8225 61.7749
12.002 65.2153
12.1814 121.917
12.3609 74.4068
12.5405 63.8602
12.72 65.9202
12.8996 70.4071
13.0792 79.6492
13.2589 210.968
13.4386 202.362
13.6183 200.669
13.7981 149.335
13.9779 76.6747
14.1577 74.1092
14.3376 69.3709
14.5175 68.7573
14.6974 70.2731
14.8774 121.91
15.0574 205.595
15.2374 69.566
15.4175 66.543
15.5976 66.1575
15.7778 107.597
15.958 188.101
16.1382 62.1529
16.3185 57.8501
16.4988 55.6916
16.6792 54.5395
16.8596 54.7537
17.04 55.8455
17.2205 66.1547
17.401 82.0491
17.5815 59.5111
17.7622 61.9141
17.9428 83.7383
18.1237 119.337
18.3044 89.4574
18.4852 94.9394
18.666 61.5147
18.8469 58.7327
19.0278 57.328
19.2088 62.1094
19.3898 70.5278
19.5709 56.5228
19.752 53.9592
19.9332 58.6813
20.1144 68.2722
20.2957 61.9987
20.477 59.0352
20.6586 50.2936
20.84 49.6015
21.0215 49.5555
21.203 50.317
21.3846 50.9065
21.5662 49.6353
21.7479 54.6883
21.9297 63.43
22.1115 56.8184
22.2933 52.784
22.4753 49.3199
22.6572 49.7699
22.8393 52.7351
23.0214 58.3206
23.2037 50.286
23.3859 52.2773
23.5682 54.7978
23.7505 53.5491
23.9329 46.0901
24.1154 44.8177
24.2979 44.078
24.4805 43.3926
24.6631 43.6629
24.8458 42.8995
25.0286 43.4492
25.2114 45.316
25.3943 45.4924
25.5773 42.2086
25.7605 41.2496
25.9436 41.384
26.1268 42.1693
26.31 41.3022
26.4933 41.5633
26.6767 42.6975
26.8601 41.7827
27.0437 39.8576
27.2272 39.3396
27.4109 39.1597
27.5946 39.243
27.7784 38.9484
27.9623 39.0261
28.1462 40.0291
28.3304 38.4894
28.5145 36.6151
28.6987 36.3721
28.8829 35.9199
29.0673 35.4901
29.2517 34.9143
29.4361 34.8029
29.6207 33.8014
29.8053 33.4288
29.99 33.2306
30.1748 32.9351
30.3597 33.0691
30.5447 32.7658
30.7297 32.7226
30.915 32.4863
31.1002 31.8871
31.2855 31.467
31.4708 31.3762
31.6563 31.2416
31.8418 30.7725
32.0275 30.5907
32.2132 30.1086
32.399 29.5241
32.5848 29.0668
32.7708 28.6727
32.9569 28.6484
33.143 28.2189
33.3293 28.0111
33.5158 27.6377
33.7022 27.1904
33.8887 26.783
34.0753 26.5664
34.262 26.1188
34.4488 25.7782
34.6357 25.5059
34.8227 25.1924
35.0098 24.9943
35.1969 24.6695
35.3842 24.458
35.5716 24.2858
35.759 23.9755
35.9468 23.5589
36.1345 23.3421
36.3222 23.0885
36.5101 22.8795
36.6981 22.5039
36.8861 22.2959
37.0743 21.8896
37.2626 21.6136
37.451 21.3612
37.6395 21.1916
37.8281 20.9192
38.0168 20.6135
38.2056 20.3178
38.3945 20.037
38.5837 19.8295
38.7728 19.5945
38.9621 19.3584
39.1514 18.9858
39.3409 18.8285
39.5304 18.5807
39.7201 18.4028
39.9099 18.1727
40.0999 17.9494
40.2899 17.681
40.48 17.4814
40.6703 17.2182
40.8607 17.0805
41.0512 16.8236
41.242 16.5831
41.4327 16.4449
41.6236 16.1179
41.8146 15.9439
42.0057 15.7642
42.1969 15.4905
42.3882 15.2954
42.5797 15.1088
42.7713 14.8891
42.963 14.6844
43.1549 14.5301
43.3468 14.2728
43.5389 14.0766
43.7312 13.9003
43.9237 13.7553
44.1162 13.5295
44.3088 13.3141
44.5016 13.1295
44.6945 12.9619
44.8875 12.7787
45.0806 12.6016
45.2739 12.4775
45.4673 12.2683
45.6609 12.0816
45.8546 11.9146
46.0484 11.7023
46.2424 11.5661
46.4365 11.419
46.631 11.228
46.8254 11.091
47.0199 10.9409
47.2146 10.7581
47.4095 10.5885
47.6044 10.397
47.7996 10.3138
47.9948 10.1424
48.1902 9.98476
48.3858 9.82265
48.5815 9.69891
48.7774 9.57114
48.9734 9.45172
49.1696 9.26024
49.3661 9.14061
49.5626 8.96102
49.7592 8.8622
49.956 8.74664
50.153 8.61377
50.3501 8.4618
50.5474 8.30703
50.7448 8.24097
50.9424 8.09275
51.1402 7.96966
51.3381 7.80904
51.5362 7.7095
51.7344 7.5796
51.9328 7.42211
52.1316 7.29222
52.3304 7.21338
52.5293 7.06919
52.7284 6.99562
52.9276 6.83137
53.1271 6.78775
53.3267 6.6254
53.5265 6.47623
53.7264 6.39024
53.9266 6.29962
54.1269 6.14509
54.3274 6.00376
54.528 5.83362
54.7289 5.68077
54.9301 5.52363
55.1314 5.36758
55.3328 5.1438
55.5344 4.94108
55.7361 4.80766