File: XRD/Ni3Fe_FD0261.xy
TT I
1.27165 8.11211
1.45013 6.55917
1.62863 5.48944
1.80712 5.32695
1.98562 5.08791
2.16411 5.10144
2.34263 4.9744
2.52115 5.59326
2.69965 6.6629
2.87818 8.24928
3.05672 11.2088
3.23527 15.0738
3.4138 19.1516
3.59237 23.6829
3.77094 26.396
3.9495 30.4853
4.12809 35.4886
4.30669 137.361
4.4853 58.4638
4.6639 57.9105
4.84253 71.0769
5.02118 94.3465
5.19981 566.912
5.37848 276.503
5.55716 110.144
5.73586 98.9613
5.91455 105.289
6.09328 3681.73
6.27201 90.2488
6.45075 70.4703
6.62952 65.215
6.8083 60.9022
6.98711 57.85
7.16591 57.4447
7.34475 77.6805
7.5236 56.4568
7.70247 58.3931
7.88135 60.0083
8.06026 65.0826
8.23919 72.7495
8.41812 89.4645
8.59709 1114.2
8.77609 110.705
8.9551 94.0214
9.13412 86.2475
9.31318 87.377
9.49226 88.907
9.67134 99.2553
9.85047 105.597
10.0296 463.013
10.2088 595.71
10.388 111.149
10.5672 446.323
10.7465 92.0661
10.9257 81.5873
11.105 74.739
11.2844 72.2602
11.4637 67.5692
11.6431 66.3637
11.8225 65.431
12.002 66.8658
12.1814 143.927
12.3609 73.4814
12.5405 67.4238
12.72 71.4587
12.8996 74.2701
13.0792 83.3022
13.2589 233.605
13.4386 151.537
13.6183 231.842
13.7981 115.525
13.9779 79.842
14.1577 75.5346
14.3376 73.9755
14.5175 72.1305
14.6974 73.8155
14.8774 118.915
15.0574 175.843
15.2374 73.5223
15.4175 69.5715
15.5976 68.895
15.7778 103.308
15.958 174.487
16.1382 65.0829
16.3185 60.6927
16.4988 57.9491
16.6792 57.0897
16.8596 57.5958
17.04 58.2559
17.2205 68.934
17.401 77.8433
17.5815 61.7755
17.7622 63.9765
17.9428 81.3185
18.1237 135.033
18.3044 91.5848
18.4852 85.2927
18.666 63.215
18.8469 60.7278
19.0278 59.3267
19.2088 63.1688
19.3898 76.2572
19.5709 56.954
19.752 55.6973
19.9332 59.2086
20.1144 71.566
20.2957 64.8687
20.477 57.3565
20.6586 51.8677
20.84 51.0126
21.0215 50.9274
21.203 52.5111
21.3846 51.4516
21.5662 51.0034
21.7479 55.2757
21.9297 66.0961
22.1115 57.5696
22.2933 52.6653
22.4753 50.9005
22.6572 51.2626
22.8393 54.1434
23.0214 59.6624
23.2037 51.1023
23.3859 52.4098
23.5682 57.526
23.7505 51.5379
23.9329 47.2153
24.1154 46.0655
24.2979 45.3963
24.4805 44.8074
24.6631 44.7572
24.8458 44.1878
25.0286 44.68
25.2114 46.4843
25.3943 46.568
25.5773 42.7836
25.7605 42.3082
25.9436 42.4864
26.1268 43.31
26.31 41.9503
26.4933 42.4669
26.6767 43.7704
26.8601 42.3054
27.0437 40.6667
27.2272 40.2792
27.4109 39.9238
27.5946 40.0368
27.7784 39.5816
27.9623 39.8939
28.1462 40.4322
28.3304 38.9397
28.5145 37.5016
28.6987 37.2154
28.8829 36.7729
29.0673 36.2359
29.2517 35.8129
29.4361 35.4986
29.6207 34.5965
29.8053 34.3701
29.99 33.9163
30.1748 33.738
30.3597 33.7856
30.5447 33.4438
30.7297 33.5646
30.915 33.0754
31.1002 32.4582
31.2855 32.1788
31.4708 32.0601
31.6563 31.6715
31.8418 31.466
32.0275 31.281
32.2132 30.7206
32.399 30.166
32.5848 29.6803
32.7708 29.423
32.9569 29.2408
33.143 29.0069
33.3293 28.578
33.5158 28.2448
33.7022 27.6552
33.8887 27.4586
34.0753 27.1606
34.262 26.7491
34.4488 26.33
34.6357 26.0407
34.8227 25.7372
35.0098 25.5418
35.1969 25.2305
35.3842 24.9741
35.5716 24.8232
35.759 24.3924
35.9468 24.1229
36.1345 23.8966
36.3222 23.705
36.5101 23.3209
36.6981 23.1448
36.8861 22.7515
37.0743 22.4537
37.2626 22.1638
37.451 21.8893
37.6395 21.714
37.8281 21.3786
38.0168 21.0607
38.2056 20.787
38.3945 20.5803
38.5837 20.2516
38.7728 20.0881
38.9621 19.7798
39.1514 19.4703
39.3409 19.2758
39.5304 19.0493
39.7201 18.8372
39.9099 18.5722
40.0999 18.3704
40.2899 18.1108
40.48 17.8675
40.6703 17.6643
40.8607 17.4281
41.0512 17.2331
41.242 16.9192
41.4327 16.7383
41.6236 16.5001
41.8146 16.2703
42.0057 16.1007
42.1969 15.8552
42.3882 15.6552
42.5797 15.4857
42.7713 15.2741
42.963 15.0693
43.1549 14.8182
43.3468 14.6585
43.5389 14.3913
43.7312 14.1961
43.9237 13.9786
44.1162 13.8373
44.3088 13.651
44.5016 13.4521
44.6945 13.2154
44.8875 13.0778
45.0806 12.8476
45.2739 12.7406
45.4673 12.5683
45.6609 12.3415
45.8546 12.2103
46.0484 12.0348
46.2424 11.8145
46.4365 11.6711
46.631 11.4855
46.8254 11.2929
47.0199 11.1361
47.2146 11.0029
47.4095 10.8235
47.6044 10.6558
47.7996 10.5004
47.9948 10.3793
48.1902 10.2181
48.3858 10.095
48.5815 9.9249
48.7774 9.78572
48.9734 9.64137
49.1696 9.44305
49.3661 9.37247
49.5626 9.16656
49.7592 9.08604
49.956 8.94
50.153 8.77685
50.3501 8.64547
50.5474 8.5303
50.7448 8.4099
50.9424 8.24283
51.1402 8.13785
51.3381 7.98326
51.5362 7.88598
51.7344 7.76405
51.9328 7.63562
52.1316 7.49381
52.3304 7.37554
52.5293 7.20444
52.7284 7.12918
52.9276 7.02062
53.1271 6.9142
53.3267 6.772
53.5265 6.66115
53.7264 6.559
53.9266 6.40521
54.1269 6.30209
54.3274 6.1589
54.528 5.99679
54.7289 5.8328
54.9301 5.6921
55.1314 5.52668
55.3328 5.33103
55.5344 5.16249
55.7361 4.99008