File: XRD/Ni3Fe_FD0892.xy
TT I
1.27165 7.48047
1.45013 5.88386
1.62863 5.64773
1.80712 4.75477
1.98562 5.0543
2.16411 5.05778
2.34263 5.57597
2.52115 7.28027
2.69965 8.9897
2.87818 8.70223
3.05672 11.5173
3.23527 15.2437
3.4138 19.098
3.59237 23.7533
3.77094 26.0059
3.9495 29.6633
4.12809 34.5749
4.30669 208.068
4.4853 63.2877
4.6639 54.5952
4.84253 65.6459
5.02118 84.964
5.19981 293.729
5.37848 170.646
5.55716 99.3175
5.73586 89.8246
5.91455 91.3939
6.09328 4527.54
6.27201 80.3819
6.45075 65.8817
6.62952 61.8571
6.8083 57.6063
6.98711 54.8211
7.16591 54.0799
7.34475 88.4555
7.5236 53.9303
7.70247 55.0554
7.88135 56.5587
8.06026 61.0677
8.23919 68.0595
8.41812 83.2716
8.59709 1169.99
8.77609 96.0808
8.9551 89.5016
9.13412 80.352
9.31318 81.0762
9.49226 83.0639
9.67134 96.1556
9.85047 97.9293
10.0296 308.401
10.2088 351.046
10.388 101.731
10.5672 535.498
10.7465 84.6898
10.9257 76.5645
11.105 70.2935
11.2844 68.7876
11.4637 63.7278
11.6431 62.4622
11.8225 61.3214
12.002 62.1373
12.1814 156.34
12.3609 68.5353
12.5405 63.327
12.72 68.6955
12.8996 69.5762
13.0792 77.2216
13.2589 232.897
13.4386 115.199
13.6183 247.883
13.7981 91.9245
13.9779 74.2999
14.1577 71.0142
14.3376 70.1103
14.5175 67.4784
14.6974 68.8199
14.8774 106.426
15.0574 138.038
15.2374 69.2484
15.4175 65.0093
15.5976 64.3367
15.7778 91.174
15.958 150.718
16.1382 61.3378
16.3185 57.5667
16.4988 54.5899
16.6792 53.4122
16.8596 54.0328
17.04 54.5582
17.2205 64.8825
17.401 68.4356
17.5815 57.9651
17.7622 59.9594
17.9428 71.1205
18.1237 140.983
18.3044 89.5289
18.4852 73.9239
18.666 59.0747
18.8469 56.9997
19.0278 55.7092
19.2088 58.1437
19.3898 76.312
19.5709 53.1214
19.752 52.2543
19.9332 54.9504
20.1144 69.2761
20.2957 63.9464
20.477 52.2498
20.6586 48.8417
20.84 47.9466
21.0215 47.6956
21.203 50.2453
21.3846 47.9148
21.5662 47.7634
21.7479 51.6252
21.9297 64.5068
22.1115 55.4313
22.2933 48.8188
22.4753 47.9178
22.6572 47.9391
22.8393 50.9593
23.0214 56.5018
23.2037 47.8409
23.3859 48.7504
23.5682 57.0498
23.7505 47.1684
23.9329 44.41
24.1154 43.4052
24.2979 42.6252
24.4805 42.1097
24.6631 42.0546
24.8458 41.5081
25.0286 42.0816
25.2114 43.9578
25.3943 43.8393
25.5773 40.1873
25.7605 39.7017
25.9436 40.0777
26.1268 41.0344
26.31 39.2959
26.4933 39.9323
26.6767 41.521
26.8601 39.8584
27.0437 38.2418
27.2272 37.7093
27.4109 37.8051
27.5946 37.7567
27.7784 37.3065
27.9623 37.8212
28.1462 38.1099
28.3304 36.506
28.5145 35.3227
28.6987 34.9635
28.8829 34.8883
29.0673 34.1016
29.2517 33.7533
29.4361 33.5361
29.6207 32.5588
29.8053 32.3213
29.99 32.0793
30.1748 31.9588
30.3597 31.7558
30.5447 31.5953
30.7297 31.6943
30.915 31.0817
31.1002 30.6547
31.2855 30.3623
31.4708 30.3468
31.6563 29.8583
31.8418 29.6542
32.0275 29.4685
32.2132 28.8401
32.399 28.3958
32.5848 27.9841
32.7708 27.6873
32.9569 27.4464
33.143 27.2953
33.3293 26.9649
33.5158 26.529
33.7022 26.209
33.8887 25.9947
34.0753 25.6481
34.262 25.2502
34.4488 24.87
34.6357 24.585
34.8227 24.288
35.0098 24.0931
35.1969 23.7337
35.3842 23.5882
35.5716 23.432
35.759 23.0837
35.9468 22.728
36.1345 22.4627
36.3222 22.3131
36.5101 22.0083
36.6981 21.7143
36.8861 21.4501
37.0743 21.1603
37.2626 20.9492
37.451 20.6479
37.6395 20.5731
37.8281 20.1306
38.0168 19.9003
38.2056 19.6692
38.3945 19.3472
38.5837 19.1506
38.7728 18.8813
38.9621 18.7059
39.1514 18.4104
39.3409 18.1376
39.5304 17.9854
39.7201 17.7145
39.9099 17.5871
40.0999 17.316
40.2899 17.0513
40.48 16.8595
40.6703 16.6451
40.8607 16.4611
41.0512 16.2093
41.242 15.9575
41.4327 15.7912
41.6236 15.5815
41.8146 15.4506
42.0057 15.1582
42.1969 15.0297
42.3882 14.8099
42.5797 14.5664
42.7713 14.4021
42.963 14.1504
43.1549 13.9933
43.3468 13.7848
43.5389 13.6721
43.7312 13.4132
43.9237 13.2616
44.1162 13.0678
44.3088 12.8791
44.5016 12.6316
44.6945 12.5561
44.8875 12.3638
45.0806 12.1605
45.2739 12.0159
45.4673 11.8705
45.6609 11.6552
45.8546 11.5222
46.0484 11.3605
46.2424 11.2265
46.4365 11.0554
46.631 10.8647
46.8254 10.635
47.0199 10.5249
47.2146 10.4093
47.4095 10.2288
47.6044 10.108
47.7996 9.9191
47.9948 9.76097
48.1902 9.64018
48.3858 9.48926
48.5815 9.3877
48.7774 9.25947
48.9734 9.12616
49.1696 8.95734
49.3661 8.82474
49.5626 8.67966
49.7592 8.58886
49.956 8.42217
50.153 8.31819
50.3501 8.18396
50.5474 8.0375
50.7448 7.91723
50.9424 7.83052
51.1402 7.67941
51.3381 7.5367
51.5362 7.42103
51.7344 7.3171
51.9328 7.17875
52.1316 7.06778
52.3304 6.96941
52.5293 6.8327
52.7284 6.70799
52.9276 6.60222
53.1271 6.50666
53.3267 6.40989
53.5265 6.32218
53.7264 6.17048
53.9266 6.06282
54.1269 5.97098
54.3274 5.87482
54.528 5.73661
54.7289 5.54881
54.9301 5.3968
55.1314 5.28111
55.3328 5.04015
55.5344 4.91207
55.7361 4.73434