File: XRD/Ni3Fe_FD1023.xy
TT I
1.27165 6.58256
1.45013 6.26142
1.62863 4.61177
1.80712 4.26239
1.98562 4.16753
2.16411 4.45512
2.34263 5.28949
2.52115 8.13019
2.69965 8.7997
2.87818 9.53365
3.05672 10.9669
3.23527 14.6966
3.4138 18.2297
3.59237 21.1314
3.77094 24.6179
3.9495 27.9274
4.12809 32.4554
4.30669 57.7204
4.4853 46.0279
4.6639 52.5484
4.84253 63.5544
5.02118 82.2585
5.19981 228.726
5.37848 230.213
5.55716 96.5153
5.73586 86.7133
5.91455 87.7117
6.09328 4381.09
6.27201 75.4195
6.45075 63.2647
6.62952 57.6598
6.8083 54.1788
6.98711 51.9171
7.16591 51.1893
7.34475 56.1546
7.5236 61.2893
7.70247 52.702
7.88135 54.4578
8.06026 58.5309
8.23919 65.2842
8.41812 77.1294
8.59709 1066.31
8.77609 94.462
8.9551 81.9857
9.13412 78.8605
9.31318 92.9858
9.49226 80.5259
9.67134 85.8552
9.85047 93.6424
10.0296 327.986
10.2088 449.1
10.388 97.0153
10.5672 493.693
10.7465 87.0457
10.9257 73.125
11.105 67.8091
11.2844 64.2898
11.4637 61.4826
11.6431 60.3396
11.8225 59.1934
12.002 68.3719
12.1814 143.899
12.3609 64.0663
12.5405 60.9848
12.72 63.5726
12.8996 67.4255
13.0792 76.2507
13.2589 221.38
13.4386 125.573
13.6183 231.111
13.7981 99.9156
13.9779 73.1836
14.1577 77.281
14.3376 66.9753
14.5175 65.9534
14.6974 66.6936
14.8774 106.647
15.0574 157.929
15.2374 66.0034
15.4175 63.4497
15.5976 62.6417
15.7778 91.6483
15.958 167.382
16.1382 59.7271
16.3185 55.2365
16.4988 53.0316
16.6792 52.1089
16.8596 52.5964
17.04 53.621
17.2205 63.8101
17.401 70.882
17.5815 56.8278
17.7622 59.8072
17.9428 71.703
18.1237 141.007
18.3044 87.8973
18.4852 78.2731
18.666 58.4464
18.8469 55.7692
19.0278 54.4337
19.2088 57.1167
19.3898 75.7633
19.5709 52.5585
19.752 51.3563
19.9332 54.3174
20.1144 69.618
20.2957 62.7868
20.477 52.6323
20.6586 47.986
20.84 47.4134
21.0215 46.9265
21.203 49.0169
21.3846 47.6021
21.5662 47.4155
21.7479 51.1366
21.9297 64.8482
22.1115 55.6545
22.2933 48.7223
22.4753 47.0839
22.6572 47.336
22.8393 50.4913
23.0214 57.1456
23.2037 47.4139
23.3859 48.7528
23.5682 56.6282
23.7505 47.7575
23.9329 44.0699
24.1154 42.7975
24.2979 42.0814
24.4805 41.5734
24.6631 41.7003
24.8458 41.014
25.0286 41.6138
25.2114 43.7092
25.3943 44.1502
25.5773 39.8995
25.7605 39.3039
25.9436 39.818
26.1268 41.0699
26.31 39.0576
26.4933 39.6788
26.6767 41.719
26.8601 39.7145
27.0437 37.9581
27.2272 37.4706
27.4109 37.537
27.5946 37.5492
27.7784 36.9661
27.9623 37.5602
28.1462 38.3017
28.3304 36.4728
28.5145 35.1018
28.6987 34.749
28.8829 34.5393
29.0673 33.975
29.2517 33.4671
29.4361 33.3557
29.6207 32.345
29.8053 31.9423
29.99 31.797
30.1748 31.6068
30.3597 31.4368
30.5447 31.4594
30.7297 31.5776
30.915 30.9881
31.1002 30.4755
31.2855 30.0958
31.4708 30.0762
31.6563 29.6599
31.8418 29.4393
32.0275 29.3081
32.2132 28.7478
32.399 28.2303
32.5848 27.6874
32.7708 27.5093
32.9569 27.3505
33.143 27.2388
33.3293 26.7801
33.5158 26.4034
33.7022 25.9937
33.8887 25.7457
34.0753 25.3535
34.262 25.052
34.4488 24.7831
34.6357 24.3697
34.8227 24.0547
35.0098 23.9378
35.1969 23.7163
35.3842 23.4845
35.5716 23.2851
35.759 22.9028
35.9468 22.6221
36.1345 22.3295
36.3222 22.1674
36.5101 21.9943
36.6981 21.5994
36.8861 21.2779
37.0743 20.9594
37.2626 20.8227
37.451 20.4805
37.6395 20.3215
37.8281 20.0177
38.0168 19.734
38.2056 19.5178
38.3945 19.2297
38.5837 19.0279
38.7728 18.7728
38.9621 18.4596
39.1514 18.2494
39.3409 18.0055
39.5304 17.8025
39.7201 17.6599
39.9099 17.4251
40.0999 17.1953
40.2899 16.957
40.48 16.7078
40.6703 16.5064
40.8607 16.3101
41.0512 16.1037
41.242 15.8861
41.4327 15.694
41.6236 15.4462
41.8146 15.2891
42.0057 15.0605
42.1969 14.8512
42.3882 14.6914
42.5797 14.5325
42.7713 14.3035
42.963 14.0937
43.1549 13.8964
43.3468 13.7139
43.5389 13.5165
43.7312 13.3135
43.9237 13.1306
44.1162 12.9625
44.3088 12.7348
44.5016 12.6144
44.6945 12.4042
44.8875 12.2251
45.0806 12.0661
45.2739 11.9164
45.4673 11.7437
45.6609 11.586
45.8546 11.412
46.0484 11.2669
46.2424 11.099
46.4365 10.9496
46.631 10.777
46.8254 10.6247
47.0199 10.4631
47.2146 10.3207
47.4095 10.1456
47.6044 10.0051
47.7996 9.85625
47.9948 9.69181
48.1902 9.54456
48.3858 9.49108
48.5815 9.33048
48.7774 9.16505
48.9734 9.0466
49.1696 8.8963
49.3661 8.75613
49.5626 8.63091
49.7592 8.46558
49.956 8.36091
50.153 8.22328
50.3501 8.08882
50.5474 7.94775
50.7448 7.89522
50.9424 7.75112
51.1402 7.64536
51.3381 7.52003
51.5362 7.39164
51.7344 7.24984
51.9328 7.14512
52.1316 6.99792
52.3304 6.88736
52.5293 6.78727
52.7284 6.68613
52.9276 6.55913
53.1271 6.45835
53.3267 6.34875
53.5265 6.22521
53.7264 6.11783
53.9266 6.06436
54.1269 5.9126
54.3274 5.81533
54.528 5.6808
54.7289 5.51925
54.9301 5.32837
55.1314 5.28447
55.3328 5.02971
55.5344 4.84047
55.7361 4.70501