File: XRD/Ni3Fe_FD0516.xy
TT I
1.27165 7.54522
1.45013 6.05287
1.62863 5.34069
1.80712 4.99053
1.98562 4.68523
2.16411 5.29512
2.34263 5.7522
2.52115 6.49081
2.69965 7.83858
2.87818 9.68533
3.05672 11.4218
3.23527 14.9367
3.4138 19.173
3.59237 24.7684
3.77094 26.3651
3.9495 30.5224
4.12809 35.7898
4.30669 239.403
4.4853 68.335
4.6639 55.9479
4.84253 67.9259
5.02118 87.3868
5.19981 386.373
5.37848 204.918
5.55716 104.109
5.73586 93.2218
5.91455 95.4983
6.09328 4095.55
6.27201 85.4199
6.45075 68.3176
6.62952 63.8483
6.8083 59.5928
6.98711 56.6147
7.16591 56.0717
7.34475 97.3471
7.5236 55.8976
7.70247 56.5641
7.88135 58.7517
8.06026 63.0961
8.23919 70.3804
8.41812 86.0372
8.59709 1133.7
8.77609 101.975
8.9551 93.501
9.13412 82.8171
9.31318 84.0394
9.49226 85.0279
9.67134 100.498
9.85047 101.097
10.0296 346.902
10.2088 449.867
10.388 106.363
10.5672 492.882
10.7465 87.8809
10.9257 79.8846
11.105 73.0268
11.2844 71.9307
11.4637 65.6353
11.6431 64.5456
11.8225 63.1143
12.002 64.1614
12.1814 150.536
12.3609 72.428
12.5405 65.3779
12.72 71.491
12.8996 71.6648
13.0792 79.7612
13.2589 232.497
13.4386 131.907
13.6183 239.467
13.7981 102.978
13.9779 76.8614
14.1577 73.4137
14.3376 73.0609
14.5175 69.6742
14.6974 71.268
14.8774 110.579
15.0574 156.277
15.2374 72.0855
15.4175 67.0437
15.5976 66.4691
15.7778 95.1819
15.958 161.333
16.1382 63.9379
16.3185 59.603
16.4988 56.2717
16.6792 55.2764
16.8596 55.8916
17.04 56.4029
17.2205 66.9575
17.401 72.5763
17.5815 60.0048
17.7622 61.8468
17.9428 74.6575
18.1237 137.574
18.3044 90.2764
18.4852 80.6407
18.666 61.2114
18.8469 58.8088
19.0278 57.7542
19.2088 60.1988
19.3898 76.9793
19.5709 55.0113
19.752 53.9633
19.9332 56.768
20.1144 70.2385
20.2957 63.8825
20.477 54.7459
20.6586 50.2957
20.84 49.5286
21.0215 49.3561
21.203 51.2077
21.3846 49.7373
21.5662 49.4433
21.7479 53.2844
21.9297 64.9646
22.1115 56.4204
22.2933 50.7674
22.4753 49.6063
22.6572 49.383
22.8393 52.5351
23.0214 58.1178
23.2037 49.3876
23.3859 50.4109
23.5682 56.9794
23.7505 49.2077
23.9329 45.8467
24.1154 44.7055
24.2979 44.0554
24.4805 43.3839
24.6631 43.5184
24.8458 42.7238
25.0286 43.2839
25.2114 45.2063
25.3943 45.2265
25.5773 41.4204
25.7605 40.8716
25.9436 41.4932
26.1268 42.2609
26.31 40.6844
26.4933 41.3618
26.6767 42.6959
26.8601 41.0256
27.0437 39.4891
27.2272 39.016
27.4109 38.8315
27.5946 38.9284
27.7784 38.4414
27.9623 38.8034
28.1462 39.3364
28.3304 37.7461
28.5145 36.4055
28.6987 36.1081
28.8829 35.9536
29.0673 34.9833
29.2517 34.8552
29.4361 34.528
29.6207 33.5638
29.8053 33.2092
29.99 32.9539
30.1748 32.7993
30.3597 32.6127
30.5447 32.5568
30.7297 32.671
30.915 32.1085
31.1002 31.5427
31.2855 31.306
31.4708 31.2212
31.6563 30.7492
31.8418 30.55
32.0275 30.3058
32.2132 29.7276
32.399 29.194
32.5848 28.8972
32.7708 28.542
32.9569 28.349
33.143 28.127
33.3293 27.7924
33.5158 27.3647
33.7022 26.93
33.8887 26.6447
34.0753 26.301
34.262 25.9746
34.4488 25.6651
34.6357 25.3119
34.8227 24.9608
35.0098 24.792
35.1969 24.4423
35.3842 24.3058
35.5716 24.1235
35.759 23.7778
35.9468 23.4163
36.1345 23.1798
36.3222 22.9557
36.5101 22.6867
36.6981 22.4579
36.8861 22.1198
37.0743 21.7467
37.2626 21.4985
37.451 21.2791
37.6395 21.0602
37.8281 20.7827
38.0168 20.4658
38.2056 20.2149
38.3945 19.958
38.5837 19.723
38.7728 19.4652
38.9621 19.2349
39.1514 18.9629
39.3409 18.7223
39.5304 18.4468
39.7201 18.2984
39.9099 18.0491
40.0999 17.82
40.2899 17.6471
40.48 17.3751
40.6703 17.1346
40.8607 16.9591
41.0512 16.7106
41.242 16.4985
41.4327 16.3002
41.6236 16.0687
41.8146 15.8478
42.0057 15.6074
42.1969 15.4207
42.3882 15.2389
42.5797 15.0499
42.7713 14.8144
42.963 14.6298
43.1549 14.3923
43.3468 14.181
43.5389 14.0005
43.7312 13.8034
43.9237 13.6124
44.1162 13.4602
44.3088 13.2647
44.5016 13.0451
44.6945 12.8739
44.8875 12.693
45.0806 12.5325
45.2739 12.3494
45.4673 12.1915
45.6609 12.0354
45.8546 11.843
46.0484 11.6696
46.2424 11.4801
46.4365 11.369
46.631 11.1307
46.8254 10.9853
47.0199 10.8144
47.2146 10.6874
47.4095 10.5263
47.6044 10.3725
47.7996 10.2019
47.9948 10.0492
48.1902 9.89893
48.3858 9.7478
48.5815 9.60061
48.7774 9.47593
48.9734 9.38343
49.1696 9.23056
49.3661 9.07705
49.5626 8.94003
49.7592 8.80292
49.956 8.69194
50.153 8.56465
50.3501 8.41653
50.5474 8.28587
50.7448 8.17071
50.9424 8.05829
51.1402 7.88844
51.3381 7.74118
51.5362 7.6155
51.7344 7.53997
51.9328 7.41036
52.1316 7.297
52.3304 7.18858
52.5293 7.02591
52.7284 6.90212
52.9276 6.8323
53.1271 6.68634
53.3267 6.58089
53.5265 6.42093
53.7264 6.39794
53.9266 6.25311
54.1269 6.12418
54.3274 5.98952
54.528 5.87973
54.7289 5.71661
54.9301 5.60635
55.1314 5.39479
55.3328 5.20388
55.5344 5.00882
55.7361 4.8495