File: XRD/Ni3Fe_FD1079.xy
TT I
1.27165 7.12617
1.45013 5.59713
1.62863 5.25737
1.80712 3.85982
1.98562 4.42317
2.16411 4.48183
2.34263 4.77083
2.52115 6.30966
2.69965 8.7244
2.87818 9.18443
3.05672 10.5996
3.23527 14.4115
3.4138 18.224
3.59237 21.25
3.77094 24.3035
3.9495 28.7406
4.12809 32.2088
4.30669 56.6437
4.4853 46.1205
4.6639 52.8537
4.84253 63.7282
5.02118 82.7689
5.19981 231.325
5.37848 203.244
5.55716 97.3898
5.73586 87.7889
5.91455 89.0933
6.09328 4461.17
6.27201 75.9392
6.45075 63.6036
6.62952 58.0002
6.8083 54.6251
6.98711 52.6375
7.16591 51.6946
7.34475 55.9576
7.5236 58.1765
7.70247 53.0128
7.88135 54.8729
8.06026 58.8792
8.23919 65.7545
8.41812 77.8139
8.59709 1116.13
8.77609 94.8847
8.9551 82.48
9.13412 79.2182
9.31318 87.5269
9.49226 81.0199
9.67134 86.4646
9.85047 94.2487
10.0296 353.422
10.2088 442.787
10.388 98.0871
10.5672 515.314
10.7465 85.8404
10.9257 73.4375
11.105 68.3376
11.2844 64.5268
11.4637 61.9646
11.6431 60.743
11.8225 59.63
12.002 65.9852
12.1814 147.38
12.3609 64.4452
12.5405 61.407
12.72 64.0162
12.8996 68.0307
13.0792 76.5317
13.2589 231.682
13.4386 125.657
13.6183 237.413
13.7981 100.098
13.9779 73.5058
14.1577 74.7353
14.3376 67.2391
14.5175 66.6826
14.6974 67.3621
14.8774 110.892
15.0574 158.375
15.2374 66.6492
15.4175 64.2087
15.5976 63.832
15.7778 95.6108
15.958 169.144
16.1382 59.9353
16.3185 55.5485
16.4988 53.483
16.6792 52.6574
16.8596 52.9808
17.04 53.9127
17.2205 65.0633
17.401 72.1798
17.5815 57.4571
17.7622 60.0841
17.9428 73.7238
18.1237 142.318
18.3044 89.0534
18.4852 79.0494
18.666 58.9839
18.8469 56.5096
19.0278 55.0941
19.2088 58.2233
19.3898 75.9132
19.5709 52.9852
19.752 51.9771
19.9332 55.4197
20.1144 70.7094
20.2957 63.6608
20.477 52.8327
20.6586 48.3529
20.84 48.0667
21.0215 47.5376
21.203 49.5881
21.3846 47.9401
21.5662 47.6446
21.7479 51.9443
21.9297 65.3518
22.1115 55.8288
22.2933 49.0911
22.4753 47.4771
22.6572 47.7314
22.8393 51.3209
23.0214 57.2141
23.2037 48.0368
23.3859 49.4026
23.5682 57.3203
23.7505 48.1563
23.9329 44.4259
24.1154 43.0457
24.2979 42.5933
24.4805 42.0241
24.6631 41.9827
24.8458 41.328
25.0286 42.1249
25.2114 44.4204
25.3943 44.2884
25.5773 40.2414
25.7605 39.681
25.9436 40.0671
26.1268 41.3528
26.31 39.4147
26.4933 40.1677
26.6767 42.0066
26.8601 40.1829
27.0437 38.2787
27.2272 38.0541
27.4109 37.8217
27.5946 37.917
27.7784 37.2663
27.9623 38.1576
28.1462 38.7229
28.3304 36.9214
28.5145 35.234
28.6987 35.0242
28.8829 34.8979
29.0673 34.0368
29.2517 33.8135
29.4361 33.7725
29.6207 32.5635
29.8053 32.3055
29.99 32.1034
30.1748 31.949
30.3597 31.8584
30.5447 31.7306
30.7297 31.8322
30.915 31.3637
31.1002 30.7304
31.2855 30.4566
31.4708 30.4419
31.6563 30.0148
31.8418 29.7114
32.0275 29.6173
32.2132 29.0499
32.399 28.5085
32.5848 28.1713
32.7708 27.7484
32.9569 27.6834
33.143 27.4972
33.3293 27.1323
33.5158 26.6625
33.7022 26.2407
33.8887 25.9404
34.0753 25.6507
34.262 25.2919
34.4488 24.9625
34.6357 24.614
34.8227 24.3
35.0098 24.1724
35.1969 23.9706
35.3842 23.6331
35.5716 23.4748
35.759 23.1877
35.9468 22.797
36.1345 22.6378
36.3222 22.279
36.5101 22.0742
36.6981 21.857
36.8861 21.5562
37.0743 21.1472
37.2626 20.9846
37.451 20.6873
37.6395 20.5122
37.8281 20.1582
38.0168 19.8364
38.2056 19.7399
38.3945 19.4075
38.5837 19.1433
38.7728 19.007
38.9621 18.7015
39.1514 18.3787
39.3409 18.2039
39.5304 18.0175
39.7201 17.7971
39.9099 17.618
40.0999 17.3606
40.2899 17.1334
40.48 16.8844
40.6703 16.7221
40.8607 16.526
41.0512 16.3322
41.242 16.0145
41.4327 15.8283
41.6236 15.5977
41.8146 15.4876
42.0057 15.1654
42.1969 15.0222
42.3882 14.8347
42.5797 14.6206
42.7713 14.4334
42.963 14.2512
43.1549 14.0088
43.3468 13.7883
43.5389 13.6314
43.7312 13.4313
43.9237 13.2458
44.1162 13.1424
44.3088 12.9038
44.5016 12.6994
44.6945 12.6286
44.8875 12.3663
45.0806 12.2107
45.2739 11.9692
45.4673 11.8262
45.6609 11.6853
45.8546 11.5342
46.0484 11.34
46.2424 11.1872
46.4365 11.0637
46.631 10.8847
46.8254 10.6906
47.0199 10.5352
47.2146 10.3709
47.4095 10.2222
47.6044 10.0688
47.7996 9.95071
47.9948 9.77871
48.1902 9.65794
48.3858 9.54521
48.5815 9.384
48.7774 9.21359
48.9734 9.15847
49.1696 8.98285
49.3661 8.84534
49.5626 8.67735
49.7592 8.56864
49.956 8.42321
50.153 8.30009
50.3501 8.19677
50.5474 8.03343
50.7448 7.93025
50.9424 7.796
51.1402 7.72856
51.3381 7.55373
51.5362 7.45615
51.7344 7.3225
51.9328 7.19579
52.1316 7.09642
52.3304 6.96264
52.5293 6.83802
52.7284 6.75013
52.9276 6.62087
53.1271 6.54484
53.3267 6.40664
53.5265 6.28163
53.7264 6.17604
53.9266 6.09594
54.1269 5.95768
54.3274 5.84774
54.528 5.72482
54.7289 5.5289
54.9301 5.4181
55.1314 5.31513
55.3328 5.08563
55.5344 4.90053
55.7361 4.71846