File: XRD/Ni3Fe_FD0957.xy
TT I
1.27165 7.59094
1.45013 6.31323
1.62863 4.7064
1.80712 5.37246
1.98562 4.42189
2.16411 4.88087
2.34263 5.72198
2.52115 7.48066
2.69965 9.25766
2.87818 8.83958
3.05672 11.5555
3.23527 15.2981
3.4138 18.933
3.59237 23.6858
3.77094 25.855
3.9495 29.3353
4.12809 34.2599
4.30669 168.464
4.4853 60.01
4.6639 54.9124
4.84253 66.7397
5.02118 85.4079
5.19981 294.319
5.37848 177.099
5.55716 100.498
5.73586 90.8971
5.91455 91.6011
6.09328 4538.27
6.27201 80.1757
6.45075 66.9237
6.62952 61.9552
6.8083 58.046
6.98711 55.1122
7.16591 54.8749
7.34475 80.0302
7.5236 54.0321
7.70247 55.2294
7.88135 56.9623
8.06026 61.717
8.23919 68.4268
8.41812 83.2596
8.59709 1177.24
8.77609 96.6396
8.9551 89.2727
9.13412 80.8543
9.31318 81.7948
9.49226 83.4067
9.67134 95.2874
9.85047 98.2111
10.0296 314.704
10.2088 359.199
10.388 101.959
10.5672 528.665
10.7465 84.9478
10.9257 76.9607
11.105 70.8447
11.2844 68.5005
11.4637 63.4933
11.6431 62.6849
11.8225 61.3965
12.002 62.3102
12.1814 156.526
12.3609 67.8692
12.5405 63.3278
12.72 67.9537
12.8996 69.8159
13.0792 78.1759
13.2589 239.444
13.4386 118.36
13.6183 253.451
13.7981 94.7227
13.9779 74.5972
14.1577 70.9139
14.3376 69.9144
14.5175 67.5809
14.6974 69.0239
14.8774 108.247
15.0574 143.672
15.2374 69.1141
15.4175 65.1943
15.5976 64.5819
15.7778 92.534
15.958 148.153
16.1382 60.9777
16.3185 57.4169
16.4988 54.4633
16.6792 53.6847
16.8596 54.1557
17.04 54.5302
17.2205 65.7344
17.401 68.8439
17.5815 58.2169
17.7622 60.0883
17.9428 71.3324
18.1237 136.719
18.3044 90.1749
18.4852 74.7203
18.666 59.1813
18.8469 57.216
19.0278 55.6597
19.2088 58.1648
19.3898 74.1586
19.5709 53.327
19.752 52.2628
19.9332 55.1422
20.1144 68.4886
20.2957 63.7612
20.477 52.4745
20.6586 48.7292
20.84 47.8916
21.0215 47.7876
21.203 50.0098
21.3846 47.9926
21.5662 47.8034
21.7479 51.6439
21.9297 63.2052
22.1115 55.2029
22.2933 48.9163
22.4753 47.8124
22.6572 47.8806
22.8393 51.0879
23.0214 55.989
23.2037 47.7589
23.3859 48.7144
23.5682 56.4701
23.7505 47.2825
23.9329 44.4473
24.1154 43.4166
24.2979 42.793
24.4805 42.1486
24.6631 42.0351
24.8458 41.5274
25.0286 42.0228
25.2114 43.9003
25.3943 43.7525
25.5773 40.2338
25.7605 39.6874
25.9436 40.0965
26.1268 40.9147
26.31 39.3337
26.4933 40.0677
26.6767 41.4449
26.8601 39.7192
27.0437 38.1579
27.2272 37.9219
27.4109 37.7429
27.5946 37.6399
27.7784 37.2167
27.9623 37.7512
28.1462 38.1578
28.3304 36.4526
28.5145 35.3202
28.6987 34.9748
28.8829 34.8032
29.0673 34.2048
29.2517 33.817
29.4361 33.6182
29.6207 32.5104
29.8053 32.3815
29.99 32.0648
30.1748 31.9494
30.3597 31.75
30.5447 31.5765
30.7297 31.6217
30.915 31.0174
31.1002 30.6571
31.2855 30.2978
31.4708 30.2685
31.6563 29.8522
31.8418 29.6145
32.0275 29.3432
32.2132 29.0221
32.399 28.4053
32.5848 27.9225
32.7708 27.6382
32.9569 27.5063
33.143 27.3062
33.3293 26.9829
33.5158 26.5491
33.7022 26.0331
33.8887 25.917
34.0753 25.569
34.262 25.1209
34.4488 24.9055
34.6357 24.6023
34.8227 24.3049
35.0098 24.1106
35.1969 23.8282
35.3842 23.6164
35.5716 23.4261
35.759 23.1089
35.9468 22.6749
36.1345 22.526
36.3222 22.3344
36.5101 22.0473
36.6981 21.727
36.8861 21.482
37.0743 21.12
37.2626 20.907
37.451 20.5882
37.6395 20.5034
37.8281 20.0782
38.0168 19.8512
38.2056 19.6195
38.3945 19.2944
38.5837 19.1288
38.7728 18.884
38.9621 18.6631
39.1514 18.4175
39.3409 18.1459
39.5304 17.9191
39.7201 17.7739
39.9099 17.5588
40.0999 17.2507
40.2899 17.0689
40.48 16.8068
40.6703 16.6597
40.8607 16.4447
41.0512 16.2413
41.242 15.9164
41.4327 15.8771
41.6236 15.5908
41.8146 15.4251
42.0057 15.1392
42.1969 14.9247
42.3882 14.8184
42.5797 14.6002
42.7713 14.4344
42.963 14.1838
43.1549 13.9751
43.3468 13.774
43.5389 13.6553
43.7312 13.4295
43.9237 13.2368
44.1162 13.0693
44.3088 12.8483
44.5016 12.6765
44.6945 12.5321
44.8875 12.3715
45.0806 12.2068
45.2739 11.975
45.4673 11.8235
45.6609 11.6281
45.8546 11.504
46.0484 11.3647
46.2424 11.2093
46.4365 11.0239
46.631 10.8628
46.8254 10.6637
47.0199 10.5539
47.2146 10.392
47.4095 10.2125
47.6044 10.0863
47.7996 9.91014
47.9948 9.7947
48.1902 9.62383
48.3858 9.50943
48.5815 9.36865
48.7774 9.24374
48.9734 9.09694
49.1696 8.95322
49.3661 8.81158
49.5626 8.68117
49.7592 8.55422
49.956 8.44932
50.153 8.29154
50.3501 8.16178
50.5474 8.03985
50.7448 7.94991
50.9424 7.80729
51.1402 7.65405
51.3381 7.55285
51.5362 7.44456
51.7344 7.32115
51.9328 7.19864
52.1316 7.06257
52.3304 7.00971
52.5293 6.82406
52.7284 6.71427
52.9276 6.60479
53.1271 6.51877
53.3267 6.42517
53.5265 6.26431
53.7264 6.19219
53.9266 6.0258
54.1269 5.96494
54.3274 5.84098
54.528 5.74502
54.7289 5.5931
54.9301 5.39029
55.1314 5.30561
55.3328 5.07896
55.5344 4.85429
55.7361 4.77486