File: XRD/Ni3Fe_FD1071.xy
TT I
1.27165 6.76953
1.45013 5.73468
1.62863 5.22895
1.80712 4.39979
1.98562 4.77927
2.16411 4.27784
2.34263 5.56919
2.52115 7.15665
2.69965 8.40909
2.87818 8.61928
3.05672 10.6013
3.23527 14.9456
3.4138 18.4233
3.59237 21.3048
3.77094 24.5821
3.9495 28.244
4.12809 32.1237
4.30669 56.2482
4.4853 46.4237
4.6639 52.7027
4.84253 64.0844
5.02118 82.8859
5.19981 231.417
5.37848 206.169
5.55716 97.2724
5.73586 87.9618
5.91455 88.824
6.09328 4484.47
6.27201 76.004
6.45075 63.6447
6.62952 58.245
6.8083 54.4635
6.98711 52.5322
7.16591 51.7204
7.34475 56.0443
7.5236 58.2192
7.70247 52.979
7.88135 54.7824
8.06026 59.2211
8.23919 65.8452
8.41812 77.8956
8.59709 1110.9
8.77609 95.1039
8.9551 82.3732
9.13412 79.1969
9.31318 88.6837
9.49226 81.1324
9.67134 86.7355
9.85047 94.1537
10.0296 350.612
10.2088 444.398
10.388 98.3381
10.5672 512.498
10.7465 85.8299
10.9257 73.6244
11.105 68.4162
11.2844 65.0792
11.4637 62.3525
11.6431 60.5445
11.8225 59.7505
12.002 66.0499
12.1814 147.106
12.3609 64.9028
12.5405 61.3479
12.72 63.8605
12.8996 67.9402
13.0792 76.5353
13.2589 230.467
13.4386 126.24
13.6183 237.348
13.7981 99.7888
13.9779 73.5193
14.1577 74.9015
14.3376 67.59
14.5175 66.4544
14.6974 67.6418
14.8774 110.476
15.0574 158.949
15.2374 66.4372
15.4175 64.3934
15.5976 63.4978
15.7778 95.2814
15.958 169.311
16.1382 60.089
16.3185 55.6819
16.4988 53.6644
16.6792 52.809
16.8596 52.9187
17.04 54.059
17.2205 64.9906
17.401 72.3303
17.5815 57.4121
17.7622 60.0212
17.9428 73.629
18.1237 142.401
18.3044 88.8983
18.4852 78.9264
18.666 59.0901
18.8469 56.4672
19.0278 55.2932
19.2088 58.0274
19.3898 76.239
19.5709 53.0428
19.752 51.965
19.9332 55.2807
20.1144 70.4464
20.2957 63.684
20.477 53.0589
20.6586 48.4892
20.84 47.9845
21.0215 47.5037
21.203 49.7185
21.3846 47.973
21.5662 47.6702
21.7479 51.7839
21.9297 65.2645
22.1115 55.8838
22.2933 49.0772
22.4753 47.6357
22.6572 47.8076
22.8393 51.3909
23.0214 57.3223
23.2037 47.9381
23.3859 49.4359
23.5682 57.4047
23.7505 48.2864
23.9329 44.3156
24.1154 43.3057
24.2979 42.495
24.4805 42.1125
24.6631 42.0706
24.8458 41.3595
25.0286 42.0459
25.2114 44.3391
25.3943 44.3417
25.5773 40.2158
25.7605 39.5694
25.9436 40.1558
26.1268 41.3688
26.31 39.4593
26.4933 40.0656
26.6767 42.0753
26.8601 40.1265
27.0437 38.3367
27.2272 37.9163
27.4109 37.9727
27.5946 37.9108
27.7784 37.4411
27.9623 38.0837
28.1462 38.6956
28.3304 36.8682
28.5145 35.4031
28.6987 34.9194
28.8829 34.9374
29.0673 34.25
29.2517 33.8445
29.4361 33.7016
29.6207 32.6045
29.8053 32.3584
29.99 32.013
30.1748 31.973
30.3597 31.865
30.5447 31.6952
30.7297 31.9194
30.915 31.243
31.1002 30.6895
31.2855 30.5467
31.4708 30.5307
31.6563 30.1045
31.8418 29.8773
32.0275 29.5084
32.2132 28.9876
32.399 28.5378
32.5848 28.0883
32.7708 27.7565
32.9569 27.6497
33.143 27.5522
33.3293 27.0687
33.5158 26.6333
33.7022 26.2844
33.8887 25.937
34.0753 25.6315
34.262 25.3747
34.4488 24.9783
34.6357 24.6039
34.8227 24.3144
35.0098 24.1638
35.1969 23.8776
35.3842 23.6637
35.5716 23.548
35.759 23.1668
35.9468 22.8541
36.1345 22.5759
36.3222 22.3289
36.5101 22.1045
36.6981 21.8938
36.8861 21.5249
37.0743 21.2568
37.2626 20.981
37.451 20.7699
37.6395 20.4731
37.8281 20.2586
38.0168 19.9348
38.2056 19.6767
38.3945 19.395
38.5837 19.1768
38.7728 18.966
38.9621 18.6737
39.1514 18.4556
39.3409 18.2161
39.5304 17.9812
39.7201 17.8337
39.9099 17.5775
40.0999 17.3592
40.2899 17.1441
40.48 16.8945
40.6703 16.6897
40.8607 16.4668
41.0512 16.2588
41.242 16.0546
41.4327 15.8845
41.6236 15.6286
41.8146 15.4541
42.0057 15.1585
42.1969 15.0428
42.3882 14.8256
42.5797 14.6507
42.7713 14.4505
42.963 14.2255
43.1549 14.0352
43.3468 13.8449
43.5389 13.6415
43.7312 13.4604
43.9237 13.316
44.1162 13.0592
44.3088 12.884
44.5016 12.7247
44.6945 12.5708
44.8875 12.3832
45.0806 12.1908
45.2739 12.0325
45.4673 11.853
45.6609 11.7147
45.8546 11.5586
46.0484 11.3847
46.2424 11.1854
46.4365 11.0173
46.631 10.8797
46.8254 10.6956
47.0199 10.58
47.2146 10.4169
47.4095 10.2255
47.6044 10.1141
47.7996 9.94774
47.9948 9.81277
48.1902 9.64501
48.3858 9.52305
48.5815 9.37471
48.7774 9.30042
48.9734 9.14645
49.1696 8.97422
49.3661 8.83756
49.5626 8.6595
49.7592 8.61589
49.956 8.44898
50.153 8.32206
50.3501 8.17592
50.5474 8.05941
50.7448 7.94501
50.9424 7.8415
51.1402 7.70842
51.3381 7.55708
51.5362 7.46529
51.7344 7.33542
51.9328 7.19899
52.1316 7.05435
52.3304 6.97143
52.5293 6.8243
52.7284 6.76371
52.9276 6.63222
53.1271 6.52439
53.3267 6.42139
53.5265 6.2793
53.7264 6.18409
53.9266 6.0827
54.1269 5.97996
54.3274 5.86377
54.528 5.71907
54.7289 5.56997
54.9301 5.40184
55.1314 5.28525
55.3328 5.11027
55.5344 4.93501
55.7361 4.70797