File: XRD/Ni3Fe_FD0221.xy
TT I
1.27165 8.05128
1.45013 6.75948
1.62863 5.98368
1.80712 5.71192
1.98562 4.98977
2.16411 4.53924
2.34263 4.7098
2.52115 4.63099
2.69965 5.90327
2.87818 8.15792
3.05672 10.8088
3.23527 14.9706
3.4138 18.768
3.59237 22.6463
3.77094 25.6989
3.9495 29.895
4.12809 35.1494
4.30669 39.8536
4.4853 48.4386
4.6639 58.2359
4.84253 71.8053
5.02118 96.7467
5.19981 891.942
5.37848 275.751
5.55716 112.302
5.73586 101.133
5.91455 111.02
6.09328 3586.49
6.27201 89.4465
6.45075 71.0048
6.62952 64.0999
6.8083 59.9307
6.98711 57.4163
7.16591 56.565
7.34475 55.7897
7.5236 56.3546
7.70247 58.0617
7.88135 59.9761
8.06026 65.4787
8.23919 73.2566
8.41812 90.4366
8.59709 1057.38
8.77609 111.265
8.9551 90.83
9.13412 87.2909
9.31318 87.9891
9.49226 89.7319
9.67134 95.7945
9.85047 106.692
10.0296 521.757
10.2088 576.089
10.388 115.168
10.5672 436.451
10.7465 92.4992
10.9257 81.2564
11.105 74.8252
11.2844 70.5997
11.4637 67.8663
11.6431 66.7051
11.8225 65.2296
12.002 68.5229
12.1814 139.863
12.3609 70.5834
12.5405 67.3762
12.72 69.7432
12.8996 75.0533
13.0792 86.5192
13.2589 227.858
13.4386 150.809
13.6183 224.744
13.7981 112.565
13.9779 80.1345
14.1577 75.3885
14.3376 73.1923
14.5175 72.5793
14.6974 74.5969
14.8774 119.71
15.0574 173.423
15.2374 72.5251
15.4175 70.005
15.5976 69.8884
15.7778 103.478
15.958 177.804
16.1382 63.9654
16.3185 60.3278
16.4988 58.1332
16.6792 57.1485
16.8596 57.38
17.04 59.3086
17.2205 68.6735
17.401 77.5038
17.5815 61.9686
17.7622 64.5111
17.9428 82.7806
18.1237 139.251
18.3044 90.3181
18.4852 84.4431
18.666 63.5599
18.8469 61.1525
19.0278 59.9267
19.2088 63.0207
19.3898 76.1985
19.5709 57.0496
19.752 56.2859
19.9332 59.6432
20.1144 72.6209
20.2957 64.3887
20.477 56.999
20.6586 52.0773
20.84 51.3323
21.0215 51.2742
21.203 52.5826
21.3846 51.739
21.5662 51.8687
21.7479 55.5225
21.9297 66.8246
22.1115 57.727
22.2933 52.6921
22.4753 50.9392
22.6572 52.0741
22.8393 54.2842
23.0214 60.0317
23.2037 51.4977
23.3859 52.6529
23.5682 57.6571
23.7505 51.3873
23.9329 47.4184
24.1154 46.3212
24.2979 45.5025
24.4805 44.945
24.6631 44.8522
24.8458 44.4859
25.0286 45.1273
25.2114 46.5765
25.3943 46.7892
25.5773 42.9474
25.7605 42.4092
25.9436 42.8358
26.1268 43.6851
26.31 42.2353
26.4933 42.5545
26.6767 43.9285
26.8601 42.2972
27.0437 40.799
27.2272 40.5246
27.4109 40.1773
27.5946 40.3195
27.7784 39.8507
27.9623 39.9681
28.1462 40.5416
28.3304 39.0161
28.5145 37.7471
28.6987 37.3071
28.8829 36.9361
29.0673 36.3569
29.2517 35.819
29.4361 35.5883
29.6207 34.6298
29.8053 34.4143
29.99 34.0456
30.1748 33.9225
30.3597 33.8681
30.5447 33.6555
30.7297 33.5701
30.915 33.0997
31.1002 32.6533
31.2855 32.3195
31.4708 32.2945
31.6563 31.7775
31.8418 31.533
32.0275 31.3008
32.2132 30.7628
32.399 30.301
32.5848 29.8661
32.7708 29.5784
32.9569 29.3989
33.143 29.0528
33.3293 28.6544
33.5158 28.2285
33.7022 27.837
33.8887 27.5167
34.0753 27.1666
34.262 26.9644
34.4488 26.4932
34.6357 26.1773
34.8227 25.8543
35.0098 25.655
35.1969 25.3193
35.3842 25.025
35.5716 24.8535
35.759 24.6189
35.9468 24.2651
36.1345 23.9442
36.3222 23.7004
36.5101 23.4679
36.6981 23.1482
36.8861 22.8969
37.0743 22.5011
37.2626 22.2803
37.451 21.9682
37.6395 21.7055
37.8281 21.4289
38.0168 21.1606
38.2056 20.8804
38.3945 20.5739
38.5837 20.3045
38.7728 20.1278
38.9621 19.8061
39.1514 19.5738
39.3409 19.4215
39.5304 19.1185
39.7201 18.8723
39.9099 18.653
40.0999 18.4052
40.2899 18.1962
40.48 17.9739
40.6703 17.6969
40.8607 17.5273
41.0512 17.2776
41.242 16.9593
41.4327 16.8107
41.6236 16.5686
41.8146 16.3698
42.0057 16.1389
42.1969 15.8656
42.3882 15.7465
42.5797 15.4594
42.7713 15.2911
42.963 15.0655
43.1549 14.8726
43.3468 14.674
43.5389 14.4842
43.7312 14.2076
43.9237 14.0464
44.1162 13.8697
44.3088 13.6644
44.5016 13.4786
44.6945 13.3272
44.8875 13.12
45.0806 12.9293
45.2739 12.7569
45.4673 12.5876
45.6609 12.3917
45.8546 12.2433
46.0484 12.0705
46.2424 11.8855
46.4365 11.7144
46.631 11.4836
46.8254 11.3117
47.0199 11.1628
47.2146 11.0212
47.4095 10.8665
47.6044 10.7222
47.7996 10.5734
47.9948 10.4057
48.1902 10.2479
48.3858 10.1043
48.5815 9.9451
48.7774 9.81186
48.9734 9.67407
49.1696 9.50783
49.3661 9.34192
49.5626 9.19305
49.7592 9.06959
49.956 8.91532
50.153 8.7868
50.3501 8.66556
50.5474 8.54284
50.7448 8.41605
50.9424 8.25789
51.1402 8.15316
51.3381 7.96215
51.5362 7.91416
51.7344 7.75571
51.9328 7.61631
52.1316 7.49709
52.3304 7.36789
52.5293 7.21551
52.7284 7.11196
52.9276 6.99745
53.1271 6.92345
53.3267 6.7499
53.5265 6.6671
53.7264 6.54855
53.9266 6.44575
54.1269 6.31799
54.3274 6.16255
54.528 6.00302
54.7289 5.81292
54.9301 5.71087
55.1314 5.52671
55.3328 5.29409
55.5344 5.10846
55.7361 5.05035