File: XRD/Ni3Fe_FD0269.xy
TT I
1.27165 7.31851
1.45013 6.12451
1.62863 5.6858
1.80712 4.61624
1.98562 4.81425
2.16411 4.68503
2.34263 4.94578
2.52115 5.51702
2.69965 6.5072
2.87818 8.07568
3.05672 11.366
3.23527 15.2379
3.4138 19.4086
3.59237 23.8948
3.77094 26.8546
3.9495 30.2132
4.12809 36.3059
4.30669 185.556
4.4853 63.9042
4.6639 57.8242
4.84253 70.6253
5.02118 93.3285
5.19981 543.476
5.37848 265.232
5.55716 109.395
5.73586 98.5612
5.91455 103.447
6.09328 3687.95
6.27201 89.7965
6.45075 70.9897
6.62952 65.5356
6.8083 61.0207
6.98711 58.0256
7.16591 57.5887
7.34475 87.5211
7.5236 56.6071
7.70247 58.7375
7.88135 60.1763
8.06026 65.1164
8.23919 72.7717
8.41812 89.6362
8.59709 1083.81
8.77609 109.922
8.9551 95.0683
9.13412 85.6593
9.31318 86.9926
9.49226 88.2909
9.67134 101.964
9.85047 105.185
10.0296 434.604
10.2088 588.581
10.388 110.806
10.5672 458.784
10.7465 91.8589
10.9257 81.6023
11.105 74.9816
11.2844 73.033
11.4637 67.5753
11.6431 66.5076
11.8225 65.0916
12.002 66.7067
12.1814 143.398
12.3609 74.7441
12.5405 67.4515
12.72 72.5575
12.8996 74.1571
13.0792 83.0112
13.2589 227.402
13.4386 153.176
13.6183 229.088
13.7981 112.773
13.9779 79.2508
14.1577 75.4917
14.3376 74.1068
14.5175 71.7993
14.6974 73.7655
14.8774 115.6
15.0574 175.557
15.2374 74.0972
15.4175 69.5293
15.5976 68.8695
15.7778 100.672
15.958 175.52
16.1382 65.2864
16.3185 61.04
16.4988 57.7306
16.6792 56.8594
16.8596 57.4846
17.04 58.2342
17.2205 68.5393
17.401 77.2386
17.5815 61.9618
17.7622 63.9934
17.9428 79.765
18.1237 136.204
18.3044 91.0338
18.4852 85.6293
18.666 63.4462
18.8469 60.6262
19.0278 59.4412
19.2088 62.7131
19.3898 77.3646
19.5709 57.0654
19.752 55.6769
19.9332 59.0868
20.1144 71.8677
20.2957 64.6504
20.477 57.3445
20.6586 51.7443
20.84 50.9904
21.0215 50.8776
21.203 52.6049
21.3846 51.3932
21.5662 51.0618
21.7479 55.0082
21.9297 66.3299
22.1115 57.8295
22.2933 52.6891
22.4753 50.9205
22.6572 51.0517
22.8393 53.7284
23.0214 59.878
23.2037 51.0473
23.3859 52.2206
23.5682 57.5705
23.7505 51.4757
23.9329 47.3185
24.1154 46.1035
24.2979 45.223
24.4805 44.8285
24.6631 44.7937
24.8458 44.084
25.0286 44.5624
25.2114 46.257
25.3943 46.4483
25.5773 42.8368
25.7605 42.2303
25.9436 42.629
26.1268 43.3535
26.31 41.9708
26.4933 42.394
26.6767 43.8029
26.8601 42.2476
27.0437 40.7098
27.2272 40.1635
27.4109 40.0522
27.5946 40.0843
27.7784 39.5375
27.9623 39.7339
28.1462 40.4573
28.3304 38.845
28.5145 37.5708
28.6987 37.1937
28.8829 36.8036
29.0673 36.208
29.2517 35.7229
29.4361 35.609
29.6207 34.6544
29.8053 34.2976
29.99 33.9366
30.1748 33.7075
30.3597 33.6536
30.5447 33.5326
30.7297 33.4997
30.915 32.998
31.1002 32.381
31.2855 32.1757
31.4708 32.1217
31.6563 31.7811
31.8418 31.2896
32.0275 31.1864
32.2132 30.6975
32.399 30.1168
32.5848 29.6857
32.7708 29.3499
32.9569 29.2383
33.143 28.907
33.3293 28.6195
33.5158 28.2382
33.7022 27.7387
33.8887 27.4025
34.0753 27.0976
34.262 26.73
34.4488 26.4209
34.6357 26.0757
34.8227 25.8051
35.0098 25.6235
35.1969 25.2764
35.3842 24.9482
35.5716 24.7711
35.759 24.4485
35.9468 24.0901
36.1345 23.8683
36.3222 23.6556
36.5101 23.3693
36.6981 23.0823
36.8861 22.6799
37.0743 22.3983
37.2626 22.1936
37.451 21.8877
37.6395 21.7125
37.8281 21.3873
38.0168 21.0952
38.2056 20.8458
38.3945 20.5686
38.5837 20.2932
38.7728 20.0309
38.9621 19.7785
39.1514 19.4807
39.3409 19.2501
39.5304 18.9999
39.7201 18.82
39.9099 18.6035
40.0999 18.3088
40.2899 18.0953
40.48 17.9068
40.6703 17.5983
40.8607 17.4473
41.0512 17.2323
41.242 17.0397
41.4327 16.774
41.6236 16.4957
41.8146 16.308
42.0057 16.1078
42.1969 15.8717
42.3882 15.6966
42.5797 15.4473
42.7713 15.2463
42.963 15.064
43.1549 14.8263
43.3468 14.6242
43.5389 14.4506
43.7312 14.1854
43.9237 14.0542
44.1162 13.8504
44.3088 13.6313
44.5016 13.482
44.6945 13.2755
44.8875 13.0776
45.0806 12.9035
45.2739 12.7384
45.4673 12.5605
45.6609 12.3284
45.8546 12.2191
46.0484 11.9988
46.2424 11.8426
46.4365 11.6525
46.631 11.4914
46.8254 11.3097
47.0199 11.1517
47.2146 11.0002
47.4095 10.8262
47.6044 10.6572
47.7996 10.4892
47.9948 10.357
48.1902 10.2042
48.3858 10.0427
48.5815 9.88843
48.7774 9.79943
48.9734 9.64261
49.1696 9.4836
49.3661 9.30334
49.5626 9.20831
49.7592 9.01658
49.956 8.91285
50.153 8.80693
50.3501 8.6588
50.5474 8.51123
50.7448 8.3919
50.9424 8.25028
51.1402 8.11032
51.3381 7.98142
51.5362 7.87838
51.7344 7.70477
51.9328 7.57398
52.1316 7.42941
52.3304 7.35274
52.5293 7.22976
52.7284 7.10679
52.9276 7.01536
53.1271 6.91006
53.3267 6.78185
53.5265 6.63691
53.7264 6.54776
53.9266 6.4044
54.1269 6.31524
54.3274 6.2249
54.528 6.00241
54.7289 5.85497
54.9301 5.69852
55.1314 5.55957
55.3328 5.34794
55.5344 5.13061
55.7361 4.95339