File: XRD/Ni3Fe_FD0465.xy
TT I
1.27165 7.73189
1.45013 5.99377
1.62863 5.1126
1.80712 4.7603
1.98562 4.54421
2.16411 4.69323
2.34263 4.70545
2.52115 5.99664
2.69965 7.76785
2.87818 9.15355
3.05672 11.3932
3.23527 14.9988
3.4138 18.5002
3.59237 23.3555
3.77094 26.1249
3.9495 30.0016
4.12809 34.9166
4.30669 126.669
4.4853 56.9073
4.6639 56.2935
4.84253 68.5249
5.02118 90.3003
5.19981 526.649
5.37848 205.436
5.55716 104.773
5.73586 95.2089
5.91455 99.259
6.09328 4284.31
6.27201 83.4604
6.45075 68.7983
6.62952 63.1775
6.8083 59.1795
6.98711 56.117
7.16591 56.2846
7.34475 73.7792
7.5236 55.0876
7.70247 57.1947
7.88135 58.4306
8.06026 63.2821
8.23919 70.6234
8.41812 86.6693
8.59709 1228.91
8.77609 101.569
8.9551 90.6128
9.13412 83.5089
9.31318 85.0155
9.49226 86.195
9.67134 96.6851
9.85047 102.212
10.0296 410.945
10.2088 406.325
10.388 108.277
10.5672 503.563
10.7465 88.2051
10.9257 79.0608
11.105 72.4896
11.2844 70.1393
11.4637 65.8991
11.6431 64.3283
11.8225 63.3895
12.002 65.5755
12.1814 156.625
12.3609 68.9995
12.5405 65.4899
12.72 69.5928
12.8996 72.3113
13.0792 81.9485
13.2589 251.073
13.4386 124.301
13.6183 252.935
13.7981 98.1607
13.9779 77.183
14.1577 73.1856
14.3376 71.8074
14.5175 70.0528
14.6974 72.0183
14.8774 118.225
15.0574 147.736
15.2374 70.8616
15.4175 67.6568
15.5976 67.1603
15.7778 101.057
15.958 155.031
16.1382 62.7944
16.3185 58.8423
16.4988 56.3314
16.6792 55.4381
16.8596 55.8141
17.04 57.086
17.2205 68.6684
17.401 71.6202
17.5815 60.2344
17.7622 62.5852
17.9428 77.2355
18.1237 140.152
18.3044 91.8975
18.4852 77.9667
18.666 61.2957
18.8469 58.9683
19.0278 57.8069
19.2088 60.9733
19.3898 76.5346
19.5709 55.0527
19.752 54.2872
19.9332 57.69
20.1144 70.7342
20.2957 64.4284
20.477 54.1797
20.6586 50.3229
20.84 49.7191
21.0215 49.3307
21.203 51.3807
21.3846 49.6581
21.5662 49.8412
21.7479 53.955
21.9297 65.343
22.1115 56.4594
22.2933 50.7229
22.4753 49.5398
22.6572 49.9038
22.8393 53.2051
23.0214 57.8156
23.2037 49.8295
23.3859 50.784
23.5682 57.4896
23.7505 49.0348
23.9329 45.8352
24.1154 44.8518
24.2979 44.082
24.4805 43.5698
24.6631 43.4496
24.8458 42.9497
25.0286 43.6752
25.2114 45.4707
25.3943 45.2057
25.5773 41.604
25.7605 41.1058
25.9436 41.4919
26.1268 42.2844
26.31 40.8616
26.4933 41.4225
26.6767 42.8239
26.8601 41.1084
27.0437 39.5015
27.2272 39.0855
27.4109 38.951
27.5946 39.0862
27.7784 38.4391
27.9623 38.9518
28.1462 39.3896
28.3304 37.7545
28.5145 36.5232
28.6987 36.129
28.8829 35.9745
29.0673 35.2613
29.2517 34.8551
29.4361 34.6677
29.6207 33.6135
29.8053 33.4675
29.99 33.1471
30.1748 32.9228
30.3597 32.8549
30.5447 32.6827
30.7297 32.7068
30.915 32.1371
31.1002 31.585
31.2855 31.4024
31.4708 31.2931
31.6563 30.785
31.8418 30.5615
32.0275 30.3888
32.2132 29.7558
32.399 29.3914
32.5848 28.9452
32.7708 28.5415
32.9569 28.4373
33.143 28.2395
33.3293 27.7776
33.5158 27.4695
33.7022 26.9998
33.8887 26.6329
34.0753 26.4202
34.262 26.037
34.4488 25.7445
34.6357 25.3343
34.8227 25.0891
35.0098 24.891
35.1969 24.4471
35.3842 24.2821
35.5716 24.0932
35.759 23.8458
35.9468 23.4541
36.1345 23.2405
36.3222 23.0118
36.5101 22.7917
36.6981 22.4124
36.8861 22.1689
37.0743 21.8512
37.2626 21.5638
37.451 21.269
37.6395 21.1099
37.8281 20.7357
38.0168 20.471
38.2056 20.1912
38.3945 19.9661
38.5837 19.7289
38.7728 19.4737
38.9621 19.1729
39.1514 19.0232
39.3409 18.7305
39.5304 18.5039
39.7201 18.3606
39.9099 18.0706
40.0999 17.8225
40.2899 17.6184
40.48 17.3917
40.6703 17.144
40.8607 17.0479
41.0512 16.8378
41.242 16.4979
41.4327 16.2882
41.6236 16.0881
41.8146 15.919
42.0057 15.695
42.1969 15.4285
42.3882 15.2808
42.5797 15.0651
42.7713 14.8485
42.963 14.6255
43.1549 14.4223
43.3468 14.2194
43.5389 14.0097
43.7312 13.8304
43.9237 13.688
44.1162 13.4642
44.3088 13.2328
44.5016 13.1048
44.6945 12.9366
44.8875 12.7476
45.0806 12.525
45.2739 12.3902
45.4673 12.2228
45.6609 12.0401
45.8546 11.8552
46.0484 11.6769
46.2424 11.5218
46.4365 11.3635
46.631 11.1972
46.8254 11.0099
47.0199 10.8549
47.2146 10.7066
47.4095 10.5094
47.6044 10.3805
47.7996 10.2377
47.9948 10.0476
48.1902 9.91733
48.3858 9.78971
48.5815 9.67104
48.7774 9.54428
48.9734 9.3618
49.1696 9.27776
49.3661 9.06512
49.5626 8.96417
49.7592 8.84396
49.956 8.70468
50.153 8.57967
50.3501 8.38895
50.5474 8.25852
50.7448 8.17167
50.9424 8.07125
51.1402 7.91838
51.3381 7.75783
51.5362 7.65421
51.7344 7.52359
51.9328 7.41013
52.1316 7.23863
52.3304 7.17784
52.5293 7.02693
52.7284 6.93919
52.9276 6.76818
53.1271 6.71238
53.3267 6.6062
53.5265 6.45967
53.7264 6.3554
53.9266 6.21843
54.1269 6.14414
54.3274 6.0254
54.528 5.87688
54.7289 5.68979
54.9301 5.56418
55.1314 5.44919
55.3328 5.23034
55.5344 5.00962
55.7361 4.87141