File: XRD/Ni3Fe_FD0379.xy
TT I
1.27165 7.5647
1.45013 6.12862
1.62863 6.01272
1.80712 5.25012
1.98562 4.51045
2.16411 4.75025
2.34263 5.05794
2.52115 6.7273
2.69965 7.33231
2.87818 8.62637
3.05672 11.0743
3.23527 14.8808
3.4138 18.9666
3.59237 24.0769
3.77094 26.1086
3.9495 30.1419
4.12809 35.5204
4.30669 188.827
4.4853 63.1964
4.6639 56.795
4.84253 68.6336
5.02118 90.0044
5.19981 479.401
5.37848 225.868
5.55716 105.996
5.73586 95.5189
5.91455 99.5594
6.09328 3999.79
6.27201 86.8581
6.45075 69.4194
6.62952 64.2954
6.8083 60.4323
6.98711 56.8145
7.16591 56.4291
7.34475 87.0202
7.5236 55.9801
7.70247 57.4428
7.88135 59.1498
8.06026 63.8934
8.23919 71.2688
8.41812 88.0433
8.59709 1169.56
8.77609 105.028
8.9551 93.6281
9.13412 84.4348
9.31318 85.5263
9.49226 86.9955
9.67134 99.7539
9.85047 103.011
10.0296 400.893
10.2088 512.663
10.388 108.568
10.5672 478.259
10.7465 89.5164
10.9257 80.2682
11.105 73.7565
11.2844 71.9118
11.4637 66.747
11.6431 65.0922
11.8225 63.9296
12.002 65.5052
12.1814 150.171
12.3609 72.3404
12.5405 66.2833
12.72 71.3318
12.8996 72.9825
13.0792 81.6192
13.2589 241.104
13.4386 140.855
13.6183 242.159
13.7981 106.784
13.9779 77.8564
14.1577 74.4865
14.3376 73.1064
14.5175 70.9572
14.6974 72.5785
14.8774 116.006
15.0574 161.877
15.2374 72.9186
15.4175 68.1604
15.5976 67.8612
15.7778 99.685
15.958 167.305
16.1382 64.2187
16.3185 59.9812
16.4988 57.2287
16.6792 56.0796
16.8596 56.5699
17.04 57.3771
17.2205 68.4845
17.401 74.8156
17.5815 60.7463
17.7622 63.0159
17.9428 77.3236
18.1237 136.001
18.3044 91.7403
18.4852 82.4432
18.666 62.0369
18.8469 59.7586
19.0278 58.5235
19.2088 61.6096
19.3898 76.2451
19.5709 55.9901
19.752 54.7474
19.9332 57.9027
20.1144 70.6072
20.2957 64.4646
20.477 55.9962
20.6586 51.1511
20.84 50.3353
21.0215 50.0596
21.203 51.9307
21.3846 50.3921
21.5662 50.2466
21.7479 54.4163
21.9297 65.2997
22.1115 57.0819
22.2933 51.6772
22.4753 50.2782
22.6572 50.4104
22.8393 53.5588
23.0214 58.8054
23.2037 50.2229
23.3859 51.2402
23.5682 57.1997
23.7505 50.1418
23.9329 46.4443
24.1154 45.3676
24.2979 44.625
24.4805 44.0504
24.6631 43.8922
24.8458 43.4765
25.0286 44.1091
25.2114 45.7675
25.3943 45.8235
25.5773 42.0784
25.7605 41.6717
25.9436 41.9402
26.1268 42.7021
26.31 41.2598
26.4933 41.9034
26.6767 43.233
26.8601 41.6575
27.0437 40.2074
27.2272 39.6725
27.4109 39.4323
27.5946 39.3904
27.7784 39.0533
27.9623 39.4685
28.1462 40.0149
28.3304 38.3147
28.5145 37.027
28.6987 36.5815
28.8829 36.4637
29.0673 35.6396
29.2517 35.2849
29.4361 35.0783
29.6207 34.119
29.8053 33.7774
29.99 33.4682
30.1748 33.3466
30.3597 33.2221
30.5447 33.0012
30.7297 32.9909
30.915 32.4444
31.1002 32.0504
31.2855 31.7535
31.4708 31.6304
31.6563 31.269
31.8418 30.8709
32.0275 30.766
32.2132 30.2444
32.399 29.6984
32.5848 29.2545
32.7708 28.8989
32.9569 28.8803
33.143 28.5393
33.3293 28.1396
33.5158 27.7808
33.7022 27.2996
33.8887 27.092
34.0753 26.641
34.262 26.2678
34.4488 26.0127
34.6357 25.6125
34.8227 25.3969
35.0098 25.1442
35.1969 24.8374
35.3842 24.6522
35.5716 24.413
35.759 24.1096
35.9468 23.7343
36.1345 23.5363
36.3222 23.3042
36.5101 23.0222
36.6981 22.7557
36.8861 22.4273
37.0743 22.0911
37.2626 21.8202
37.451 21.4618
37.6395 21.4042
37.8281 21.0654
38.0168 20.7931
38.2056 20.5088
38.3945 20.233
38.5837 19.9995
38.7728 19.6359
38.9621 19.4947
39.1514 19.2744
39.3409 18.979
39.5304 18.7607
39.7201 18.5179
39.9099 18.2786
40.0999 18.0337
40.2899 17.8278
40.48 17.5864
40.6703 17.3682
40.8607 17.1888
41.0512 16.8996
41.242 16.6609
41.4327 16.5379
41.6236 16.2327
41.8146 16.0967
42.0057 15.8573
42.1969 15.6114
42.3882 15.4473
42.5797 15.2132
42.7713 14.9952
42.963 14.8172
43.1549 14.6251
43.3468 14.3761
43.5389 14.1867
43.7312 13.987
43.9237 13.8056
44.1162 13.6775
44.3088 13.4311
44.5016 13.2135
44.6945 13.0427
44.8875 12.8848
45.0806 12.6978
45.2739 12.525
45.4673 12.3225
45.6609 12.1505
45.8546 12.0209
46.0484 11.8103
46.2424 11.6435
46.4365 11.4914
46.631 11.3347
46.8254 11.1389
47.0199 11.0108
47.2146 10.8473
47.4095 10.6484
47.6044 10.5114
47.7996 10.384
47.9948 10.2158
48.1902 10.0633
48.3858 9.90862
48.5815 9.79879
48.7774 9.63101
48.9734 9.50804
49.1696 9.32756
49.3661 9.23483
49.5626 9.0781
49.7592 8.91152
49.956 8.7655
50.153 8.66873
50.3501 8.53762
50.5474 8.36999
50.7448 8.23838
50.9424 8.14299
51.1402 8.04245
51.3381 7.85237
51.5362 7.73056
51.7344 7.61208
51.9328 7.4964
52.1316 7.33455
52.3304 7.23957
52.5293 7.12578
52.7284 7.01468
52.9276 6.89072
53.1271 6.77335
53.3267 6.66798
53.5265 6.56634
53.7264 6.42031
53.9266 6.35961
54.1269 6.19662
54.3274 6.07337
54.528 5.95955
54.7289 5.77431
54.9301 5.62716
55.1314 5.48927
55.3328 5.27615
55.5344 5.08045
55.7361 4.90771