File: XRD/Ni3Fe_FD0532.xy
TT I
1.27165 7.762
1.45013 6.30243
1.62863 5.56934
1.80712 4.74562
1.98562 4.9321
2.16411 4.84268
2.34263 4.83698
2.52115 6.10388
2.69965 7.21769
2.87818 8.43093
3.05672 10.9218
3.23527 15.2263
3.4138 18.7383
3.59237 24.472
3.77094 26.2387
3.9495 29.9647
4.12809 35.7155
4.30669 279.353
4.4853 71.7598
4.6639 56.015
4.84253 67.1778
5.02118 87.291
5.19981 370.412
5.37848 206.413
5.55716 103.418
5.73586 92.9046
5.91455 95.1193
6.09328 4081.79
6.27201 85.6865
6.45075 68.4353
6.62952 63.9492
6.8083 59.7376
6.98711 56.4759
7.16591 56.4785
7.34475 105.545
7.5236 55.8104
7.70247 57.0459
7.88135 58.612
8.06026 62.9713
8.23919 70.3151
8.41812 86.4086
8.59709 1097.5
8.77609 102.06
8.9551 94.5137
9.13412 82.7717
9.31318 82.918
9.49226 85.2854
9.67134 102.007
9.85047 101.0
10.0296 331.561
10.2088 467.29
10.388 106.29
10.5672 493.191
10.7465 87.68
10.9257 79.8681
11.105 72.7435
11.2844 72.2425
11.4637 65.5823
11.6431 64.5415
11.8225 63.1589
12.002 64.0066
12.1814 146.945
12.3609 73.7435
12.5405 65.325
12.72 72.1483
12.8996 71.7393
13.0792 79.6604
13.2589 225.451
13.4386 131.968
13.6183 233.817
13.7981 103.409
13.9779 76.6143
14.1577 73.5293
14.3376 73.2544
14.5175 69.4368
14.6974 71.2633
14.8774 108.355
15.0574 160.191
15.2374 72.711
15.4175 67.3088
15.5976 66.6429
15.7778 93.791
15.958 164.764
16.1382 64.3234
16.3185 59.7514
16.4988 56.2481
16.6792 55.2295
16.8596 56.0254
17.04 56.4701
17.2205 66.6025
17.401 73.6832
17.5815 59.9541
17.7622 61.9731
17.9428 73.8561
18.1237 138.146
18.3044 89.7759
18.4852 81.5014
18.666 61.3767
18.8469 58.7152
19.0278 57.7506
19.2088 60.1872
19.3898 77.3162
19.5709 55.0608
19.752 53.9622
19.9332 56.5947
20.1144 70.2326
20.2957 63.8135
20.477 54.7691
20.6586 50.2226
20.84 49.4953
21.0215 49.1351
21.203 51.3039
21.3846 49.7495
21.5662 49.233
21.7479 52.862
21.9297 65.0319
22.1115 56.3859
22.2933 50.733
22.4753 49.4642
22.6572 49.3571
22.8393 52.147
23.0214 58.5292
23.2037 49.3927
23.3859 50.1602
23.5682 56.8933
23.7505 49.2993
23.9329 45.8828
24.1154 44.6957
24.2979 43.8411
24.4805 43.3987
24.6631 43.3326
24.8458 42.7147
25.0286 43.2965
25.2114 45.0277
25.3943 45.2305
25.5773 41.375
25.7605 40.8507
25.9436 41.1787
26.1268 42.1318
26.31 40.6225
26.4933 41.2115
26.6767 42.6402
26.8601 41.0015
27.0437 39.3992
27.2272 38.9995
27.4109 38.8245
27.5946 38.7752
27.7784 38.2772
27.9623 38.7762
28.1462 39.2613
28.3304 37.7413
28.5145 36.4116
28.6987 36.066
28.8829 35.8551
29.0673 35.1074
29.2517 34.761
29.4361 34.5606
29.6207 33.5374
29.8053 33.2144
29.99 32.9682
30.1748 32.8664
30.3597 32.6932
30.5447 32.592
30.7297 32.5508
30.915 32.0634
31.1002 31.5562
31.2855 31.232
31.4708 31.1526
31.6563 30.7336
31.8418 30.4735
32.0275 30.2584
32.2132 29.7683
32.399 29.2748
32.5848 28.8119
32.7708 28.5057
32.9569 28.3219
33.143 28.1132
33.3293 27.7283
33.5158 27.4216
33.7022 26.9117
33.8887 26.6942
34.0753 26.3031
34.262 25.9486
34.4488 25.6226
34.6357 25.3302
34.8227 25.0245
35.0098 24.8083
35.1969 24.5175
35.3842 24.2391
35.5716 24.1089
35.759 23.7843
35.9468 23.4351
36.1345 23.2517
36.3222 22.9347
36.5101 22.708
36.6981 22.4069
36.8861 22.1244
37.0743 21.7928
37.2626 21.5636
37.451 21.3073
37.6395 21.0449
37.8281 20.7451
38.0168 20.5235
38.2056 20.1547
38.3945 19.937
38.5837 19.656
38.7728 19.4317
38.9621 19.1997
39.1514 18.9517
39.3409 18.6779
39.5304 18.5013
39.7201 18.2855
39.9099 18.0782
40.0999 17.8618
40.2899 17.6598
40.48 17.3433
40.6703 17.15
40.8607 16.9634
41.0512 16.7473
41.242 16.4549
41.4327 16.2353
41.6236 16.0624
41.8146 15.9092
42.0057 15.6502
42.1969 15.4368
42.3882 15.2807
42.5797 15.0453
42.7713 14.8437
42.963 14.6407
43.1549 14.4097
43.3468 14.2232
43.5389 14.0321
43.7312 13.8422
43.9237 13.6337
44.1162 13.4636
44.3088 13.2491
44.5016 13.0255
44.6945 12.8768
44.8875 12.733
45.0806 12.5419
45.2739 12.3596
45.4673 12.2269
45.6609 11.9976
45.8546 11.858
46.0484 11.705
46.2424 11.5087
46.4365 11.3515
46.631 11.1865
46.8254 11.0262
47.0199 10.8425
47.2146 10.6847
47.4095 10.5458
47.6044 10.3863
47.7996 10.2259
47.9948 10.0921
48.1902 9.93992
48.3858 9.76559
48.5815 9.62684
48.7774 9.50775
48.9734 9.37809
49.1696 9.21397
49.3661 9.0895
49.5626 8.89901
49.7592 8.83211
49.956 8.71257
50.153 8.56225
50.3501 8.40543
50.5474 8.28636
50.7448 8.14862
50.9424 8.05203
51.1402 7.89525
51.3381 7.78548
51.5362 7.65843
51.7344 7.5199
51.9328 7.38046
52.1316 7.25848
52.3304 7.15824
52.5293 7.05854
52.7284 6.93591
52.9276 6.81087
53.1271 6.68541
53.3267 6.59675
53.5265 6.46388
53.7264 6.39986
53.9266 6.26827
54.1269 6.17394
54.3274 6.04912
54.528 5.87351
54.7289 5.72693
54.9301 5.54907
55.1314 5.39432
55.3328 5.17893
55.5344 5.04541
55.7361 4.90997