File: XRD/Ni3Fe_FD0386.xy
TT I
1.27165 7.64341
1.45013 6.18137
1.62863 5.35133
1.80712 4.77166
1.98562 5.28956
2.16411 5.05116
2.34263 4.99948
2.52115 6.04463
2.69965 7.67011
2.87818 8.52852
3.05672 11.281
3.23527 14.9505
3.4138 18.9387
3.59237 24.2983
3.77094 26.5974
3.9495 30.1182
4.12809 35.4892
4.30669 210.52
4.4853 65.4074
4.6639 56.9338
4.84253 69.1724
5.02118 90.1909
5.19981 462.769
5.37848 225.814
5.55716 105.975
5.73586 95.4328
5.91455 98.9042
6.09328 4023.81
6.27201 87.1903
6.45075 69.2547
6.62952 64.5219
6.8083 60.2011
6.98711 57.0331
7.16591 56.7072
7.34475 91.2831
7.5236 55.9191
7.70247 57.603
7.88135 59.1143
8.06026 64.0487
8.23919 71.4451
8.41812 88.2366
8.59709 1146.1
8.77609 105.038
8.9551 94.0558
9.13412 84.4202
9.31318 85.2761
9.49226 86.5953
9.67134 101.109
9.85047 102.946
10.0296 387.754
10.2088 503.844
10.388 107.995
10.5672 482.196
10.7465 89.4201
10.9257 80.6863
11.105 73.7037
11.2844 71.9415
11.4637 66.5863
11.6431 65.3089
11.8225 64.3928
12.002 65.2925
12.1814 149.221
12.3609 73.0845
12.5405 66.1421
12.72 71.5714
12.8996 72.7708
13.0792 81.437
13.2589 236.745
13.4386 140.537
13.6183 239.791
13.7981 106.354
13.9779 77.7226
14.1577 74.1221
14.3376 73.5391
14.5175 70.6795
14.6974 72.3765
14.8774 114.094
15.0574 162.41
15.2374 73.0494
15.4175 68.1064
15.5976 67.5195
15.7778 98.441
15.958 167.035
16.1382 64.4143
16.3185 60.2874
16.4988 57.0192
16.6792 56.0122
16.8596 56.7004
17.04 57.431
17.2205 68.1755
17.401 74.4891
17.5815 60.8941
17.7622 62.7786
17.9428 76.897
18.1237 137.131
18.3044 91.3247
18.4852 81.9803
18.666 62.0898
18.8469 59.703
19.0278 58.4374
19.2088 61.4278
19.3898 76.4747
19.5709 55.7877
19.752 54.8365
19.9332 57.8613
20.1144 70.5176
20.2957 64.4996
20.477 55.9225
20.6586 51.1949
20.84 50.089
21.0215 49.8504
21.203 51.953
21.3846 50.5438
21.5662 50.142
21.7479 54.1134
21.9297 65.4814
22.1115 56.9532
22.2933 51.5999
22.4753 50.2698
22.6572 50.1834
22.8393 53.157
23.0214 58.7899
23.2037 50.1334
23.3859 51.1895
23.5682 57.2324
23.7505 50.1032
23.9329 46.3994
24.1154 45.1721
24.2979 44.5875
24.4805 44.04
24.6631 43.9116
24.8458 43.3738
25.0286 43.8915
25.2114 45.6048
25.3943 45.6254
25.5773 42.1055
25.7605 41.4132
25.9436 41.9781
26.1268 42.7326
26.31 41.2721
26.4933 41.844
26.6767 43.0386
26.8601 41.4072
27.0437 39.8894
27.2272 39.5601
27.4109 39.4533
27.5946 39.4617
27.7784 38.8171
27.9623 39.279
28.1462 39.8342
28.3304 38.2423
28.5145 36.937
28.6987 36.4946
28.8829 36.304
29.0673 35.6508
29.2517 35.2352
29.4361 34.968
29.6207 34.0526
29.8053 33.9124
29.99 33.5109
30.1748 33.209
30.3597 33.0688
30.5447 33.0091
30.7297 33.0023
30.915 32.4359
31.1002 31.8938
31.2855 31.6972
31.4708 31.6183
31.6563 31.082
31.8418 30.8184
32.0275 30.6114
32.2132 30.1465
32.399 29.6322
32.5848 29.3243
32.7708 28.8188
32.9569 28.792
33.143 28.5243
33.3293 28.1309
33.5158 27.7096
33.7022 27.212
33.8887 26.9637
34.0753 26.6936
34.262 26.2823
34.4488 25.9915
34.6357 25.6661
34.8227 25.2907
35.0098 25.1693
35.1969 24.8546
35.3842 24.6057
35.5716 24.4236
35.759 24.0798
35.9468 23.7734
36.1345 23.4644
36.3222 23.224
36.5101 23.0086
36.6981 22.6744
36.8861 22.4279
37.0743 22.0865
37.2626 21.8589
37.451 21.5632
37.6395 21.3152
37.8281 21.0665
38.0168 20.6887
38.2056 20.5094
38.3945 20.2767
38.5837 19.9399
38.7728 19.7386
38.9621 19.4296
39.1514 19.1874
39.3409 18.881
39.5304 18.6875
39.7201 18.5402
39.9099 18.3612
40.0999 18.0396
40.2899 17.8276
40.48 17.6213
40.6703 17.3518
40.8607 17.1365
41.0512 16.8959
41.242 16.6719
41.4327 16.4427
41.6236 16.2474
41.8146 16.0589
42.0057 15.868
42.1969 15.6013
42.3882 15.3948
42.5797 15.1982
42.7713 15.0102
42.963 14.7879
43.1549 14.5839
43.3468 14.4216
43.5389 14.1468
43.7312 13.9751
43.9237 13.7627
44.1162 13.576
44.3088 13.431
44.5016 13.2171
44.6945 13.03
44.8875 12.8622
45.0806 12.661
45.2739 12.501
45.4673 12.3414
45.6609 12.1475
45.8546 12.0068
46.0484 11.8834
46.2424 11.6429
46.4365 11.4722
46.631 11.3119
46.8254 11.1203
47.0199 10.968
47.2146 10.8015
47.4095 10.6771
47.6044 10.496
47.7996 10.3312
47.9948 10.2041
48.1902 10.0721
48.3858 9.88839
48.5815 9.77857
48.7774 9.66287
48.9734 9.47007
49.1696 9.3536
49.3661 9.18641
49.5626 9.02554
49.7592 8.93809
49.956 8.8188
50.153 8.63916
50.3501 8.52712
50.5474 8.39178
50.7448 8.27312
50.9424 8.16545
51.1402 8.01978
51.3381 7.84161
51.5362 7.74691
51.7344 7.61516
51.9328 7.48643
52.1316 7.30572
52.3304 7.25293
52.5293 7.13553
52.7284 7.01056
52.9276 6.87269
53.1271 6.76372
53.3267 6.63677
53.5265 6.55285
53.7264 6.44567
53.9266 6.3316
54.1269 6.1974
54.3274 6.11107
54.528 5.96703
54.7289 5.77238
54.9301 5.63399
55.1314 5.47632
55.3328 5.25759
55.5344 5.03784
55.7361 4.96623