File: XRD/Ni3Fe_FD0664.xy
TT I
1.27165 7.82265
1.45013 6.44601
1.62863 5.45501
1.80712 4.77973
1.98562 4.70163
2.16411 4.59789
2.34263 5.72807
2.52115 7.03999
2.69965 8.74506
2.87818 8.89467
3.05672 11.0722
3.23527 15.0152
3.4138 18.6376
3.59237 23.7919
3.77094 26.174
3.9495 29.9988
4.12809 34.2894
4.30669 194.64
4.4853 63.3724
4.6639 55.4141
4.84253 67.5958
5.02118 87.2633
5.19981 350.192
5.37848 182.41
5.55716 101.8
5.73586 92.0239
5.91455 94.5118
6.09328 4525.98
6.27201 82.1021
6.45075 66.8289
6.62952 62.7898
6.8083 58.0948
6.98711 56.0278
7.16591 55.0247
7.34475 87.6282
7.5236 54.5412
7.70247 56.0594
7.88135 57.8429
8.06026 61.8388
8.23919 69.4807
8.41812 85.1845
8.59709 1202.35
8.77609 98.6826
8.9551 90.1716
9.13412 81.472
9.31318 82.1716
9.49226 84.466
9.67134 97.3843
9.85047 99.6042
10.0296 347.512
10.2088 375.917
10.388 104.255
10.5672 516.369
10.7465 86.2147
10.9257 78.1954
11.105 71.7989
11.2844 69.6804
11.4637 64.6425
11.6431 63.4317
11.8225 62.6224
12.002 63.5399
12.1814 153.602
12.3609 69.5863
12.5405 64.3136
12.72 69.4538
12.8996 70.5228
13.0792 79.0088
13.2589 242.523
13.4386 120.99
13.6183 251.755
13.7981 94.7109
13.9779 75.7196
14.1577 72.0277
14.3376 71.1986
14.5175 68.8488
14.6974 70.3493
14.8774 110.619
15.0574 143.431
15.2374 70.6037
15.4175 66.3153
15.5976 65.6782
15.7778 94.7737
15.958 153.767
16.1382 62.3699
16.3185 58.2619
16.4988 55.3747
16.6792 54.5152
16.8596 54.9575
17.04 55.5381
17.2205 66.7018
17.401 70.2468
17.5815 59.1825
17.7622 61.1152
17.9428 73.768
18.1237 142.405
18.3044 90.8426
18.4852 75.9384
18.666 60.3563
18.8469 57.8531
19.0278 57.0389
19.2088 59.4058
19.3898 77.1091
19.5709 54.0746
19.752 53.3039
19.9332 56.1311
20.1144 69.8435
20.2957 64.0843
20.477 53.2052
20.6586 49.6244
20.84 48.6636
21.0215 48.4814
21.203 50.9005
21.3846 48.7507
21.5662 48.654
21.7479 52.6609
21.9297 64.9502
22.1115 55.9976
22.2933 49.6293
22.4753 48.7576
22.6572 48.7669
22.8393 51.8827
23.0214 57.167
23.2037 48.8156
23.3859 49.5267
23.5682 57.3357
23.7505 47.9659
23.9329 45.0908
24.1154 44.0541
24.2979 43.3773
24.4805 42.9943
24.6631 42.757
24.8458 42.2442
25.0286 42.6802
25.2114 44.6878
25.3943 44.5601
25.5773 40.8993
25.7605 40.5121
25.9436 40.7682
26.1268 41.738
26.31 40.0067
26.4933 40.7903
26.6767 42.1315
26.8601 40.439
27.0437 38.8175
27.2272 38.4896
27.4109 38.4338
27.5946 38.4335
27.7784 37.8037
27.9623 38.5932
28.1462 38.8111
28.3304 37.171
28.5145 35.9205
28.6987 35.5164
28.8829 35.4893
29.0673 34.6798
29.2517 34.3076
29.4361 34.161
29.6207 33.0932
29.8053 32.8784
29.99 32.5467
30.1748 32.4399
30.3597 32.1942
30.5447 32.1103
30.7297 32.2551
30.915 31.6344
31.1002 31.0961
31.2855 30.8391
31.4708 30.8366
31.6563 30.3735
31.8418 30.132
32.0275 29.8501
32.2132 29.3228
32.399 28.8969
32.5848 28.4964
32.7708 28.0436
32.9569 27.9183
33.143 27.7793
33.3293 27.4074
33.5158 27.0369
33.7022 26.556
33.8887 26.3644
34.0753 25.9503
34.262 25.5365
34.4488 25.314
34.6357 24.9511
34.8227 24.6889
35.0098 24.4868
35.1969 24.2218
35.3842 23.9855
35.5716 23.666
35.759 23.4802
35.9468 23.1291
36.1345 22.8385
36.3222 22.683
36.5101 22.4203
36.6981 22.1626
36.8861 21.7078
37.0743 21.4568
37.2626 21.242
37.451 20.9798
37.6395 20.8324
37.8281 20.492
38.0168 20.1396
38.2056 19.9351
38.3945 19.6611
38.5837 19.4219
38.7728 19.217
38.9621 18.9635
39.1514 18.7346
39.3409 18.4458
39.5304 18.2327
39.7201 18.0788
39.9099 17.7747
40.0999 17.6042
40.2899 17.3495
40.48 17.115
40.6703 16.9021
40.8607 16.7378
41.0512 16.5115
41.242 16.2493
41.4327 16.077
41.6236 15.808
41.8146 15.6532
42.0057 15.4352
42.1969 15.1715
42.3882 15.0114
42.5797 14.7967
42.7713 14.6535
42.963 14.3785
43.1549 14.2
43.3468 14.0369
43.5389 13.8317
43.7312 13.6339
43.9237 13.4251
44.1162 13.2291
44.3088 13.0316
44.5016 12.9351
44.6945 12.7077
44.8875 12.547
45.0806 12.343
45.2739 12.2054
45.4673 12.0552
45.6609 11.82
45.8546 11.7316
46.0484 11.5492
46.2424 11.3758
46.4365 11.2208
46.631 11.0238
46.8254 10.8772
47.0199 10.6625
47.2146 10.5535
47.4095 10.3978
47.6044 10.2484
47.7996 10.0795
47.9948 9.95939
48.1902 9.76914
48.3858 9.65984
48.5815 9.52094
48.7774 9.3975
48.9734 9.24005
49.1696 9.08978
49.3661 8.92862
49.5626 8.79686
49.7592 8.66787
49.956 8.56534
50.153 8.41517
50.3501 8.29502
50.5474 8.19855
50.7448 8.04423
50.9424 7.93792
51.1402 7.81234
51.3381 7.68122
51.5362 7.54005
51.7344 7.39417
51.9328 7.28279
52.1316 7.15196
52.3304 7.0612
52.5293 6.9429
52.7284 6.85965
52.9276 6.68398
53.1271 6.59875
53.3267 6.48676
53.5265 6.38544
53.7264 6.26014
53.9266 6.17384
54.1269 6.05327
54.3274 5.96431
54.528 5.78229
54.7289 5.63613
54.9301 5.50141
55.1314 5.31898
55.3328 5.15449
55.5344 4.92004
55.7361 4.84018