File: XRD/Ni3Fe_FD0476.xy
TT I
1.27165 6.92118
1.45013 6.40026
1.62863 5.58117
1.80712 5.079
1.98562 4.69881
2.16411 4.81579
2.34263 5.07049
2.52115 6.94024
2.69965 7.19146
2.87818 8.17143
3.05672 11.3938
3.23527 15.073
3.4138 18.832
3.59237 23.4521
3.77094 26.2491
3.9495 29.667
4.12809 34.4267
4.30669 114.423
4.4853 55.5733
4.6639 56.053
4.84253 69.4095
5.02118 90.0778
5.19981 539.284
5.37848 206.051
5.55716 104.887
5.73586 95.1978
5.91455 99.3111
6.09328 4247.95
6.27201 83.2889
6.45075 68.8684
6.62952 63.4016
6.8083 59.4073
6.98711 56.4364
7.16591 56.1773
7.34475 70.698
7.5236 55.282
7.70247 56.9188
7.88135 58.5688
8.06026 63.583
8.23919 70.6459
8.41812 86.2364
8.59709 1245.05
8.77609 101.232
8.9551 90.5172
9.13412 84.2522
9.31318 85.4244
9.49226 86.1045
9.67134 96.8397
9.85047 102.82
10.0296 412.325
10.2088 401.243
10.388 108.577
10.5672 500.812
10.7465 87.9013
10.9257 78.7114
11.105 72.6006
11.2844 69.9816
11.4637 66.0302
11.6431 64.4364
11.8225 63.5555
12.002 65.6816
12.1814 156.131
12.3609 68.8081
12.5405 65.6629
12.72 69.4664
12.8996 72.5946
13.0792 82.4264
13.2589 252.405
13.4386 125.09
13.6183 254.142
13.7981 97.6209
13.9779 77.1426
14.1577 73.1276
14.3376 71.7288
14.5175 70.3086
14.6974 71.9762
14.8774 118.852
15.0574 147.743
15.2374 70.8917
15.4175 67.5782
15.5976 67.3446
15.7778 101.496
15.958 154.412
16.1382 62.5057
16.3185 58.8613
16.4988 56.3189
16.6792 55.5429
16.8596 55.8835
17.04 57.2079
17.2205 68.9869
17.401 71.5805
17.5815 60.2412
17.7622 62.4096
17.9428 77.4002
18.1237 140.142
18.3044 92.142
18.4852 78.1663
18.666 61.208
18.8469 58.9493
19.0278 57.9027
19.2088 60.8828
19.3898 76.2541
19.5709 55.0012
19.752 54.1696
19.9332 57.6549
20.1144 70.618
20.2957 64.2046
20.477 54.0521
20.6586 50.5733
20.84 49.7183
21.0215 49.5201
21.203 51.5618
21.3846 49.742
21.5662 49.9994
21.7479 53.8353
21.9297 65.4818
22.1115 56.6467
22.2933 50.5231
22.4753 49.4046
22.6572 49.7252
22.8393 52.8431
23.0214 57.8347
23.2037 49.6212
23.3859 50.9197
23.5682 57.4202
23.7505 48.9689
23.9329 45.8754
24.1154 44.6787
24.2979 44.0651
24.4805 43.6601
24.6631 43.471
24.8458 42.993
25.0286 43.6123
25.2114 45.354
25.3943 45.1734
25.5773 41.4723
25.7605 41.0783
25.9436 41.5173
26.1268 42.3365
26.31 40.7879
26.4933 41.4466
26.6767 42.7689
26.8601 41.0548
27.0437 39.4619
27.2272 39.1128
27.4109 39.0885
27.5946 38.9078
27.7784 38.5701
27.9623 39.0217
28.1462 39.4186
28.3304 37.5138
28.5145 36.5423
28.6987 36.1814
28.8829 36.0031
29.0673 35.1464
29.2517 34.9167
29.4361 34.6553
29.6207 33.6642
29.8053 33.3937
29.99 33.0417
30.1748 32.9658
30.3597 32.6968
30.5447 32.7163
30.7297 32.8217
30.915 32.0655
31.1002 31.6343
31.2855 31.33
31.4708 31.3167
31.6563 30.7617
31.8418 30.5596
32.0275 30.3556
32.2132 29.826
32.399 29.4364
32.5848 28.8364
32.7708 28.6085
32.9569 28.434
33.143 28.0961
33.3293 27.783
33.5158 27.4347
33.7022 27.007
33.8887 26.7051
34.0753 26.365
34.262 26.0765
34.4488 25.6136
34.6357 25.3229
34.8227 24.942
35.0098 24.9262
35.1969 24.5502
35.3842 24.3232
35.5716 24.1404
35.759 23.808
35.9468 23.4066
36.1345 23.1931
36.3222 23.0277
36.5101 22.6826
36.6981 22.459
36.8861 22.1572
37.0743 21.8107
37.2626 21.5733
37.451 21.2769
37.6395 21.0816
37.8281 20.8355
38.0168 20.5386
38.2056 20.2176
38.3945 19.9748
38.5837 19.7769
38.7728 19.5159
38.9621 19.1938
39.1514 18.994
39.3409 18.7
39.5304 18.5283
39.7201 18.3096
39.9099 18.0878
40.0999 17.7891
40.2899 17.57
40.48 17.4028
40.6703 17.0951
40.8607 17.0435
41.0512 16.7754
41.242 16.4657
41.4327 16.3111
41.6236 16.0972
41.8146 15.8812
42.0057 15.6263
42.1969 15.4233
42.3882 15.2389
42.5797 14.9562
42.7713 14.7927
42.963 14.6278
43.1549 14.3982
43.3468 14.1858
43.5389 13.9905
43.7312 13.7926
43.9237 13.617
44.1162 13.4382
44.3088 13.2333
44.5016 13.0959
44.6945 12.8686
44.8875 12.7216
45.0806 12.5283
45.2739 12.3883
45.4673 12.1939
45.6609 12.0099
45.8546 11.8619
46.0484 11.6933
46.2424 11.5062
46.4365 11.3593
46.631 11.1511
46.8254 11.0214
47.0199 10.8609
47.2146 10.7147
47.4095 10.4973
47.6044 10.3569
47.7996 10.1954
47.9948 10.0952
48.1902 9.91225
48.3858 9.74342
48.5815 9.68975
48.7774 9.52183
48.9734 9.37076
49.1696 9.23591
49.3661 9.07898
49.5626 8.89773
49.7592 8.81334
49.956 8.70675
50.153 8.55194
50.3501 8.42318
50.5474 8.28575
50.7448 8.156
50.9424 7.98684
51.1402 7.87962
51.3381 7.75988
51.5362 7.61953
51.7344 7.51233
51.9328 7.40164
52.1316 7.25131
52.3304 7.14522
52.5293 7.02234
52.7284 6.96598
52.9276 6.77168
53.1271 6.6863
53.3267 6.59398
53.5265 6.49112
53.7264 6.38177
53.9266 6.26158
54.1269 6.12748
54.3274 6.0282
54.528 5.89951
54.7289 5.72726
54.9301 5.52731
55.1314 5.46016
55.3328 5.21153
55.5344 5.04427
55.7361 4.86083