File: XRD/Ni3Fe_FD0867.xy
TT I
1.27165 7.2181
1.45013 5.82418
1.62863 5.50874
1.80712 5.08753
1.98562 4.45943
2.16411 5.22618
2.34263 5.33118
2.52115 7.14965
2.69965 8.62801
2.87818 9.11713
3.05672 11.0635
3.23527 14.8132
3.4138 19.087
3.59237 23.7904
3.77094 25.6055
3.9495 29.3582
4.12809 35.3069
4.30669 238.253
4.4853 67.0283
4.6639 54.7143
4.84253 66.1775
5.02118 84.6738
5.19981 292.742
5.37848 177.524
5.55716 100.27
5.73586 90.4434
5.91455 90.8461
6.09328 4376.0
6.27201 81.6541
6.45075 66.5019
6.62952 62.0716
6.8083 58.1317
6.98711 55.2515
7.16591 54.4647
7.34475 94.9199
7.5236 54.2198
7.70247 55.3952
7.88135 57.0353
8.06026 61.0585
8.23919 68.3503
8.41812 83.6203
8.59709 1119.74
8.77609 97.6897
8.9551 90.6896
9.13412 80.6574
9.31318 81.2723
9.49226 83.4224
9.67134 97.7463
9.85047 97.9943
10.0296 301.567
10.2088 405.371
10.388 102.705
10.5672 515.34
10.7465 85.1923
10.9257 77.4253
11.105 71.0035
11.2844 69.7771
11.4637 64.226
11.6431 62.913
11.8225 61.5517
12.002 62.3995
12.1814 150.027
12.3609 70.1981
12.5405 63.5775
12.72 69.3489
12.8996 69.5638
13.0792 77.36
13.2589 229.011
13.4386 123.657
13.6183 243.674
13.7981 96.2271
13.9779 74.6579
14.1577 71.7226
14.3376 70.848
14.5175 67.6432
14.6974 69.1829
14.8774 104.978
15.0574 145.887
15.2374 70.0563
15.4175 65.47
15.5976 64.7448
15.7778 90.1699
15.958 155.745
16.1382 61.8658
16.3185 57.927
16.4988 54.6605
16.6792 53.5556
16.8596 54.5428
17.04 54.8526
17.2205 65.2676
17.401 69.9253
17.5815 58.2931
17.7622 60.4122
17.9428 70.9815
18.1237 138.989
18.3044 89.0021
18.4852 76.6262
18.666 59.5374
18.8469 57.2432
19.0278 55.97
19.2088 58.1986
19.3898 76.2063
19.5709 53.3948
19.752 52.4767
19.9332 55.1637
20.1144 69.0554
20.2957 63.4565
20.477 53.06
20.6586 49.0379
20.84 48.2229
21.0215 47.7139
21.203 50.2256
21.3846 48.4704
21.5662 48.0168
21.7479 51.4486
21.9297 63.8934
22.1115 55.4461
22.2933 49.1741
22.4753 48.2654
22.6572 48.0283
22.8393 50.9516
23.0214 56.884
23.2037 48.0431
23.3859 48.8431
23.5682 56.445
23.7505 47.7807
23.9329 44.5811
24.1154 43.5539
24.2979 42.9238
24.4805 42.416
24.6631 42.3357
24.8458 41.7083
25.0286 42.2525
25.2114 43.966
25.3943 44.0391
25.5773 40.4205
25.7605 39.8699
25.9436 40.3192
26.1268 41.2228
26.31 39.6401
26.4933 40.1921
26.6767 41.4946
26.8601 39.827
27.0437 38.4038
27.2272 37.9625
27.4109 37.9969
27.5946 37.8955
27.7784 37.2945
27.9623 37.8736
28.1462 38.4238
28.3304 36.5734
28.5145 35.4842
28.6987 35.1504
28.8829 35.0046
29.0673 34.2801
29.2517 33.8869
29.4361 33.7975
29.6207 32.7083
29.8053 32.5123
29.99 32.188
30.1748 32.0798
30.3597 31.806
30.5447 31.7234
30.7297 31.7701
30.915 31.3011
31.1002 30.5967
31.2855 30.4046
31.4708 30.4378
31.6563 29.9199
31.8418 29.699
32.0275 29.5515
32.2132 28.9908
32.399 28.5775
32.5848 28.161
32.7708 27.7532
32.9569 27.688
33.143 27.4699
33.3293 27.008
33.5158 26.6834
33.7022 26.1822
33.8887 26.0085
34.0753 25.674
34.262 25.3174
34.4488 25.0249
34.6357 24.6315
34.8227 24.3897
35.0098 24.1104
35.1969 23.8786
35.3842 23.7114
35.5716 23.433
35.759 23.1862
35.9468 22.8276
36.1345 22.643
36.3222 22.3621
36.5101 22.111
36.6981 21.8366
36.8861 21.4816
37.0743 21.2558
37.2626 20.9454
37.451 20.7287
37.6395 20.6161
37.8281 20.2013
38.0168 19.9175
38.2056 19.7292
38.3945 19.4519
38.5837 19.1722
38.7728 18.9244
38.9621 18.7826
39.1514 18.4707
39.3409 18.2385
39.5304 18.0101
39.7201 17.8408
39.9099 17.5759
40.0999 17.3505
40.2899 17.137
40.48 16.9018
40.6703 16.682
40.8607 16.5518
41.0512 16.3337
41.242 16.022
41.4327 15.8804
41.6236 15.6049
41.8146 15.4807
42.0057 15.2559
42.1969 15.0245
42.3882 14.9143
42.5797 14.618
42.7713 14.4532
42.963 14.2389
43.1549 14.1073
43.3468 13.8124
43.5389 13.6383
43.7312 13.4798
43.9237 13.2793
44.1162 13.1057
44.3088 12.9169
44.5016 12.7032
44.6945 12.575
44.8875 12.4006
45.0806 12.2198
45.2739 12.0528
45.4673 11.8497
45.6609 11.7047
45.8546 11.5252
46.0484 11.4311
46.2424 11.2445
46.4365 11.0929
46.631 10.8659
46.8254 10.7014
47.0199 10.5688
47.2146 10.3822
47.4095 10.2698
47.6044 10.112
47.7996 9.94463
47.9948 9.8324
48.1902 9.70338
48.3858 9.53038
48.5815 9.3726
48.7774 9.26571
48.9734 9.14373
49.1696 8.98716
49.3661 8.87211
49.5626 8.68932
49.7592 8.57841
49.956 8.44747
50.153 8.30343
50.3501 8.18157
50.5474 8.06147
50.7448 7.94454
50.9424 7.82558
51.1402 7.7133
51.3381 7.5943
51.5362 7.46809
51.7344 7.36862
51.9328 7.21213
52.1316 7.09252
52.3304 6.98149
52.5293 6.8972
52.7284 6.73905
52.9276 6.69131
53.1271 6.5287
53.3267 6.41609
53.5265 6.31016
53.7264 6.21791
53.9266 6.07103
54.1269 6.01933
54.3274 5.83541
54.528 5.75244
54.7289 5.56454
54.9301 5.3929
55.1314 5.29354
55.3328 5.0922
55.5344 4.87844
55.7361 4.76376