File: XRD/Ni3Fe_FD0044.xy
TT I
1.27165 32.5167
1.45013 27.6369
1.62863 23.6618
1.80712 21.6844
1.98562 21.0583
2.16411 20.9588
2.34263 21.586
2.52115 22.3226
2.69965 26.8756
2.87818 36.6413
3.05672 64.0347
3.23527 69.2612
3.4138 36.0373
3.59237 28.0102
3.77094 26.612
3.9495 27.1668
4.12809 30.0555
4.30669 41.6518
4.4853 37.9108
4.6639 41.916
4.84253 52.8444
5.02118 94.645
5.19981 298.63
5.37848 3416.4
5.55716 153.414
5.73586 102.1
5.91455 116.666
6.09328 538.458
6.27201 241.717
6.45075 64.475
6.62952 47.126
6.8083 42.1102
6.98711 40.0968
7.16591 41.9212
7.34475 42.3904
7.5236 54.9429
7.70247 43.4792
7.88135 37.4223
8.06026 39.2118
8.23919 44.7201
8.41812 57.4765
8.59709 179.764
8.77609 444.675
8.9551 74.9282
9.13412 63.1659
9.31318 334.996
9.49226 57.0584
9.67134 55.8164
9.85047 61.2183
10.0296 111.956
10.2088 647.73
10.388 105.931
10.5672 96.6422
10.7465 221.866
10.9257 50.3792
11.105 43.6321
11.2844 41.4583
11.4637 38.6089
11.6431 38.044
11.8225 38.4341
12.002 108.462
12.1814 49.3069
12.3609 90.5005
12.5405 42.132
12.72 39.1685
12.8996 40.5243
13.0792 45.6598
13.2589 67.988
13.4386 183.565
13.6183 83.3221
13.7981 185.954
13.9779 55.731
14.1577 58.1969
14.3376 46.4759
14.5175 40.5732
14.6974 40.3388
14.8774 47.1558
15.0574 71.6696
15.2374 66.7138
15.4175 41.4076
15.5976 39.7752
15.7778 44.4659
15.958 60.9428
16.1382 89.7785
16.3185 38.3192
16.4988 34.2628
16.6792 33.189
16.8596 33.2001
17.04 42.9894
17.2205 35.2074
17.401 39.4998
17.5815 40.9445
17.7622 37.0898
17.9428 40.766
18.1237 44.9168
18.3044 89.1532
18.4852 55.1837
18.666 52.2713
18.8469 36.7237
19.0278 35.0801
19.2088 34.9214
19.3898 45.9591
19.5709 45.9368
19.752 34.2456
19.9332 32.7595
20.1144 33.7908
20.2957 43.7044
20.477 38.8849
20.6586 33.9583
20.84 34.4736
21.0215 30.1954
21.203 29.722
21.3846 30.6214
21.5662 31.7278
21.7479 30.7491
21.9297 32.0277
22.1115 41.8658
22.2933 38.6584
22.4753 32.2479
22.6572 30.5081
22.8393 31.7257
23.0214 31.7721
23.2037 38.8267
23.3859 31.8543
23.5682 34.1064
23.7505 35.5708
23.9329 33.1271
24.1154 29.4526
24.2979 27.9168
24.4805 27.2536
24.6631 27.3469
24.8458 27.6508
25.0286 26.584
25.2114 26.9396
25.3943 28.8634
25.5773 29.6904
25.7605 26.8032
25.9436 26.9869
26.1268 25.7922
26.31 26.9416
26.4933 26.2986
26.6767 25.8417
26.8601 27.5633
27.0437 28.2388
27.2272 25.6541
27.4109 24.8526
27.5946 24.9814
27.7784 25.183
27.9623 24.6619
28.1462 25.6628
28.3304 26.3366
28.5145 25.2699
28.6987 23.9875
28.8829 23.0391
29.0673 22.7727
29.2517 22.7889
29.4361 22.1366
29.6207 22.0661
29.8053 21.8288
29.99 21.4045
30.1748 21.5358
30.3597 21.0723
30.5447 21.2455
30.7297 20.8908
30.915 21.1349
31.1002 21.4875
31.2855 20.7467
31.4708 20.3638
31.6563 20.5358
31.8418 20.5158
32.0275 20.0001
32.2132 20.106
32.399 19.8091
32.5848 19.2107
32.7708 18.8804
32.9569 18.7566
33.143 18.569
33.3293 18.2695
33.5158 18.4634
33.7022 18.1468
33.8887 17.5914
34.0753 17.454
34.262 17.3469
34.4488 16.9985
34.6357 16.9138
34.8227 16.6478
35.0098 16.4148
35.1969 16.2146
35.3842 16.165
35.5716 16.0225
35.759 16.1883
35.9468 15.8771
36.1345 15.5802
36.3222 15.4423
36.5101 15.3642
36.6981 15.1181
36.8861 14.9524
37.0743 14.7579
37.2626 14.5128
37.451 14.3432
37.6395 14.2205
37.8281 14.0245
38.0168 13.8186
38.2056 13.6636
38.3945 13.4523
38.5837 13.2806
38.7728 13.1625
38.9621 13.0128
39.1514 12.8435
39.3409 12.7239
39.5304 12.4865
39.7201 12.3563
39.9099 12.2754
40.0999 12.1149
40.2899 11.9791
40.48 11.7826
40.6703 11.6905
40.8607 11.5645
41.0512 11.4891
41.242 11.2987
41.4327 11.1019
41.6236 10.9357
41.8146 10.8798
42.0057 10.707
42.1969 10.5393
42.3882 10.4344
42.5797 10.3159
42.7713 10.1543
42.963 9.96853
43.1549 9.89425
43.3468 9.74869
43.5389 9.58966
43.7312 9.48926
43.9237 9.41252
44.1162 9.29339
44.3088 9.13184
44.5016 9.03242
44.6945 8.90794
44.8875 8.74625
45.0806 8.6752
45.2739 8.54972
45.4673 8.47269
45.6609 8.33273
45.8546 8.20055
46.0484 8.12558
46.2424 7.99959
46.4365 7.90958
46.631 7.74933
46.8254 7.63083
47.0199 7.54223
47.2146 7.41307
47.4095 7.32517
47.6044 7.22302
47.7996 7.13439
47.9948 6.98013
48.1902 6.92874
48.3858 6.82551
48.5815 6.73469
48.7774 6.64679
48.9734 6.53731
49.1696 6.47108
49.3661 6.35051
49.5626 6.24782
49.7592 6.17347
49.956 6.12333
50.153 6.01752
50.3501 5.91832
50.5474 5.83933
50.7448 5.76844
50.9424 5.66862
51.1402 5.55042
51.3381 5.51024
51.5362 5.42729
51.7344 5.32811
51.9328 5.24295
52.1316 5.1429
52.3304 5.05794
52.5293 5.03308
52.7284 4.94393
52.9276 4.84287
53.1271 4.78725
53.3267 4.6789
53.5265 4.61654
53.7264 4.53548
53.9266 4.45913
54.1269 4.29844
54.3274 4.24124
54.528 4.14837
54.7289 4.01928
54.9301 3.92315
55.1314 3.78223
55.3328 3.59215
55.5344 3.45538
55.7361 3.45453