File: XRD/Ni3Fe_FD0953.xy
TT I
1.27165 7.0539
1.45013 5.7925
1.62863 5.50491
1.80712 4.84136
1.98562 4.79026
2.16411 4.84808
2.34263 5.52731
2.52115 7.62346
2.69965 8.9232
2.87818 9.43805
3.05672 11.2905
3.23527 15.4738
3.4138 18.7666
3.59237 23.6571
3.77094 25.7035
3.9495 29.619
4.12809 34.2648
4.30669 147.773
4.4853 57.9938
4.6639 54.5392
4.84253 66.5959
5.02118 85.6903
5.19981 303.313
5.37848 182.163
5.55716 100.481
5.73586 90.9658
5.91455 91.9482
6.09328 4509.98
6.27201 79.4764
6.45075 67.8822
6.62952 62.1511
6.8083 58.215
6.98711 54.7904
7.16591 55.3775
7.34475 75.8298
7.5236 53.5618
7.70247 55.7509
7.88135 56.8888
8.06026 61.4808
8.23919 68.4438
8.41812 82.7911
8.59709 1174.93
8.77609 96.5144
8.9551 88.7306
9.13412 81.4199
9.31318 82.5833
9.49226 83.1063
9.67134 94.7439
9.85047 99.3517
10.0296 319.192
10.2088 365.127
10.388 102.646
10.5672 530.806
10.7465 84.9957
10.9257 76.8761
11.105 70.5229
11.2844 68.2481
11.4637 63.7098
11.6431 62.3787
11.8225 61.5433
12.002 62.4809
12.1814 156.647
12.3609 67.2192
12.5405 63.433
12.72 67.6123
12.8996 69.6839
13.0792 77.827
13.2589 241.545
13.4386 119.12
13.6183 255.63
13.7981 94.9512
13.9779 74.8004
14.1577 70.8947
14.3376 69.5667
14.5175 67.83
14.6974 69.2048
14.8774 109.131
15.0574 144.271
15.2374 68.7748
15.4175 65.2788
15.5976 64.6494
15.7778 93.2669
15.958 149.414
16.1382 60.8901
16.3185 57.32
16.4988 54.4268
16.6792 53.6887
16.8596 54.2175
17.04 54.8978
17.2205 65.9732
17.401 69.1865
17.5815 58.206
17.7622 60.1644
17.9428 71.781
18.1237 136.431
18.3044 90.2609
18.4852 75.0029
18.666 59.2934
18.8469 56.9929
19.0278 55.8304
19.2088 58.3008
19.3898 74.0949
19.5709 53.2424
19.752 52.2457
19.9332 55.2774
20.1144 68.8023
20.2957 63.8329
20.477 52.5839
20.6586 49.0252
20.84 48.0748
21.0215 47.8888
21.203 50.1393
21.3846 48.1928
21.5662 48.1179
21.7479 51.7821
21.9297 63.355
22.1115 55.4129
22.2933 49.0003
22.4753 48.0112
22.6572 47.9814
22.8393 51.3189
23.0214 56.026
23.2037 48.022
23.3859 48.8364
23.5682 56.537
23.7505 47.2073
23.9329 44.4963
24.1154 43.505
24.2979 42.717
24.4805 42.274
24.6631 42.1033
24.8458 41.6108
25.0286 42.1948
25.2114 43.955
25.3943 43.6936
25.5773 40.2307
25.7605 39.8471
25.9436 40.1998
26.1268 40.8147
26.31 39.4025
26.4933 40.069
26.6767 41.3753
26.8601 39.7787
27.0437 38.2663
27.2272 37.8863
27.4109 37.7878
27.5946 37.7217
27.7784 37.2696
27.9623 37.9573
28.1462 38.2739
28.3304 36.6318
28.5145 35.2636
28.6987 35.0243
28.8829 34.901
29.0673 34.1087
29.2517 33.7716
29.4361 33.6028
29.6207 32.5705
29.8053 32.3672
29.99 32.039
30.1748 31.9188
30.3597 31.7363
30.5447 31.6945
30.7297 31.7249
30.915 31.0735
31.1002 30.5444
31.2855 30.3144
31.4708 30.3943
31.6563 29.8836
31.8418 29.6756
32.0275 29.4331
32.2132 28.9372
32.399 28.5003
32.5848 28.0659
32.7708 27.6943
32.9569 27.5762
33.143 27.3524
33.3293 27.0312
33.5158 26.5996
33.7022 26.2315
33.8887 25.9399
34.0753 25.6098
34.262 25.2121
34.4488 24.8411
34.6357 24.5828
34.8227 24.2915
35.0098 24.1058
35.1969 23.813
35.3842 23.6445
35.5716 23.4088
35.759 23.0184
35.9468 22.6452
36.1345 22.5441
36.3222 22.3221
36.5101 22.0422
36.6981 21.7831
36.8861 21.5295
37.0743 21.1257
37.2626 20.9028
37.451 20.659
37.6395 20.4774
37.8281 20.138
38.0168 19.8526
38.2056 19.5859
38.3945 19.3684
38.5837 19.1884
38.7728 18.9458
38.9621 18.6617
39.1514 18.4394
39.3409 18.1551
39.5304 17.9888
39.7201 17.8059
39.9099 17.5202
40.0999 17.2899
40.2899 17.139
40.48 16.8966
40.6703 16.6488
40.8607 16.5123
41.0512 16.2441
41.242 15.952
41.4327 15.7881
41.6236 15.5787
41.8146 15.3904
42.0057 15.1526
42.1969 14.9835
42.3882 14.8103
42.5797 14.5818
42.7713 14.4277
42.963 14.2228
43.1549 13.9927
43.3468 13.7688
43.5389 13.5802
43.7312 13.4507
43.9237 13.248
44.1162 13.0365
44.3088 12.9054
44.5016 12.6836
44.6945 12.4844
44.8875 12.3805
45.0806 12.1678
45.2739 11.9949
45.4673 11.8561
45.6609 11.6871
45.8546 11.5084
46.0484 11.3522
46.2424 11.1966
46.4365 11.0766
46.631 10.8609
46.8254 10.7128
47.0199 10.5448
47.2146 10.4059
47.4095 10.2057
47.6044 10.0761
47.7996 9.90961
47.9948 9.77049
48.1902 9.63453
48.3858 9.54313
48.5815 9.35416
48.7774 9.26224
48.9734 9.07644
49.1696 8.93813
49.3661 8.81185
49.5626 8.69673
49.7592 8.52977
49.956 8.43289
50.153 8.30539
50.3501 8.16236
50.5474 8.05268
50.7448 7.93052
50.9424 7.80938
51.1402 7.69061
51.3381 7.5574
51.5362 7.4532
51.7344 7.33019
51.9328 7.19328
52.1316 7.05376
52.3304 6.92044
52.5293 6.80742
52.7284 6.73305
52.9276 6.62211
53.1271 6.49882
53.3267 6.39552
53.5265 6.27466
53.7264 6.12504
53.9266 6.0685
54.1269 5.96938
54.3274 5.86623
54.528 5.74853
54.7289 5.55278
54.9301 5.36704
55.1314 5.28988
55.3328 5.08862
55.5344 4.89004
55.7361 4.72777