File: XRD/Ni3Fe_FD0098.xy
TT I
1.27165 8.95656
1.45013 6.83122
1.62863 6.00453
1.80712 5.56671
1.98562 5.19373
2.16411 5.08587
2.34263 4.26156
2.52115 3.89622
2.69965 4.77978
2.87818 7.40387
3.05672 10.8916
3.23527 14.8712
3.4138 18.3881
3.59237 21.7012
3.77094 24.4929
3.9495 28.1285
4.12809 31.8705
4.30669 37.2606
4.4853 44.1806
4.6639 53.128
4.84253 66.2214
5.02118 93.9438
5.19981 680.861
5.37848 703.497
5.55716 112.288
5.73586 97.4682
5.91455 112.68
6.09328 2115.96
6.27201 96.4897
6.45075 66.6152
6.62952 59.0942
6.8083 54.6111
6.98711 52.5796
7.16591 51.7647
7.34475 51.2424
7.5236 59.4254
7.70247 53.0821
7.88135 55.1359
8.06026 59.8884
8.23919 66.8778
8.41812 84.0976
8.59709 747.576
8.77609 130.947
8.9551 84.9575
9.13412 80.8632
9.31318 96.4321
9.49226 82.7186
9.67134 87.3314
9.85047 98.516
10.0296 595.042
10.2088 1209.23
10.388 105.409
10.5672 256.358
10.7465 95.6427
10.9257 74.7016
11.105 69.3195
11.2844 65.1369
11.4637 62.4218
11.6431 61.0847
11.8225 60.4151
12.002 69.853
12.1814 102.729
12.3609 81.5623
12.5405 62.2017
12.72 64.0351
12.8996 68.5057
13.0792 78.9351
13.2589 182.461
13.4386 257.94
13.6183 166.156
13.7981 187.353
13.9779 75.3326
14.1577 76.9462
14.3376 68.0241
14.5175 67.3039
14.6974 68.7308
14.8774 120.151
15.0574 206.174
15.2374 68.4058
15.4175 65.1554
15.5976 64.722
15.7778 108.021
15.958 173.984
16.1382 62.2343
16.3185 56.4016
16.4988 54.1334
16.6792 53.0722
16.8596 53.1545
17.04 54.5921
17.2205 62.9649
17.401 80.735
17.5815 57.9662
17.7622 60.8636
17.9428 85.358
18.1237 98.7229
18.3044 87.4549
18.4852 99.9171
18.666 60.2661
18.8469 57.1791
19.0278 55.7823
19.2088 61.5624
19.3898 64.5918
19.5709 57.1427
19.752 52.5335
19.9332 57.6765
20.1144 63.3039
20.2957 59.4043
20.477 60.938
20.6586 48.8808
20.84 48.5109
21.0215 48.3002
21.203 48.3056
21.3846 50.2582
21.5662 48.1439
21.7479 53.2287
21.9297 58.2146
22.1115 55.8355
22.2933 52.9499
22.4753 47.9902
22.6572 48.2117
22.8393 50.8735
23.0214 54.2544
23.2037 49.6041
23.3859 51.208
23.5682 50.7627
23.7505 54.6969
23.9329 45.0045
24.1154 43.6561
24.2979 42.9535
24.4805 42.2206
24.6631 42.3273
24.8458 41.8215
25.0286 42.2355
25.2114 43.3157
25.3943 43.4647
25.5773 41.4072
25.7605 40.0891
25.9436 40.163
26.1268 40.4962
26.31 40.6219
26.4933 40.1798
26.6767 40.8667
26.8601 40.7391
27.0437 39.0823
27.2272 38.4108
27.4109 37.8989
27.5946 37.9744
27.7784 37.9363
27.9623 37.7498
28.1462 38.4045
28.3304 37.5598
28.5145 35.7449
28.6987 35.3624
28.8829 34.7994
29.0673 34.5446
29.2517 33.9437
29.4361 33.5829
29.6207 33.1928
29.8053 32.6077
29.99 32.259
30.1748 32.0012
30.3597 32.0111
30.5447 31.7006
30.7297 31.5924
30.915 31.6107
31.1002 31.0575
31.2855 30.5558
31.4708 30.3851
31.6563 30.3779
31.8418 29.881
32.0275 29.5869
32.2132 29.2798
32.399 28.573
32.5848 28.1684
32.7708 28.0109
32.9569 27.7732
33.143 27.4145
33.3293 27.1794
33.5158 26.9191
33.7022 26.2793
33.8887 25.9723
34.0753 25.7384
34.262 25.352
34.4488 25.0925
34.6357 24.6854
34.8227 24.4672
35.0098 24.1558
35.1969 23.9395
35.3842 23.6424
35.5716 23.4447
35.759 23.1791
35.9468 22.8392
36.1345 22.6562
36.3222 22.3335
36.5101 22.0954
36.6981 21.8581
36.8861 21.5236
37.0743 21.2576
37.2626 21.0141
37.451 20.7488
37.6395 20.4901
37.8281 20.2543
38.0168 19.9497
38.2056 19.7558
38.3945 19.5014
38.5837 19.2205
38.7728 19.0388
38.9621 18.7502
39.1514 18.4686
39.3409 18.3318
39.5304 18.0491
39.7201 17.8461
39.9099 17.6525
40.0999 17.3576
40.2899 17.1506
40.48 16.9818
40.6703 16.7463
40.8607 16.532
41.0512 16.2992
41.242 16.0694
41.4327 15.947
41.6236 15.6453
41.8146 15.5256
42.0057 15.2208
42.1969 15.0655
42.3882 14.8806
42.5797 14.6429
42.7713 14.4793
42.963 14.2592
43.1549 13.9822
43.3468 13.8341
43.5389 13.6754
43.7312 13.483
43.9237 13.3426
44.1162 13.1176
44.3088 12.9141
44.5016 12.7431
44.6945 12.5334
44.8875 12.384
45.0806 12.2295
45.2739 12.0788
45.4673 11.9544
45.6609 11.7102
45.8546 11.6141
46.0484 11.3954
46.2424 11.2208
46.4365 11.0603
46.631 10.88
46.8254 10.7067
47.0199 10.5922
47.2146 10.4036
47.4095 10.2364
47.6044 10.107
47.7996 9.97568
47.9948 9.83147
48.1902 9.66712
48.3858 9.5716
48.5815 9.44112
48.7774 9.28603
48.9734 9.17221
49.1696 9.0035
49.3661 8.84357
49.5626 8.73504
49.7592 8.60488
49.956 8.46223
50.153 8.37101
50.3501 8.22803
50.5474 8.10697
50.7448 7.99915
50.9424 7.8656
51.1402 7.74037
51.3381 7.60543
51.5362 7.47705
51.7344 7.36924
51.9328 7.22551
52.1316 7.09761
52.3304 7.03008
52.5293 6.87939
52.7284 6.73617
52.9276 6.66507
53.1271 6.58352
53.3267 6.47692
53.5265 6.31986
53.7264 6.20964
53.9266 6.11712
54.1269 5.96907
54.3274 5.87243
54.528 5.69577
54.7289 5.51342
54.9301 5.33371
55.1314 5.17621
55.3328 4.96718
55.5344 4.75853
55.7361 4.67289