File: XRD/Ni3Fe_FD0752.xy
TT I
1.27165 7.09141
1.45013 6.61935
1.62863 5.36499
1.80712 4.26539
1.98562 5.06515
2.16411 5.20622
2.34263 5.25286
2.52115 6.69047
2.69965 7.9691
2.87818 8.87148
3.05672 10.9294
3.23527 15.2832
3.4138 19.2822
3.59237 24.1536
3.77094 26.1995
3.9495 29.9969
4.12809 34.7863
4.30669 244.337
4.4853 68.2932
4.6639 55.2612
4.84253 66.618
5.02118 85.7944
5.19981 310.842
5.37848 186.126
5.55716 101.175
5.73586 90.8377
5.91455 92.2606
6.09328 4286.36
6.27201 82.6143
6.45075 67.1882
6.62952 62.7104
6.8083 58.3201
6.98711 55.5761
7.16591 55.2221
7.34475 97.26
7.5236 54.8313
7.70247 55.8081
7.88135 57.8132
8.06026 62.0204
8.23919 68.7866
8.41812 84.5152
8.59709 1128.45
8.77609 98.5921
8.9551 91.6436
9.13412 81.2838
9.31318 81.5688
9.49226 83.747
9.67134 99.3893
9.85047 99.0968
10.0296 312.127
10.2088 405.329
10.388 103.752
10.5672 513.146
10.7465 85.756
10.9257 78.0523
11.105 71.7318
11.2844 70.666
11.4637 64.4062
11.6431 63.4666
11.8225 61.7342
12.002 62.9116
12.1814 149.174
12.3609 71.1053
12.5405 64.1129
12.72 70.331
12.8996 70.3373
13.0792 77.7849
13.2589 229.697
13.4386 126.369
13.6183 241.052
13.7981 97.6975
13.9779 75.1539
14.1577 72.3107
14.3376 71.428
14.5175 68.2341
14.6974 69.9366
14.8774 106.616
15.0574 152.607
15.2374 70.9526
15.4175 65.9193
15.5976 65.1251
15.7778 91.3549
15.958 157.407
16.1382 62.6607
16.3185 58.6342
16.4988 55.0678
16.6792 54.2841
16.8596 54.9822
17.04 55.3817
17.2205 65.9807
17.401 70.6096
17.5815 58.677
17.7622 60.7916
17.9428 71.7264
18.1237 138.663
18.3044 89.0222
18.4852 77.633
18.666 59.9993
18.8469 57.6436
19.0278 56.5295
19.2088 58.8421
19.3898 76.4716
19.5709 53.9033
19.752 52.8934
19.9332 55.6008
20.1144 69.1874
20.2957 63.6885
20.477 53.5673
20.6586 49.2296
20.84 48.6009
21.0215 48.1813
21.203 50.7417
21.3846 48.6749
21.5662 48.3833
21.7479 51.9451
21.9297 64.1459
22.1115 55.72
22.2933 49.7156
22.4753 48.5785
22.6572 48.3192
22.8393 51.4293
23.0214 57.2639
23.2037 48.4961
23.3859 49.2015
23.5682 56.8623
23.7505 48.19
23.9329 45.0133
24.1154 43.7976
24.2979 43.2818
24.4805 42.7327
24.6631 42.399
24.8458 42.0006
25.0286 42.6076
25.2114 44.4753
25.3943 44.3213
25.5773 40.7231
25.7605 40.1126
25.9436 40.6151
26.1268 41.4147
26.31 39.8737
26.4933 40.4754
26.6767 41.8568
26.8601 40.2314
27.0437 38.7478
27.2272 38.354
27.4109 38.1283
27.5946 38.1969
27.7784 37.5394
27.9623 38.1805
28.1462 38.5551
28.3304 37.0531
28.5145 35.7623
28.6987 35.4988
28.8829 35.3023
29.0673 34.4205
29.2517 34.1852
29.4361 34.0923
29.6207 32.9685
29.8053 32.6762
29.99 32.4036
30.1748 32.2824
30.3597 32.0832
30.5447 31.9567
30.7297 32.1144
30.915 31.4061
31.1002 30.8455
31.2855 30.7251
31.4708 30.5607
31.6563 30.2176
31.8418 29.9233
32.0275 29.696
32.2132 29.1905
32.399 28.8451
32.5848 28.4229
32.7708 27.9492
32.9569 27.8538
33.143 27.615
33.3293 27.2871
33.5158 26.9204
33.7022 26.5284
33.8887 26.1846
34.0753 25.9061
34.262 25.5725
34.4488 25.1869
34.6357 24.7652
34.8227 24.6014
35.0098 24.3041
35.1969 24.0576
35.3842 23.8401
35.5716 23.667
35.759 23.3342
35.9468 22.9995
36.1345 22.7226
36.3222 22.5042
36.5101 22.2449
36.6981 22.0032
36.8861 21.727
37.0743 21.4181
37.2626 21.1236
37.451 20.8651
37.6395 20.792
37.8281 20.3802
38.0168 20.0945
38.2056 19.8766
38.3945 19.5232
38.5837 19.3724
38.7728 19.1263
38.9621 18.8497
39.1514 18.6509
39.3409 18.3854
39.5304 18.1134
39.7201 17.923
39.9099 17.7403
40.0999 17.4547
40.2899 17.2594
40.48 17.0703
40.6703 16.8597
40.8607 16.7003
41.0512 16.3964
41.242 16.1711
41.4327 15.9661
41.6236 15.7442
41.8146 15.6114
42.0057 15.4018
42.1969 15.157
42.3882 14.9802
42.5797 14.7495
42.7713 14.5281
42.963 14.4118
43.1549 14.233
43.3468 13.9259
43.5389 13.7563
43.7312 13.5751
43.9237 13.4007
44.1162 13.2158
44.3088 13.0402
44.5016 12.8105
44.6945 12.6701
44.8875 12.4682
45.0806 12.3171
45.2739 12.1811
45.4673 11.9818
45.6609 11.7619
45.8546 11.633
46.0484 11.5086
46.2424 11.2616
46.4365 11.1574
46.631 10.9706
46.8254 10.8372
47.0199 10.6609
47.2146 10.5263
47.4095 10.3456
47.6044 10.2072
47.7996 10.0311
47.9948 9.9218
48.1902 9.76441
48.3858 9.63983
48.5815 9.42181
48.7774 9.38684
48.9734 9.22515
49.1696 9.04425
49.3661 8.91914
49.5626 8.74355
49.7592 8.65785
49.956 8.52393
50.153 8.4007
50.3501 8.2702
50.5474 8.13397
50.7448 8.00486
50.9424 7.92013
51.1402 7.77084
51.3381 7.59832
51.5362 7.55044
51.7344 7.3876
51.9328 7.28386
52.1316 7.14965
52.3304 7.03623
52.5293 6.93409
52.7284 6.8254
52.9276 6.68924
53.1271 6.6306
53.3267 6.47126
53.5265 6.36985
53.7264 6.27749
53.9266 6.14614
54.1269 6.05381
54.3274 5.91053
54.528 5.76131
54.7289 5.63687
54.9301 5.4358
55.1314 5.35921
55.3328 5.12332
55.5344 4.94012
55.7361 4.81895