File: XRD/Ni3Fe_FD0356.xy
TT I
1.27165 7.49452
1.45013 6.76135
1.62863 5.17553
1.80712 4.64134
1.98562 5.03384
2.16411 4.40937
2.34263 4.81841
2.52115 6.06647
2.69965 7.13732
2.87818 8.07089
3.05672 11.2819
3.23527 14.8938
3.4138 18.9666
3.59237 23.4846
3.77094 26.3388
3.9495 30.0506
4.12809 34.866
4.30669 122.765
4.4853 56.1381
4.6639 56.8898
4.84253 70.0281
5.02118 91.8761
5.19981 611.587
5.37848 221.528
5.55716 106.722
5.73586 96.9626
5.91455 101.72
6.09328 3969.8
6.27201 85.343
6.45075 69.4103
6.62952 63.4966
6.8083 59.7159
6.98711 56.9193
7.16591 56.2316
7.34475 72.9415
7.5236 55.8341
7.70247 57.3325
7.88135 59.2373
8.06026 63.9919
8.23919 71.3119
8.41812 88.1554
8.59709 1190.78
8.77609 103.902
8.9551 90.8395
9.13412 84.4978
9.31318 85.8147
9.49226 87.2042
9.67134 96.9479
9.85047 104.18
10.0296 443.458
10.2088 458.659
10.388 110.247
10.5672 489.955
10.7465 89.6142
10.9257 79.568
11.105 73.6314
11.2844 70.6396
11.4637 66.6155
11.6431 65.1687
11.8225 64.3384
12.002 66.3892
12.1814 151.072
12.3609 70.2051
12.5405 66.0416
12.72 70.0411
12.8996 73.5371
13.0792 83.0936
13.2589 246.687
13.4386 132.244
13.6183 245.278
13.7981 102.448
13.9779 78.162
14.1577 73.9872
14.3376 72.5444
14.5175 71.1116
14.6974 72.757
14.8774 120.313
15.0574 152.488
15.2374 71.876
15.4175 68.4251
15.5976 68.108
15.7778 103.568
15.958 162.058
16.1382 63.5588
16.3185 59.693
16.4988 56.8647
16.6792 55.9682
16.8596 56.4581
17.04 57.9108
17.2205 69.2902
17.401 73.322
17.5815 61.09
17.7622 63.3155
17.9428 79.0798
18.1237 140.058
18.3044 91.8863
18.4852 79.333
18.666 61.9897
18.8469 59.9023
19.0278 58.3992
19.2088 61.6735
19.3898 76.9682
19.5709 55.883
19.752 54.8855
19.9332 58.7157
20.1144 71.4575
20.2957 64.5505
20.477 54.9361
20.6586 51.2496
20.84 50.2792
21.0215 50.1562
21.203 51.8918
21.3846 50.4403
21.5662 50.6364
21.7479 54.7792
21.9297 66.1825
22.1115 57.1781
22.2933 51.5314
22.4753 50.2545
22.6572 50.6121
22.8393 53.7524
23.0214 58.822
23.2037 50.3081
23.3859 51.6662
23.5682 57.7239
23.7505 49.7398
23.9329 46.5483
24.1154 45.4606
24.2979 44.6517
24.4805 44.2083
24.6631 44.0411
24.8458 43.6049
25.0286 44.2321
25.2114 45.9823
25.3943 45.8615
25.5773 42.1346
25.7605 41.5853
25.9436 42.1372
26.1268 42.8571
26.31 41.2608
26.4933 41.9854
26.6767 43.4035
26.8601 41.6648
27.0437 39.9725
27.2272 39.6349
27.4109 39.5023
27.5946 39.5448
27.7784 39.041
27.9623 39.4543
28.1462 39.8078
28.3304 38.2115
28.5145 36.9957
28.6987 36.5448
28.8829 36.2564
29.0673 35.6428
29.2517 35.2091
29.4361 35.0446
29.6207 34.07
29.8053 33.7858
29.99 33.4951
30.1748 33.2819
30.3597 33.1308
30.5447 33.1213
30.7297 33.116
30.915 32.4458
31.1002 31.9723
31.2855 31.7455
31.4708 31.6391
31.6563 31.2197
31.8418 30.9241
32.0275 30.8412
32.2132 30.1455
32.399 29.7546
32.5848 29.2702
32.7708 28.9093
32.9569 28.8017
33.143 28.527
33.3293 28.1122
33.5158 27.7584
33.7022 27.29
33.8887 26.9816
34.0753 26.7074
34.262 26.4123
34.4488 25.9557
34.6357 25.6949
34.8227 25.2672
35.0098 25.1213
35.1969 24.8912
35.3842 24.6539
35.5716 24.4416
35.759 24.1002
35.9468 23.7196
36.1345 23.4844
36.3222 23.246
36.5101 22.9693
36.6981 22.6454
36.8861 22.4296
37.0743 22.0445
37.2626 21.8637
37.451 21.5494
37.6395 21.4393
37.8281 21.0569
38.0168 20.7306
38.2056 20.4382
38.3945 20.2284
38.5837 19.9438
38.7728 19.7334
38.9621 19.4002
39.1514 19.1763
39.3409 18.9769
39.5304 18.7726
39.7201 18.5169
39.9099 18.3226
40.0999 18.0148
40.2899 17.8082
40.48 17.5336
40.6703 17.4122
40.8607 17.1981
41.0512 16.9103
41.242 16.7019
41.4327 16.489
41.6236 16.243
41.8146 16.0611
42.0057 15.8086
42.1969 15.6365
42.3882 15.4348
42.5797 15.2233
42.7713 14.9947
42.963 14.7834
43.1549 14.6013
43.3468 14.4536
43.5389 14.1866
43.7312 14.0046
43.9237 13.8417
44.1162 13.5731
44.3088 13.4555
44.5016 13.2483
44.6945 13.0434
44.8875 12.8746
45.0806 12.6608
45.2739 12.5142
45.4673 12.3372
45.6609 12.2143
45.8546 11.9624
46.0484 11.8582
46.2424 11.6055
46.4365 11.4683
46.631 11.2946
46.8254 11.1321
47.0199 10.9665
47.2146 10.8592
47.4095 10.673
47.6044 10.4937
47.7996 10.339
47.9948 10.2073
48.1902 10.0773
48.3858 9.86984
48.5815 9.76567
48.7774 9.64264
48.9734 9.50638
49.1696 9.3447
49.3661 9.19379
49.5626 9.0562
49.7592 8.94183
49.956 8.77932
50.153 8.63431
50.3501 8.49808
50.5474 8.40397
50.7448 8.22367
50.9424 8.12931
51.1402 7.99181
51.3381 7.84923
51.5362 7.76955
51.7344 7.60912
51.9328 7.49154
52.1316 7.37723
52.3304 7.25975
52.5293 7.14044
52.7284 7.00215
52.9276 6.90136
53.1271 6.81315
53.3267 6.63656
53.5265 6.51729
53.7264 6.46549
53.9266 6.3375
54.1269 6.17787
54.3274 6.10482
54.528 5.93851
54.7289 5.73655
54.9301 5.58791
55.1314 5.48928
55.3328 5.3149
55.5344 5.06639
55.7361 4.93991