File: XRD/Ni3Fe_FD0382.xy
TT I
1.27165 7.07934
1.45013 6.27128
1.62863 5.3709
1.80712 4.85502
1.98562 5.09457
2.16411 4.67468
2.34263 4.69286
2.52115 6.21806
2.69965 7.76471
2.87818 8.25289
3.05672 11.4764
3.23527 14.8959
3.4138 19.1997
3.59237 24.1397
3.77094 26.327
3.9495 30.0859
4.12809 35.2483
4.30669 200.763
4.4853 64.2304
4.6639 56.3808
4.84253 68.5876
5.02118 89.7879
5.19981 468.066
5.37848 226.661
5.55716 106.373
5.73586 95.1103
5.91455 98.8515
6.09328 3976.77
6.27201 87.0618
6.45075 69.4121
6.62952 64.2238
6.8083 60.1205
6.98711 57.1348
7.16591 56.7894
7.34475 89.0666
7.5236 56.1829
7.70247 57.295
7.88135 59.2619
8.06026 63.9114
8.23919 71.3838
8.41812 87.6443
8.59709 1169.6
8.77609 105.002
8.9551 93.4943
9.13412 84.0964
9.31318 85.3501
9.49226 86.6187
9.67134 100.451
9.85047 102.752
10.0296 395.144
10.2088 512.32
10.388 108.409
10.5672 481.146
10.7465 89.6618
10.9257 80.1552
11.105 73.6419
11.2844 72.0447
11.4637 66.6378
11.6431 65.4942
11.8225 64.2702
12.002 65.3473
12.1814 149.2
12.3609 72.7604
12.5405 66.2992
12.72 71.241
12.8996 72.6422
13.0792 81.55
13.2589 239.556
13.4386 141.209
13.6183 240.767
13.7981 106.775
13.9779 77.8279
14.1577 74.4382
14.3376 73.276
14.5175 70.7357
14.6974 72.3526
14.8774 115.241
15.0574 163.884
15.2374 72.9043
15.4175 68.3029
15.5976 67.717
15.7778 99.0829
15.958 166.889
16.1382 64.5508
16.3185 60.1169
16.4988 56.9612
16.6792 56.0392
16.8596 56.769
17.04 57.4508
17.2205 68.4138
17.401 74.4833
17.5815 61.1198
17.7622 62.9271
17.9428 77.1392
18.1237 136.653
18.3044 91.9843
18.4852 82.4744
18.666 62.2507
18.8469 59.5856
19.0278 58.3485
19.2088 61.5611
19.3898 76.7253
19.5709 55.8305
19.752 54.9814
19.9332 58.128
20.1144 70.673
20.2957 64.5333
20.477 55.9881
20.6586 51.0978
20.84 50.154
21.0215 50.0636
21.203 51.96
21.3846 50.5513
21.5662 50.1977
21.7479 54.0739
21.9297 65.4565
22.1115 57.1827
22.2933 51.6303
22.4753 50.292
22.6572 50.432
22.8393 53.5149
23.0214 58.6907
23.2037 50.1899
23.3859 51.4282
23.5682 57.3342
23.7505 50.1394
23.9329 46.5635
24.1154 45.355
24.2979 44.5681
24.4805 44.1038
24.6631 44.0179
24.8458 43.4154
25.0286 44.1441
25.2114 45.8329
25.3943 45.8542
25.5773 42.1198
25.7605 41.6325
25.9436 41.9309
26.1268 42.8247
26.31 41.2621
26.4933 41.8474
26.6767 43.0808
26.8601 41.457
27.0437 39.9013
27.2272 39.5543
27.4109 39.4787
27.5946 39.4621
27.7784 38.9292
27.9623 39.3606
28.1462 39.8828
28.3304 38.3406
28.5145 36.9099
28.6987 36.6333
28.8829 36.3488
29.0673 35.6751
29.2517 35.2342
29.4361 34.8838
29.6207 34.1241
29.8053 33.7716
29.99 33.5006
30.1748 33.2551
30.3597 33.1101
30.5447 33.0968
30.7297 33.0099
30.915 32.4878
31.1002 31.8707
31.2855 31.7006
31.4708 31.5637
31.6563 31.1695
31.8418 30.8794
32.0275 30.7049
32.2132 30.1656
32.399 29.8314
32.5848 29.2183
32.7708 28.8872
32.9569 28.7741
33.143 28.5421
33.3293 28.091
33.5158 27.7644
33.7022 27.3429
33.8887 26.991
34.0753 26.6045
34.262 26.2522
34.4488 25.9012
34.6357 25.6068
34.8227 25.361
35.0098 25.1407
35.1969 24.8443
35.3842 24.6234
35.5716 24.3685
35.759 24.1907
35.9468 23.7757
36.1345 23.5867
36.3222 23.2124
36.5101 23.0285
36.6981 22.6532
36.8861 22.3786
37.0743 22.0613
37.2626 21.8272
37.451 21.574
37.6395 21.288
37.8281 21.0568
38.0168 20.7037
38.2056 20.5438
38.3945 20.1614
38.5837 19.9519
38.7728 19.7434
38.9621 19.5124
39.1514 19.139
39.3409 18.9746
39.5304 18.718
39.7201 18.5082
39.9099 18.3176
40.0999 18.0377
40.2899 17.8337
40.48 17.5586
40.6703 17.437
40.8607 17.1956
41.0512 16.9396
41.242 16.6833
41.4327 16.5046
41.6236 16.245
41.8146 16.0208
42.0057 15.8232
42.1969 15.6067
42.3882 15.4832
42.5797 15.2248
42.7713 14.9952
42.963 14.7568
43.1549 14.5932
43.3468 14.3624
43.5389 14.202
43.7312 13.9844
43.9237 13.7948
44.1162 13.5759
44.3088 13.4184
44.5016 13.2221
44.6945 13.046
44.8875 12.8744
45.0806 12.6638
45.2739 12.5308
45.4673 12.3077
45.6609 12.1713
45.8546 11.9799
46.0484 11.8294
46.2424 11.6424
46.4365 11.4473
46.631 11.3217
46.8254 11.1798
47.0199 10.9381
47.2146 10.833
47.4095 10.6843
47.6044 10.4979
47.7996 10.3365
47.9948 10.2101
48.1902 10.0509
48.3858 9.9134
48.5815 9.80523
48.7774 9.6313
48.9734 9.46829
49.1696 9.33662
49.3661 9.16406
49.5626 9.00452
49.7592 8.93692
49.956 8.80254
50.153 8.65471
50.3501 8.51443
50.5474 8.40099
50.7448 8.26564
50.9424 8.15354
51.1402 7.98929
51.3381 7.84405
51.5362 7.72385
51.7344 7.62833
51.9328 7.4721
52.1316 7.36283
52.3304 7.26133
52.5293 7.08679
52.7284 7.04015
52.9276 6.85231
53.1271 6.76462
53.3267 6.65644
53.5265 6.52117
53.7264 6.45214
53.9266 6.29495
54.1269 6.20242
54.3274 6.12704
54.528 6.00484
54.7289 5.76722
54.9301 5.58845
55.1314 5.46886
55.3328 5.29747
55.5344 5.0909
55.7361 4.95102