File: XRD/Ni3Fe_FD1019.xy
TT I
1.27165 6.57696
1.45013 5.53632
1.62863 5.22142
1.80712 4.15656
1.98562 4.40276
2.16411 3.95024
2.34263 5.08767
2.52115 6.82246
2.69965 8.56089
2.87818 8.76176
3.05672 10.7561
3.23527 14.7874
3.4138 18.1526
3.59237 21.3595
3.77094 24.8631
3.9495 28.0482
4.12809 32.2092
4.30669 58.101
4.4853 46.3006
4.6639 51.9969
4.84253 62.9022
5.02118 82.0808
5.19981 224.13
5.37848 236.046
5.55716 96.6833
5.73586 86.5663
5.91455 87.6879
6.09328 4315.49
6.27201 75.4465
6.45075 62.7367
6.62952 57.2097
6.8083 53.781
6.98711 51.9975
7.16591 51.2465
7.34475 56.1207
7.5236 62.1357
7.70247 52.8437
7.88135 54.2203
8.06026 58.237
8.23919 64.9799
8.41812 76.4541
8.59709 1045.79
8.77609 94.763
8.9551 81.4977
9.13412 78.4728
9.31318 94.5519
9.49226 79.9774
9.67134 85.664
9.85047 92.5493
10.0296 318.754
10.2088 456.526
10.388 96.263
10.5672 490.125
10.7465 87.3496
10.9257 72.6918
11.105 67.2987
11.2844 64.137
11.4637 61.1473
11.6431 59.947
11.8225 58.7951
12.002 69.1792
12.1814 143.102
12.3609 63.9072
12.5405 60.6928
12.72 63.2485
12.8996 66.9003
13.0792 75.9579
13.2589 217.888
13.4386 127.67
13.6183 228.424
13.7981 99.787
13.9779 72.938
14.1577 77.5449
14.3376 66.5043
14.5175 65.4926
14.6974 66.592
14.8774 104.941
15.0574 159.204
15.2374 65.8384
15.4175 63.3364
15.5976 62.5116
15.7778 90.1136
15.958 168.473
16.1382 59.7178
16.3185 54.8678
16.4988 52.7121
16.6792 51.9854
16.8596 52.3274
17.04 53.1811
17.2205 63.3309
17.401 71.2745
17.5815 56.501
17.7622 59.4467
17.9428 71.2145
18.1237 140.416
18.3044 87.2794
18.4852 78.6927
18.666 58.3339
18.8469 55.6668
19.0278 54.4312
19.2088 56.9665
19.3898 75.4913
19.5709 52.369
19.752 51.135
19.9332 54.1324
20.1144 69.5304
20.2957 62.5896
20.477 52.4787
20.6586 47.7546
20.84 47.4666
21.0215 46.8601
21.203 48.8667
21.3846 47.5168
21.5662 47.0036
21.7479 50.7429
21.9297 64.6083
22.1115 55.4487
22.2933 48.4472
22.4753 46.8487
22.6572 46.9304
22.8393 50.4092
23.0214 57.0789
23.2037 47.2791
23.3859 48.5799
23.5682 56.4956
23.7505 47.7096
23.9329 43.7354
24.1154 42.5325
24.2979 41.9807
24.4805 41.4566
24.6631 41.6909
24.8458 40.8603
25.0286 41.4758
25.2114 43.6679
25.3943 43.9744
25.5773 39.8321
25.7605 39.059
25.9436 39.5484
26.1268 40.9531
26.31 38.8395
26.4933 39.4672
26.6767 41.6175
26.8601 39.5999
27.0437 37.9796
27.2272 37.4716
27.4109 37.3007
27.5946 37.4798
27.7784 36.9297
27.9623 37.5349
28.1462 38.3565
28.3304 36.4294
28.5145 34.9425
28.6987 34.5925
28.8829 34.4492
29.0673 33.7223
29.2517 33.3224
29.4361 33.288
29.6207 32.1524
29.8053 31.9438
29.99 31.6478
30.1748 31.5391
30.3597 31.4018
30.5447 31.2965
30.7297 31.5154
30.915 30.8641
31.1002 30.3369
31.2855 30.0815
31.4708 30.0322
31.6563 29.6743
31.8418 29.4427
32.0275 29.1553
32.2132 28.6492
32.399 28.2125
32.5848 27.6758
32.7708 27.4101
32.9569 27.2461
33.143 27.13
33.3293 26.6457
33.5158 26.3524
33.7022 25.9336
33.8887 25.6136
34.0753 25.2489
34.262 24.9503
34.4488 24.6142
34.6357 24.2284
34.8227 23.9814
35.0098 23.8063
35.1969 23.5608
35.3842 23.3386
35.5716 23.196
35.759 22.8757
35.9468 22.4793
36.1345 22.2976
36.3222 22.0015
36.5101 21.8525
36.6981 21.5193
36.8861 21.222
37.0743 20.9302
37.2626 20.7673
37.451 20.3079
37.6395 20.2818
37.8281 19.8732
38.0168 19.6353
38.2056 19.4241
38.3945 19.1259
38.5837 19.0104
38.7728 18.745
38.9621 18.4815
39.1514 18.1573
39.3409 17.9621
39.5304 17.7517
39.7201 17.6232
39.9099 17.3532
40.0999 17.0544
40.2899 16.8575
40.48 16.6573
40.6703 16.4902
40.8607 16.2822
41.0512 16.0847
41.242 15.8262
41.4327 15.6439
41.6236 15.4338
41.8146 15.1933
42.0057 14.9992
42.1969 14.831
42.3882 14.6796
42.5797 14.4465
42.7713 14.2293
42.963 14.0717
43.1549 13.8761
43.3468 13.6381
43.5389 13.4446
43.7312 13.2969
43.9237 13.0694
44.1162 12.8829
44.3088 12.8034
44.5016 12.5308
44.6945 12.3806
44.8875 12.2471
45.0806 12.0651
45.2739 11.8907
45.4673 11.7158
45.6609 11.5038
45.8546 11.422
46.0484 11.1802
46.2424 11.0773
46.4365 10.8952
46.631 10.727
46.8254 10.6038
47.0199 10.4166
47.2146 10.2725
47.4095 10.1123
47.6044 9.97978
47.7996 9.84753
47.9948 9.66818
48.1902 9.54851
48.3858 9.45959
48.5815 9.26854
48.7774 9.14648
48.9734 9.02286
49.1696 8.85882
49.3661 8.74272
49.5626 8.60915
49.7592 8.45277
49.956 8.34711
50.153 8.22241
50.3501 8.05078
50.5474 7.95079
50.7448 7.81509
50.9424 7.73034
51.1402 7.59598
51.3381 7.45875
51.5362 7.36757
51.7344 7.24386
51.9328 7.12954
52.1316 6.96471
52.3304 6.90204
52.5293 6.77826
52.7284 6.66747
52.9276 6.50444
53.1271 6.45472
53.3267 6.31525
53.5265 6.21975
53.7264 6.13
53.9266 6.00441
54.1269 5.88422
54.3274 5.76969
54.528 5.65804
54.7289 5.50258
54.9301 5.34424
55.1314 5.19165
55.3328 5.02501
55.5344 4.87885
55.7361 4.65216