File: XRD/Ni3Fe_FD0195.xy
TT I
1.27165 8.42653
1.45013 6.79114
1.62863 6.11186
1.80712 5.57664
1.98562 5.01896
2.16411 4.51923
2.34263 4.45107
2.52115 4.36297
2.69965 5.75059
2.87818 8.25895
3.05672 11.2153
3.23527 14.9151
3.4138 19.2605
3.59237 22.3499
3.77094 25.7567
3.9495 29.922
4.12809 34.6875
4.30669 40.3827
4.4853 47.7078
4.6639 57.7493
4.84253 70.8873
5.02118 96.6576
5.19981 634.635
5.37848 341.794
5.55716 113.089
5.73586 101.11
5.91455 110.438
6.09328 3307.42
6.27201 90.7619
6.45075 70.343
6.62952 63.6184
6.8083 59.3266
6.98711 56.7718
7.16591 55.8733
7.34475 55.0525
7.5236 58.4806
7.70247 57.3509
7.88135 59.8493
8.06026 64.8741
8.23919 72.7471
8.41812 89.4198
8.59709 1020.71
8.77609 114.183
8.9551 90.3559
9.13412 86.5396
9.31318 89.2971
9.49226 89.15
9.67134 95.0773
9.85047 105.501
10.0296 560.354
10.2088 725.366
10.388 110.6
10.5672 395.356
10.7465 93.5095
10.9257 80.4442
11.105 74.3993
11.2844 70.2728
11.4637 67.6244
11.6431 66.1165
11.8225 65.1372
12.002 67.8852
12.1814 133.183
12.3609 73.0012
12.5405 66.9262
12.72 69.1072
12.8996 74.1583
13.0792 83.9627
13.2589 223.139
13.4386 168.704
13.6183 214.967
13.7981 126.367
13.9779 79.9209
14.1577 76.7863
14.3376 72.6245
14.5175 72.3498
14.6974 73.5053
14.8774 123.633
15.0574 187.91
15.2374 72.3144
15.4175 69.5993
15.5976 69.4456
15.7778 108.555
15.958 179.039
16.1382 64.0778
16.3185 60.2418
16.4988 57.9187
16.6792 56.723
16.8596 57.2822
17.04 58.3443
17.2205 68.7351
17.401 79.897
17.5815 61.9834
17.7622 64.2235
17.9428 85.5349
18.1237 127.88
18.3044 89.7883
18.4852 89.0441
18.666 63.1008
18.8469 60.8564
19.0278 59.2787
19.2088 63.8344
19.3898 73.5825
19.5709 57.2933
19.752 55.5939
19.9332 60.0901
20.1144 70.8195
20.2957 63.7052
20.477 58.1595
20.6586 51.9362
20.84 51.0987
21.0215 51.2441
21.203 52.1783
21.3846 51.7487
21.5662 51.1809
21.7479 55.7911
21.9297 65.0724
22.1115 57.4641
22.2933 52.9927
22.4753 50.746
22.6572 51.1918
22.8393 53.9943
23.0214 59.3426
23.2037 51.2966
23.3859 53.0816
23.5682 56.315
23.7505 52.3714
23.9329 47.3094
24.1154 46.2747
24.2979 45.5147
24.4805 44.8198
24.6631 44.6035
24.8458 44.249
25.0286 44.8077
25.2114 46.279
25.3943 46.2235
25.5773 43.5788
25.7605 42.2635
25.9436 42.6084
26.1268 43.2248
26.31 42.1958
26.4933 42.4177
26.6767 43.6228
26.8601 42.4504
27.0437 40.7092
27.2272 40.372
27.4109 39.9938
27.5946 40.1355
27.7784 39.8135
27.9623 39.9001
28.1462 40.4732
28.3304 38.8906
28.5145 37.5285
28.6987 37.1265
28.8829 36.8529
29.0673 36.3584
29.2517 35.7849
29.4361 35.4633
29.6207 34.6322
29.8053 34.2041
29.99 33.9311
30.1748 33.724
30.3597 33.7778
30.5447 33.5545
30.7297 33.5208
30.915 33.0365
31.1002 32.6092
31.2855 32.2418
31.4708 31.9901
31.6563 31.7087
31.8418 31.5242
32.0275 31.172
32.2132 30.6166
32.399 30.2191
32.5848 29.762
32.7708 29.4149
32.9569 29.2055
33.143 28.9273
33.3293 28.5295
33.5158 28.2667
33.7022 27.7526
33.8887 27.4012
34.0753 27.1518
34.262 26.7328
34.4488 26.3811
34.6357 26.0612
34.8227 25.7331
35.0098 25.54
35.1969 25.1935
35.3842 25.0134
35.5716 24.7503
35.759 24.459
35.9468 24.1034
36.1345 23.8189
36.3222 23.5806
36.5101 23.4123
36.6981 23.0278
36.8861 22.7663
37.0743 22.4259
37.2626 22.2404
37.451 21.8457
37.6395 21.7133
37.8281 21.4101
38.0168 21.0475
38.2056 20.8173
38.3945 20.5148
38.5837 20.2716
38.7728 19.9979
38.9621 19.7787
39.1514 19.4471
39.3409 19.2928
39.5304 18.998
39.7201 18.8068
39.9099 18.586
40.0999 18.2903
40.2899 18.0459
40.48 17.8311
40.6703 17.6519
40.8607 17.3825
41.0512 17.1742
41.242 16.856
41.4327 16.7684
41.6236 16.509
41.8146 16.2736
42.0057 16.0662
42.1969 15.8893
42.3882 15.6276
42.5797 15.3961
42.7713 15.1934
42.963 15.0402
43.1549 14.8092
43.3468 14.5981
43.5389 14.4478
43.7312 14.2344
43.9237 14.0201
44.1162 13.8348
44.3088 13.5884
44.5016 13.3737
44.6945 13.2474
44.8875 13.0012
45.0806 12.8797
45.2739 12.6896
45.4673 12.5006
45.6609 12.3436
45.8546 12.1664
46.0484 11.9859
46.2424 11.8376
46.4365 11.6528
46.631 11.4218
46.8254 11.2849
47.0199 11.1484
47.2146 10.9841
47.4095 10.8175
47.6044 10.6373
47.7996 10.5036
47.9948 10.3323
48.1902 10.1741
48.3858 10.0649
48.5815 9.92562
48.7774 9.78781
48.9734 9.6199
49.1696 9.48068
49.3661 9.28487
49.5626 9.20645
49.7592 9.01886
49.956 8.93652
50.153 8.79176
50.3501 8.63266
50.5474 8.49491
50.7448 8.39699
50.9424 8.24633
51.1402 8.13229
51.3381 7.98845
51.5362 7.86853
51.7344 7.72399
51.9328 7.5668
52.1316 7.47688
52.3304 7.38298
52.5293 7.2273
52.7284 7.12969
52.9276 7.00131
53.1271 6.87819
53.3267 6.78367
53.5265 6.64093
53.7264 6.52296
53.9266 6.41433
54.1269 6.29244
54.3274 6.14893
54.528 5.98853
54.7289 5.84205
54.9301 5.61936
55.1314 5.4659
55.3328 5.25124
55.5344 5.10119
55.7361 4.95236