File: XRD/Ni3Fe_FD0443.xy
TT I
1.27165 7.25038
1.45013 6.32421
1.62863 5.03062
1.80712 5.01089
1.98562 4.83647
2.16411 4.64434
2.34263 4.50187
2.52115 6.45276
2.69965 7.72958
2.87818 8.34245
3.05672 11.0414
3.23527 15.0544
3.4138 18.8137
3.59237 23.7509
3.77094 25.9724
3.9495 30.1028
4.12809 34.858
4.30669 164.3
4.4853 61.1519
4.6639 56.2587
4.84253 68.5031
5.02118 90.0612
5.19981 481.088
5.37848 202.827
5.55716 104.595
5.73586 94.5737
5.91455 98.3342
6.09328 4298.34
6.27201 84.6066
6.45075 68.5528
6.62952 63.2927
6.8083 59.1896
6.98711 56.4571
7.16591 56.1571
7.34475 81.9067
7.5236 55.4673
7.70247 56.9535
7.88135 58.8646
8.06026 63.4351
8.23919 70.7713
8.41812 87.0451
8.59709 1227.32
8.77609 102.264
8.9551 91.6966
9.13412 83.2824
9.31318 84.3749
9.49226 86.1898
9.67134 97.9689
9.85047 101.826
10.0296 398.557
10.2088 422.435
10.388 107.459
10.5672 504.514
10.7465 87.9145
10.9257 78.9421
11.105 72.8561
11.2844 70.6304
11.4637 65.8713
11.6431 64.5991
11.8225 63.3023
12.002 65.1545
12.1814 154.563
12.3609 69.9228
12.5405 65.5818
12.72 70.2361
12.8996 72.2715
13.0792 81.1692
13.2589 247.502
13.4386 126.256
13.6183 249.714
13.7981 98.9601
13.9779 77.2202
14.1577 73.4692
14.3376 72.5347
14.5175 70.1442
14.6974 71.811
14.8774 116.98
15.0574 151.889
15.2374 71.678
15.4175 67.5415
15.5976 67.0515
15.7778 100.265
15.958 156.806
16.1382 63.292
16.3185 59.3691
16.4988 56.4952
16.6792 55.2321
16.8596 56.1827
17.04 57.0476
17.2205 68.3963
17.401 72.1253
17.5815 60.416
17.7622 62.3681
17.9428 76.8443
18.1237 138.647
18.3044 91.7856
18.4852 78.2253
18.666 61.5338
18.8469 59.1638
19.0278 57.8982
19.2088 60.9516
19.3898 77.125
19.5709 55.08
19.752 54.3404
19.9332 57.5777
20.1144 70.8728
20.2957 64.5056
20.477 54.441
20.6586 50.462
20.84 49.733
21.0215 49.5778
21.203 51.7446
21.3846 49.9039
21.5662 49.8275
21.7479 53.8013
21.9297 65.4563
22.1115 56.7522
22.2933 50.7677
22.4753 49.7339
22.6572 49.9206
22.8393 53.1442
23.0214 58.1746
23.2037 49.6101
23.3859 50.7914
23.5682 57.5795
23.7505 49.0634
23.9329 46.0578
24.1154 44.8098
24.2979 44.2559
24.4805 43.7447
24.6631 43.6048
24.8458 42.9996
25.0286 43.6802
25.2114 45.5556
25.3943 45.2968
25.5773 41.6775
25.7605 41.1226
25.9436 41.6635
26.1268 42.4468
26.31 40.8146
26.4933 41.4869
26.6767 42.8991
26.8601 41.1321
27.0437 39.6052
27.2272 39.1616
27.4109 39.2371
27.5946 39.0043
27.7784 38.5215
27.9623 39.0091
28.1462 39.4733
28.3304 37.886
28.5145 36.5602
28.6987 36.281
28.8829 36.0767
29.0673 35.2885
29.2517 34.8583
29.4361 34.7136
29.6207 33.7368
29.8053 33.469
29.99 33.1946
30.1748 33.0417
30.3597 32.8274
30.5447 32.7674
30.7297 32.7383
30.915 32.1757
31.1002 31.5833
31.2855 31.4016
31.4708 31.3818
31.6563 30.921
31.8418 30.6776
32.0275 30.3886
32.2132 29.913
32.399 29.4903
32.5848 28.9284
32.7708 28.5813
32.9569 28.4892
33.143 28.3097
33.3293 27.9179
33.5158 27.5344
33.7022 27.0841
33.8887 26.7203
34.0753 26.4621
34.262 26.1167
34.4488 25.6936
34.6357 25.3806
34.8227 25.0709
35.0098 24.9284
35.1969 24.5649
35.3842 24.3821
35.5716 24.1516
35.759 23.8328
35.9468 23.4992
36.1345 23.2349
36.3222 23.043
36.5101 22.7636
36.6981 22.5167
36.8861 22.162
37.0743 21.8707
37.2626 21.6546
37.451 21.3464
37.6395 21.14
37.8281 20.8128
38.0168 20.5214
38.2056 20.282
38.3945 20.0285
38.5837 19.778
38.7728 19.5079
38.9621 19.2664
39.1514 18.978
39.3409 18.6885
39.5304 18.5144
39.7201 18.3039
39.9099 18.1627
40.0999 17.913
40.2899 17.6895
40.48 17.3574
40.6703 17.1758
40.8607 17.0335
41.0512 16.825
41.242 16.5336
41.4327 16.2983
41.6236 16.0338
41.8146 15.9226
42.0057 15.7227
42.1969 15.4681
42.3882 15.2737
42.5797 15.076
42.7713 14.8525
42.963 14.6963
43.1549 14.4996
43.3468 14.2049
43.5389 14.0399
43.7312 13.8327
43.9237 13.7184
44.1162 13.545
44.3088 13.2778
44.5016 13.118
44.6945 12.948
44.8875 12.7641
45.0806 12.5711
45.2739 12.44
45.4673 12.2134
45.6609 12.0364
45.8546 11.859
46.0484 11.7065
46.2424 11.5053
46.4365 11.4058
46.631 11.2138
46.8254 11.029
47.0199 10.8809
47.2146 10.7299
47.4095 10.5529
47.6044 10.4102
47.7996 10.2346
47.9948 10.1201
48.1902 9.98994
48.3858 9.8239
48.5815 9.67735
48.7774 9.57693
48.9734 9.40497
49.1696 9.25781
49.3661 9.12167
49.5626 8.99197
49.7592 8.81895
49.956 8.69954
50.153 8.57116
50.3501 8.45021
50.5474 8.30909
50.7448 8.16877
50.9424 8.05761
51.1402 7.92944
51.3381 7.80533
51.5362 7.68393
51.7344 7.53956
51.9328 7.40689
52.1316 7.3029
52.3304 7.22545
52.5293 7.05392
52.7284 6.96412
52.9276 6.83872
53.1271 6.7161
53.3267 6.59332
53.5265 6.49253
53.7264 6.40968
53.9266 6.272
54.1269 6.09968
54.3274 6.05358
54.528 5.92604
54.7289 5.70531
54.9301 5.56131
55.1314 5.39443
55.3328 5.24449
55.5344 5.00353
55.7361 4.88971