File: XRD/Ni3Fe_FD1034.xy
TT I
1.27165 6.74399
1.45013 5.85485
1.62863 4.58898
1.80712 5.32149
1.98562 4.35608
2.16411 4.4108
2.34263 5.68132
2.52115 7.39614
2.69965 8.63095
2.87818 8.77803
3.05672 10.9003
3.23527 14.7847
3.4138 18.1763
3.59237 20.8934
3.77094 24.6067
3.9495 28.3279
4.12809 31.8669
4.30669 57.1359
4.4853 46.2522
4.6639 52.4176
4.84253 64.1923
5.02118 83.015
5.19981 228.279
5.37848 220.975
5.55716 97.1353
5.73586 87.5188
5.91455 88.1278
6.09328 4534.77
6.27201 75.5318
6.45075 63.1457
6.62952 57.608
6.8083 54.0472
6.98711 52.5952
7.16591 51.3999
7.34475 56.1079
7.5236 60.0637
7.70247 52.6953
7.88135 54.5906
8.06026 58.575
8.23919 65.6045
8.41812 77.8066
8.59709 1066.84
8.77609 94.8782
8.9551 82.0202
9.13412 78.7412
9.31318 90.8903
9.49226 81.0805
9.67134 86.1031
9.85047 93.011
10.0296 338.228
10.2088 446.013
10.388 97.0798
10.5672 504.519
10.7465 86.9004
10.9257 73.2166
11.105 68.0536
11.2844 64.5824
11.4637 61.5826
11.6431 60.5271
11.8225 59.6476
12.002 67.341
12.1814 145.774
12.3609 64.2101
12.5405 61.0735
12.72 63.7002
12.8996 67.4548
13.0792 76.3785
13.2589 223.785
13.4386 127.934
13.6183 234.203
13.7981 100.936
13.9779 73.388
14.1577 76.4644
14.3376 66.9368
14.5175 66.1005
14.6974 67.1721
14.8774 108.123
15.0574 161.369
15.2374 66.2381
15.4175 63.9617
15.5976 63.149
15.7778 92.8648
15.958 168.056
16.1382 60.0116
16.3185 55.4442
16.4988 53.2276
16.6792 52.4031
16.8596 52.7392
17.04 53.6068
17.2205 64.3715
17.401 71.6763
17.5815 57.0731
17.7622 59.9062
17.9428 72.5223
18.1237 142.11
18.3044 88.3455
18.4852 79.3515
18.666 58.7014
18.8469 56.07
19.0278 54.7667
19.2088 57.5382
19.3898 76.1854
19.5709 52.7267
19.752 51.6343
19.9332 54.5819
20.1144 70.1011
20.2957 63.0703
20.477 52.7723
20.6586 48.1186
20.84 47.7063
21.0215 46.9769
21.203 49.368
21.3846 47.7379
21.5662 47.3851
21.7479 51.594
21.9297 65.2606
22.1115 55.8055
22.2933 48.9619
22.4753 47.2303
22.6572 47.4278
22.8393 50.9311
23.0214 57.3042
23.2037 47.7011
23.3859 49.1237
23.5682 57.0289
23.7505 47.9205
23.9329 44.106
24.1154 42.926
24.2979 42.1054
24.4805 41.7042
24.6631 41.9258
24.8458 41.1691
25.0286 41.8183
25.2114 44.1491
25.3943 44.2803
25.5773 40.0623
25.7605 39.3433
25.9436 39.8912
26.1268 41.1548
26.31 39.313
26.4933 39.8667
26.6767 41.8724
26.8601 39.9549
27.0437 38.0875
27.2272 37.8191
27.4109 37.6242
27.5946 37.6882
27.7784 37.2157
27.9623 37.8213
28.1462 38.5687
28.3304 36.6743
28.5145 35.2157
28.6987 34.9186
28.8829 34.6329
29.0673 33.9192
29.2517 33.6008
29.4361 33.5169
29.6207 32.4554
29.8053 32.1172
29.99 31.8097
30.1748 31.7948
30.3597 31.7254
30.5447 31.4854
30.7297 31.7474
30.915 31.0242
31.1002 30.5472
31.2855 30.3163
31.4708 30.29
31.6563 29.918
31.8418 29.6408
32.0275 29.4173
32.2132 28.9262
32.399 28.3165
32.5848 27.8965
32.7708 27.5797
32.9569 27.4366
33.143 27.3123
33.3293 26.9814
33.5158 26.6169
33.7022 26.0879
33.8887 25.8788
34.0753 25.5519
34.262 25.1027
34.4488 24.7969
34.6357 24.5268
34.8227 24.2655
35.0098 24.052
35.1969 23.7715
35.3842 23.6239
35.5716 23.3564
35.759 23.0657
35.9468 22.7085
36.1345 22.5039
36.3222 22.2646
36.5101 22.0294
36.6981 21.7281
36.8861 21.4324
37.0743 21.1505
37.2626 20.8602
37.451 20.5064
37.6395 20.3858
37.8281 20.0637
38.0168 19.8717
38.2056 19.6102
38.3945 19.339
38.5837 19.0785
38.7728 18.8013
38.9621 18.5866
39.1514 18.3349
39.3409 18.0518
39.5304 17.8926
39.7201 17.7374
39.9099 17.5122
40.0999 17.2739
40.2899 17.0465
40.48 16.8425
40.6703 16.5758
40.8607 16.4232
41.0512 16.1907
41.242 15.9167
41.4327 15.7354
41.6236 15.4844
41.8146 15.3693
42.0057 15.1848
42.1969 14.9174
42.3882 14.7814
42.5797 14.5236
42.7713 14.3621
42.963 14.1708
43.1549 13.9516
43.3468 13.7732
43.5389 13.5831
43.7312 13.3761
43.9237 13.2152
44.1162 13.0556
44.3088 12.8716
44.5016 12.6666
44.6945 12.4773
44.8875 12.3549
45.0806 12.1592
45.2739 11.9602
45.4673 11.8099
45.6609 11.6173
45.8546 11.4915
46.0484 11.2952
46.2424 11.1598
46.4365 10.9396
46.631 10.8528
46.8254 10.6299
47.0199 10.5143
47.2146 10.3862
47.4095 10.1956
47.6044 10.0853
47.7996 9.90778
47.9948 9.74324
48.1902 9.62458
48.3858 9.46774
48.5815 9.35214
48.7774 9.20031
48.9734 9.0432
49.1696 8.91496
49.3661 8.78408
49.5626 8.67526
49.7592 8.52512
49.956 8.41891
50.153 8.28871
50.3501 8.09822
50.5474 8.0308
50.7448 7.92381
50.9424 7.76391
51.1402 7.64972
51.3381 7.51894
51.5362 7.39723
51.7344 7.27722
51.9328 7.16823
52.1316 7.02713
52.3304 6.96862
52.5293 6.79665
52.7284 6.69872
52.9276 6.56205
53.1271 6.51866
53.3267 6.39413
53.5265 6.26289
53.7264 6.16164
53.9266 6.0722
54.1269 5.96256
54.3274 5.81804
54.528 5.70738
54.7289 5.56685
54.9301 5.38892
55.1314 5.25078
55.3328 5.06419
55.5344 4.89742
55.7361 4.806