File: XRD/Ni3Fe_FD0863.xy
TT I
1.27165 7.19661
1.45013 6.41957
1.62863 5.36868
1.80712 5.19072
1.98562 5.17423
2.16411 4.67554
2.34263 6.05253
2.52115 8.01588
2.69965 7.97622
2.87818 8.88233
3.05672 11.5451
3.23527 14.9928
3.4138 19.2717
3.59237 23.6792
3.77094 26.1897
3.9495 29.8812
4.12809 34.7243
4.30669 229.828
4.4853 66.6626
4.6639 54.2608
4.84253 65.8886
5.02118 85.2065
5.19981 294.405
5.37848 177.42
5.55716 100.494
5.73586 90.0753
5.91455 90.9244
6.09328 4383.87
6.27201 81.843
6.45075 66.7178
6.62952 62.1554
6.8083 58.0616
6.98711 55.2385
7.16591 54.7
7.34475 93.0138
7.5236 54.0757
7.70247 55.4401
7.88135 57.1109
8.06026 61.5332
8.23919 68.4838
8.41812 83.4245
8.59709 1140.36
8.77609 97.3457
8.9551 91.1157
9.13412 80.5955
9.31318 81.4267
9.49226 83.4277
9.67134 97.6644
9.85047 98.0973
10.0296 302.894
10.2088 401.722
10.388 102.882
10.5672 519.971
10.7465 85.252
10.9257 77.6315
11.105 70.9262
11.2844 69.7159
11.4637 64.1504
11.6431 62.6443
11.8225 61.7318
12.002 62.3727
12.1814 151.498
12.3609 70.1769
12.5405 63.6652
12.72 69.4031
12.8996 69.737
13.0792 78.2842
13.2589 228.845
13.4386 123.038
13.6183 244.604
13.7981 95.6363
13.9779 74.8526
14.1577 71.3016
14.3376 70.8615
14.5175 67.6652
14.6974 69.2982
14.8774 105.381
15.0574 145.983
15.2374 70.492
15.4175 65.4419
15.5976 64.6606
15.7778 90.6979
15.958 155.401
16.1382 61.9953
16.3185 57.9274
16.4988 54.8194
16.6792 53.8493
16.8596 54.6295
17.04 54.7713
17.2205 65.4899
17.401 70.2724
17.5815 58.2572
17.7622 60.1957
17.9428 71.2053
18.1237 138.395
18.3044 89.6944
18.4852 76.6541
18.666 59.8376
18.8469 57.2416
19.0278 56.1203
19.2088 58.3505
19.3898 76.1663
19.5709 53.4136
19.752 52.6203
19.9332 55.2469
20.1144 68.8594
20.2957 63.7286
20.477 53.0118
20.6586 49.0136
20.84 48.1637
21.0215 47.8785
21.203 50.4487
21.3846 48.4203
21.5662 48.0928
21.7479 51.6552
21.9297 63.7271
22.1115 55.5753
22.2933 49.188
22.4753 48.2844
22.6572 48.1248
22.8393 51.1047
23.0214 56.6736
23.2037 48.2331
23.3859 48.7881
23.5682 56.5734
23.7505 47.5256
23.9329 44.5417
24.1154 43.5807
24.2979 42.9521
24.4805 42.39
24.6631 42.3262
24.8458 41.6285
25.0286 42.2016
25.2114 44.0364
25.3943 43.9916
25.5773 40.2972
25.7605 39.9536
25.9436 40.3306
26.1268 41.1758
26.31 39.4958
26.4933 40.1613
26.6767 41.5717
26.8601 39.9126
27.0437 38.3294
27.2272 37.9427
27.4109 37.9892
27.5946 37.888
27.7784 37.328
27.9623 37.8711
28.1462 38.3991
28.3304 36.5776
28.5145 35.6653
28.6987 35.1601
28.8829 35.0289
29.0673 34.1861
29.2517 33.8982
29.4361 33.6622
29.6207 32.7055
29.8053 32.4972
29.99 32.132
30.1748 32.0527
30.3597 31.7314
30.5447 31.7127
30.7297 31.7067
30.915 31.2222
31.1002 30.7267
31.2855 30.43
31.4708 30.4004
31.6563 30.0461
31.8418 29.8493
32.0275 29.519
32.2132 29.0278
32.399 28.6843
32.5848 28.0673
32.7708 27.7503
32.9569 27.6075
33.143 27.3989
33.3293 27.1012
33.5158 26.6873
33.7022 26.2657
33.8887 25.9813
34.0753 25.6832
34.262 25.3544
34.4488 25.0127
34.6357 24.6719
34.8227 24.4679
35.0098 24.2136
35.1969 23.9489
35.3842 23.6817
35.5716 23.4763
35.759 23.1425
35.9468 22.8931
36.1345 22.6289
36.3222 22.3294
36.5101 22.1865
36.6981 21.7533
36.8861 21.5332
37.0743 21.1567
37.2626 21.0359
37.451 20.7105
37.6395 20.6261
37.8281 20.2495
38.0168 19.9875
38.2056 19.766
38.3945 19.3849
38.5837 19.2589
38.7728 19.0299
38.9621 18.7312
39.1514 18.4975
39.3409 18.2783
39.5304 17.987
39.7201 17.8707
39.9099 17.5728
40.0999 17.4223
40.2899 17.2176
40.48 16.9014
40.6703 16.7397
40.8607 16.5561
41.0512 16.3381
41.242 16.0855
41.4327 15.8652
41.6236 15.6651
41.8146 15.4802
42.0057 15.2765
42.1969 15.0512
42.3882 14.8891
42.5797 14.6715
42.7713 14.4833
42.963 14.261
43.1549 14.1145
43.3468 13.8279
43.5389 13.6864
43.7312 13.4252
43.9237 13.3037
44.1162 13.1282
44.3088 12.9626
44.5016 12.7291
44.6945 12.592
44.8875 12.4015
45.0806 12.2109
45.2739 12.0786
45.4673 11.9241
45.6609 11.708
45.8546 11.5713
46.0484 11.4181
46.2424 11.2457
46.4365 11.0709
46.631 10.8669
46.8254 10.7457
47.0199 10.5733
47.2146 10.4504
47.4095 10.3102
47.6044 10.09
47.7996 10.0102
47.9948 9.81983
48.1902 9.67789
48.3858 9.54511
48.5815 9.42885
48.7774 9.28954
48.9734 9.10722
49.1696 8.99215
49.3661 8.858
49.5626 8.71262
49.7592 8.59625
49.956 8.50163
50.153 8.31698
50.3501 8.197
50.5474 8.06085
50.7448 7.98062
50.9424 7.83028
51.1402 7.70633
51.3381 7.59045
51.5362 7.47654
51.7344 7.33851
51.9328 7.20387
52.1316 7.10046
52.3304 6.97239
52.5293 6.88051
52.7284 6.73434
52.9276 6.64437
53.1271 6.53751
53.3267 6.42038
53.5265 6.29459
53.7264 6.21799
53.9266 6.10475
54.1269 6.00531
54.3274 5.87229
54.528 5.73755
54.7289 5.61935
54.9301 5.42307
55.1314 5.22823
55.3328 5.10189
55.5344 4.94881
55.7361 4.75541