File: XRD/Ni3Fe_FD0070.xy
TT I
1.27165 27.9171
1.45013 21.2184
1.62863 18.523
1.80712 16.6838
1.98562 16.5612
2.16411 15.8882
2.34263 16.1899
2.52115 17.0406
2.69965 20.5998
2.87818 28.6241
3.05672 48.7219
3.23527 46.6897
3.4138 27.4425
3.59237 24.0913
3.77094 24.3411
3.9495 25.8209
4.12809 29.1946
4.30669 35.9236
4.4853 38.4754
4.6639 45.3849
4.84253 59.5511
5.02118 105.064
5.19981 433.165
5.37848 2303.44
5.55716 142.334
5.73586 103.832
5.91455 127.469
6.09328 761.308
6.27201 173.796
6.45075 63.1335
6.62952 49.356
6.8083 43.9856
6.98711 43.004
7.16591 42.6733
7.34475 41.0619
7.5236 74.0666
7.70247 44.1043
7.88135 41.348
8.06026 44.4253
8.23919 50.4308
8.41812 66.4202
8.59709 250.674
8.77609 242.446
8.9551 74.1801
9.13412 68.8562
9.31318 224.334
9.49226 63.0306
9.67134 63.4924
9.85047 71.8232
10.0296 192.422
10.2088 774.899
10.388 93.0137
10.5672 113.279
10.7465 139.912
10.9257 54.523
11.105 49.1353
11.2844 46.1346
11.4637 43.6318
11.6431 43.0158
11.8225 43.6222
12.002 104.831
12.1814 55.687
12.3609 75.114
12.5405 44.5568
12.72 43.7755
12.8996 45.9274
13.0792 55.5235
13.2589 79.8941
13.4386 194.21
13.6183 82.7122
13.7981 165.578
13.9779 55.1725
14.1577 79.5564
14.3376 48.4449
14.5175 45.6272
14.6974 46.0858
14.8774 57.7532
15.0574 97.6883
15.2374 52.8363
15.4175 44.4598
15.5976 43.9403
15.7778 53.6494
15.958 79.1748
16.1382 60.9569
16.3185 39.7146
16.4988 37.2198
16.6792 36.2668
16.8596 36.641
17.04 39.8249
17.2205 38.7495
17.401 46.4752
17.5815 39.58
17.7622 42.1562
17.9428 46.018
18.1237 50.6118
18.3044 66.5093
18.4852 61.3449
18.666 44.2054
18.8469 38.8338
19.0278 37.6642
19.2088 38.7394
19.3898 47.1312
19.5709 42.1016
19.752 35.6395
19.9332 36.0883
20.1144 37.0861
20.2957 40.6956
20.477 40.6651
20.6586 33.7727
20.84 35.423
21.0215 32.1773
21.203 31.8279
21.3846 33.1099
21.5662 32.3982
21.7479 33.0339
21.9297 34.3535
22.1115 39.0674
22.2933 36.2844
22.4753 32.2997
22.6572 32.0249
22.8393 33.2492
23.0214 33.6243
23.2037 34.9659
23.3859 33.0276
23.5682 32.8651
23.7505 36.652
23.9329 31.1688
24.1154 30.0154
24.2979 29.0299
24.4805 28.5542
24.6631 28.9847
24.8458 28.1942
25.0286 27.9457
25.2114 28.0925
25.3943 28.7681
25.5773 28.6151
25.7605 27.0509
25.9436 26.9428
26.1268 26.7018
26.31 27.4043
26.4933 26.6543
26.6767 26.5506
26.8601 27.5016
27.0437 26.8666
27.2272 25.7861
27.4109 25.4582
27.5946 25.4186
27.7784 25.4666
27.9623 25.1107
28.1462 25.2792
28.3304 25.1933
28.5145 24.5314
28.6987 23.8342
28.8829 23.5049
29.0673 23.3166
29.2517 22.8943
29.4361 22.6211
29.6207 22.4729
29.8053 22.0372
29.99 21.8921
30.1748 21.7489
30.3597 21.552
30.5447 21.3474
30.7297 21.1877
30.915 21.3813
31.1002 21.0259
31.2855 20.7112
31.4708 20.5003
31.6563 20.5068
31.8418 20.2381
32.0275 20.013
32.2132 19.8852
32.399 19.5893
32.5848 19.2694
32.7708 18.9975
32.9569 18.9151
33.143 18.6799
33.3293 18.4316
33.5158 18.3936
33.7022 17.9748
33.8887 17.7628
34.0753 17.5973
34.262 17.4414
34.4488 17.0838
34.6357 16.9111
34.8227 16.7275
35.0098 16.6136
35.1969 16.3347
35.3842 16.1446
35.5716 16.0879
35.759 15.9882
35.9468 15.6078
36.1345 15.55
36.3222 15.3678
36.5101 15.2034
36.6981 15.0454
36.8861 14.839
37.0743 14.6899
37.2626 14.4437
37.451 14.3051
37.6395 14.1814
37.8281 13.9237
38.0168 13.7373
38.2056 13.6334
38.3945 13.4609
38.5837 13.2593
38.7728 13.1024
38.9621 12.9932
39.1514 12.7806
39.3409 12.5937
39.5304 12.4975
39.7201 12.341
39.9099 12.1506
40.0999 12.0376
40.2899 11.8742
40.48 11.7295
40.6703 11.5679
40.8607 11.4359
41.0512 11.2998
41.242 11.1433
41.4327 11.0413
41.6236 10.8642
41.8146 10.7723
42.0057 10.606
42.1969 10.5227
42.3882 10.3667
42.5797 10.189
42.7713 10.0458
42.963 9.90311
43.1549 9.81368
43.3468 9.67451
43.5389 9.52157
43.7312 9.38901
43.9237 9.30813
44.1162 9.18058
44.3088 9.01754
44.5016 8.93628
44.6945 8.82354
44.8875 8.69576
45.0806 8.53613
45.2739 8.46202
45.4673 8.34849
45.6609 8.24079
45.8546 8.0887
46.0484 8.0112
46.2424 7.85451
46.4365 7.7783
46.631 7.63842
46.8254 7.54439
47.0199 7.4517
47.2146 7.32576
47.4095 7.2391
47.6044 7.13444
47.7996 7.0457
47.9948 6.92664
48.1902 6.80526
48.3858 6.74689
48.5815 6.62465
48.7774 6.53654
48.9734 6.48215
49.1696 6.35688
49.3661 6.25068
49.5626 6.17535
49.7592 6.0982
49.956 5.99386
50.153 5.91036
50.3501 5.81734
50.5474 5.74223
50.7448 5.6589
50.9424 5.56699
51.1402 5.50204
51.3381 5.40346
51.5362 5.31519
51.7344 5.21938
51.9328 5.15398
52.1316 5.04536
52.3304 4.99196
52.5293 4.89453
52.7284 4.79536
52.9276 4.73003
53.1271 4.70497
53.3267 4.59839
53.5265 4.55423
53.7264 4.45001
53.9266 4.3966
54.1269 4.23658
54.3274 4.19092
54.528 4.059
54.7289 3.89323
54.9301 3.76604
55.1314 3.67396
55.3328 3.48361
55.5344 3.37171
55.7361 3.31521