File: XRD/Ni3Fe_FD0869.xy
TT I
1.27165 7.58726
1.45013 6.25044
1.62863 5.17935
1.80712 4.82535
1.98562 4.60194
2.16411 5.06424
2.34263 5.84849
2.52115 6.77983
2.69965 8.49477
2.87818 8.68555
3.05672 11.5325
3.23527 15.1472
3.4138 19.2811
3.59237 23.5334
3.77094 26.0618
3.9495 29.5014
4.12809 34.9147
4.30669 240.174
4.4853 67.5027
4.6639 54.7358
4.84253 66.1114
5.02118 85.0476
5.19981 292.171
5.37848 176.964
5.55716 100.394
5.73586 90.3581
5.91455 91.0097
6.09328 4335.76
6.27201 81.8145
6.45075 66.7755
6.62952 62.0036
6.8083 58.1696
6.98711 55.1826
7.16591 55.0594
7.34475 94.8785
7.5236 54.3303
7.70247 55.7144
7.88135 57.3344
8.06026 61.5498
8.23919 68.6733
8.41812 83.9709
8.59709 1126.75
8.77609 97.6165
8.9551 91.0771
9.13412 80.9562
9.31318 81.2898
9.49226 83.2225
9.67134 97.9162
9.85047 98.3911
10.0296 301.154
10.2088 396.63
10.388 102.649
10.5672 519.694
10.7465 85.2981
10.9257 77.9557
11.105 71.1317
11.2844 69.9242
11.4637 64.2944
11.6431 62.8479
11.8225 61.6931
12.002 62.3046
12.1814 149.858
12.3609 70.1958
12.5405 63.5208
12.72 69.5272
12.8996 69.9014
13.0792 77.3458
13.2589 228.649
13.4386 122.217
13.6183 243.112
13.7981 95.6173
13.9779 74.5605
14.1577 71.3397
14.3376 70.9292
14.5175 67.7171
14.6974 69.5807
14.8774 104.927
15.0574 145.46
15.2374 70.248
15.4175 65.486
15.5976 64.7448
15.7778 90.2326
15.958 154.214
16.1382 62.1017
16.3185 58.0713
16.4988 54.8543
16.6792 53.883
16.8596 54.6925
17.04 54.8782
17.2205 64.956
17.401 69.6817
17.5815 58.3348
17.7622 60.4644
17.9428 71.1153
18.1237 138.549
18.3044 89.069
18.4852 76.4781
18.666 59.4644
18.8469 57.1744
19.0278 56.0368
19.2088 58.213
19.3898 76.125
19.5709 53.4612
19.752 52.5255
19.9332 55.2435
20.1144 69.0899
20.2957 63.5596
20.477 53.069
20.6586 48.9393
20.84 48.1749
21.0215 47.9689
21.203 50.2138
21.3846 48.3307
21.5662 47.9795
21.7479 51.5582
21.9297 63.6669
22.1115 55.3998
22.2933 49.1868
22.4753 48.1907
22.6572 48.0199
22.8393 50.8158
23.0214 56.6938
23.2037 48.1992
23.3859 48.7803
23.5682 56.4357
23.7505 47.6809
23.9329 44.7023
24.1154 43.6581
24.2979 42.8945
24.4805 42.2901
24.6631 42.4371
24.8458 41.6708
25.0286 42.1386
25.2114 43.967
25.3943 43.9891
25.5773 40.3544
25.7605 39.9583
25.9436 40.1882
26.1268 41.3177
26.31 39.4376
26.4933 40.0958
26.6767 41.5303
26.8601 39.9503
27.0437 38.3635
27.2272 37.9663
27.4109 37.9254
27.5946 37.9283
27.7784 37.2784
27.9623 37.9011
28.1462 38.3151
28.3304 36.6915
28.5145 35.47
28.6987 35.0842
28.8829 34.9256
29.0673 34.1473
29.2517 33.8382
29.4361 33.803
29.6207 32.7328
29.8053 32.4454
29.99 32.0914
30.1748 31.9413
30.3597 31.7702
30.5447 31.6525
30.7297 31.7557
30.915 31.1333
31.1002 30.7116
31.2855 30.4554
31.4708 30.4714
31.6563 29.9679
31.8418 29.7097
32.0275 29.542
32.2132 28.9966
32.399 28.5251
32.5848 28.048
32.7708 27.7059
32.9569 27.5984
33.143 27.5158
33.3293 27.0293
33.5158 26.712
33.7022 26.2096
33.8887 25.9662
34.0753 25.6492
34.262 25.3664
34.4488 24.908
34.6357 24.5765
34.8227 24.4428
35.0098 24.093
35.1969 23.8965
35.3842 23.6868
35.5716 23.4287
35.759 23.2104
35.9468 22.8476
36.1345 22.5857
36.3222 22.3585
36.5101 22.1586
36.6981 21.8721
36.8861 21.5185
37.0743 21.2521
37.2626 21.0021
37.451 20.6755
37.6395 20.5765
37.8281 20.2802
38.0168 19.9401
38.2056 19.7221
38.3945 19.4065
38.5837 19.1539
38.7728 18.985
38.9621 18.8012
39.1514 18.5209
39.3409 18.2624
39.5304 17.9986
39.7201 17.8383
39.9099 17.6154
40.0999 17.3593
40.2899 17.1746
40.48 16.9508
40.6703 16.7272
40.8607 16.5427
41.0512 16.3606
41.242 16.03
41.4327 15.841
41.6236 15.6135
41.8146 15.4495
42.0057 15.2853
42.1969 14.9919
42.3882 14.8684
42.5797 14.6352
42.7713 14.4706
42.963 14.2841
43.1549 14.0834
43.3468 13.799
43.5389 13.7158
43.7312 13.4622
43.9237 13.2993
44.1162 13.1347
44.3088 12.8881
44.5016 12.7539
44.6945 12.6192
44.8875 12.4468
45.0806 12.2314
45.2739 12.0645
45.4673 11.9333
45.6609 11.6802
45.8546 11.5679
46.0484 11.4446
46.2424 11.2216
46.4365 11.0924
46.631 10.8942
46.8254 10.7312
47.0199 10.5535
47.2146 10.4467
47.4095 10.2858
47.6044 10.1154
47.7996 9.96066
47.9948 9.83275
48.1902 9.70537
48.3858 9.51967
48.5815 9.3874
48.7774 9.31644
48.9734 9.13568
49.1696 9.02701
49.3661 8.86361
49.5626 8.68926
49.7592 8.59137
49.956 8.4678
50.153 8.3081
50.3501 8.20997
50.5474 8.08667
50.7448 7.91777
50.9424 7.8463
51.1402 7.7399
51.3381 7.57897
51.5362 7.47006
51.7344 7.32155
51.9328 7.19743
52.1316 7.07896
52.3304 7.00678
52.5293 6.88906
52.7284 6.76104
52.9276 6.67185
53.1271 6.56245
53.3267 6.37774
53.5265 6.30731
53.7264 6.19511
53.9266 6.11157
54.1269 6.00393
54.3274 5.88731
54.528 5.73289
54.7289 5.55087
54.9301 5.41368
55.1314 5.28273
55.3328 5.06287
55.5344 4.88969
55.7361 4.78226