File: XRD/Ni3Fe_FD0157.xy
TT I
1.27165 8.24686
1.45013 6.75605
1.62863 5.32949
1.80712 4.69802
1.98562 4.57288
2.16411 4.81126
2.34263 4.40385
2.52115 4.45296
2.69965 5.5183
2.87818 8.1197
3.05672 11.1822
3.23527 15.2115
3.4138 18.9277
3.59237 21.5924
3.77094 24.9062
3.9495 28.9332
4.12809 32.8172
4.30669 37.8889
4.4853 45.1961
4.6639 53.6297
4.84253 66.3276
5.02118 90.9213
5.19981 544.97
5.37848 437.085
5.55716 107.453
5.73586 95.1618
5.91455 105.491
6.09328 2767.39
6.27201 88.7002
6.45075 66.4857
6.62952 60.0624
6.8083 55.8232
6.98711 53.3731
7.16591 52.3435
7.34475 52.2953
7.5236 56.2161
7.70247 54.1245
7.88135 56.5714
8.06026 60.9338
8.23919 68.0539
8.41812 83.5472
8.59709 894.958
8.77609 115.542
8.9551 85.2782
9.13412 81.2738
9.31318 86.2994
9.49226 83.633
9.67134 88.363
9.85047 98.9887
10.0296 543.846
10.2088 976.754
10.388 104.515
10.5672 334.427
10.7465 90.5339
10.9257 75.6069
11.105 70.1492
11.2844 66.0372
11.4637 63.4612
11.6431 62.1805
11.8225 61.1813
12.002 65.1618
12.1814 118.378
12.3609 74.7347
12.5405 63.2118
12.72 65.0484
12.8996 69.6972
13.0792 79.2707
13.2589 205.504
13.4386 207.089
13.6183 193.624
13.7981 151.362
13.9779 75.9022
14.1577 74.0773
14.3376 69.0762
14.5175 68.5532
14.6974 70.0744
14.8774 121.064
15.0574 203.736
15.2374 69.218
15.4175 66.1567
15.5976 65.5737
15.7778 107.36
15.958 186.246
16.1382 61.6709
16.3185 57.2994
16.4988 55.1764
16.6792 54.0225
16.8596 54.3913
17.04 55.2292
17.2205 65.1735
17.401 80.8463
17.5815 59.1479
17.7622 61.4114
17.9428 83.5491
18.1237 115.515
18.3044 88.2878
18.4852 94.614
18.666 60.87
18.8469 58.0326
19.0278 56.8108
19.2088 61.7394
19.3898 69.2459
19.5709 56.2814
19.752 53.204
19.9332 58.4266
20.1144 67.351
20.2957 61.216
20.477 59.0452
20.6586 49.8194
20.84 48.9564
21.0215 48.9752
21.203 49.7187
21.3846 50.3618
21.5662 49.0566
21.7479 54.1416
21.9297 62.3349
22.1115 56.2937
22.2933 52.3856
22.4753 48.9972
22.6572 49.0579
22.8393 52.1891
23.0214 57.1926
23.2037 49.7278
23.3859 51.8042
23.5682 53.5078
23.7505 53.294
23.9329 45.4847
24.1154 44.4813
24.2979 43.4967
24.4805 43.0207
24.6631 43.1364
24.8458 42.644
25.0286 43.0615
25.2114 44.5844
25.3943 44.8761
25.5773 41.7985
25.7605 40.8161
25.9436 41.0737
26.1268 41.7867
26.31 40.8471
26.4933 41.1196
26.6767 42.0915
26.8601 41.3581
27.0437 39.5002
27.2272 38.8449
27.4109 38.7645
27.5946 38.8362
27.7784 38.5514
27.9623 38.5364
28.1462 39.3977
28.3304 38.1132
28.5145 36.3024
28.6987 35.8369
28.8829 35.5966
29.0673 35.2169
29.2517 34.516
29.4361 34.3956
29.6207 33.6958
29.8053 33.1628
29.99 32.7798
30.1748 32.4058
30.3597 32.6232
30.5447 32.4168
30.7297 32.4007
30.915 32.066
31.1002 31.4755
31.2855 31.1423
31.4708 31.0039
31.6563 30.8931
31.8418 30.3642
32.0275 30.2424
32.2132 29.7232
32.399 29.199
32.5848 28.7192
32.7708 28.4151
32.9569 28.2487
33.143 28.0254
33.3293 27.6946
33.5158 27.4
33.7022 26.8134
33.8887 26.6343
34.0753 26.2665
34.262 25.8099
34.4488 25.5514
34.6357 25.2069
34.8227 24.902
35.0098 24.6455
35.1969 24.3572
35.3842 24.1882
35.5716 23.941
35.759 23.7784
35.9468 23.3752
36.1345 23.0861
36.3222 22.8335
36.5101 22.5828
36.6981 22.3554
36.8861 22.0543
37.0743 21.6632
37.2626 21.4744
37.451 21.2012
37.6395 21.0188
37.8281 20.767
38.0168 20.387
38.2056 20.0928
38.3945 19.8623
38.5837 19.6138
38.7728 19.3785
38.9621 19.0849
39.1514 18.8479
39.3409 18.5969
39.5304 18.405
39.7201 18.2006
39.9099 17.9531
40.0999 17.7013
40.2899 17.5305
40.48 17.2714
40.6703 17.0775
40.8607 16.9443
41.0512 16.6617
41.242 16.3874
41.4327 16.1981
41.6236 15.967
41.8146 15.7845
42.0057 15.6121
42.1969 15.3529
42.3882 15.1526
42.5797 14.9329
42.7713 14.7376
42.963 14.5457
43.1549 14.3386
43.3468 14.1084
43.5389 13.9421
43.7312 13.7615
43.9237 13.5611
44.1162 13.3744
44.3088 13.1673
44.5016 12.9819
44.6945 12.8407
44.8875 12.6226
45.0806 12.4588
45.2739 12.3162
45.4673 12.1345
45.6609 11.9475
45.8546 11.795
46.0484 11.6448
46.2424 11.4303
46.4365 11.2438
46.631 11.1062
46.8254 10.9624
47.0199 10.803
47.2146 10.6142
47.4095 10.4828
47.6044 10.3367
47.7996 10.1335
47.9948 10.0081
48.1902 9.84616
48.3858 9.73822
48.5815 9.61717
48.7774 9.46454
48.9734 9.33074
49.1696 9.1664
49.3661 9.05152
49.5626 8.82995
49.7592 8.7492
49.956 8.63478
50.153 8.50807
50.3501 8.38012
50.5474 8.21954
50.7448 8.13919
50.9424 8.01992
51.1402 7.90231
51.3381 7.72277
51.5362 7.60837
51.7344 7.4769
51.9328 7.35085
52.1316 7.24829
52.3304 7.15101
52.5293 7.03725
52.7284 6.88531
52.9276 6.76811
53.1271 6.70447
53.3267 6.51566
53.5265 6.4509
53.7264 6.35158
53.9266 6.22963
54.1269 6.10303
54.3274 5.99635
54.528 5.78329
54.7289 5.59706
54.9301 5.49161
55.1314 5.32757
55.3328 5.0965
55.5344 4.898
55.7361 4.77855