File: XRD/Ni3Fe_FD0116.xy
TT I
1.27165 8.43982
1.45013 6.91652
1.62863 6.32975
1.80712 5.77875
1.98562 4.71582
2.16411 4.80518
2.34263 4.46883
2.52115 4.07946
2.69965 5.20919
2.87818 7.66938
3.05672 10.994
3.23527 15.2351
3.4138 18.5528
3.59237 21.2698
3.77094 24.8353
3.9495 27.8819
4.12809 32.6068
4.30669 37.6211
4.4853 44.5179
4.6639 52.9702
4.84253 65.7145
5.02118 91.7766
5.19981 606.392
5.37848 550.376
5.55716 109.096
5.73586 96.3011
5.91455 107.578
6.09328 2431.65
6.27201 91.446
6.45075 65.9937
6.62952 59.4455
6.8083 55.0348
6.98711 52.4822
7.16591 52.0152
7.34475 51.6034
7.5236 57.0498
7.70247 53.3221
7.88135 55.4835
8.06026 60.249
8.23919 67.2828
8.41812 83.8302
8.59709 817.014
8.77609 121.53
8.9551 85.0632
9.13412 81.2748
9.31318 89.6435
9.49226 82.8513
9.67134 87.681
9.85047 98.1101
10.0296 567.54
10.2088 1095.59
10.388 104.741
10.5672 295.204
10.7465 91.9043
10.9257 75.1691
11.105 69.7236
11.2844 65.7913
11.4637 62.3708
11.6431 61.4098
11.8225 60.6413
12.002 66.6808
12.1814 110.578
12.3609 77.9483
12.5405 62.4103
12.72 64.2905
12.8996 68.8656
13.0792 78.9251
13.2589 194.107
13.4386 233.551
13.6183 179.55
13.7981 167.673
13.9779 75.4053
14.1577 74.9706
14.3376 68.3447
14.5175 67.5931
14.6974 68.8703
14.8774 120.357
15.0574 206.148
15.2374 68.5868
15.4175 65.4462
15.5976 64.9163
15.7778 107.476
15.958 182.963
16.1382 61.7279
16.3185 56.7155
16.4988 54.3433
16.6792 53.4701
16.8596 53.5914
17.04 54.902
17.2205 64.0698
17.401 81.2114
17.5815 58.3131
17.7622 60.759
17.9428 84.1304
18.1237 107.489
18.3044 87.4389
18.4852 97.3614
18.666 60.5938
18.8469 57.6648
19.0278 55.9965
19.2088 61.6836
19.3898 66.9492
19.5709 56.527
19.752 52.9084
19.9332 57.8844
20.1144 65.1764
20.2957 59.981
20.477 59.7729
20.6586 49.4723
20.84 48.7398
21.0215 48.6049
21.203 49.1218
21.3846 50.241
21.5662 48.5947
21.7479 53.5747
21.9297 60.3371
22.1115 56.0208
22.2933 52.6673
22.4753 48.3986
22.6572 48.6177
22.8393 51.2916
23.0214 55.8762
23.2037 49.6527
23.3859 51.4906
23.5682 52.2983
23.7505 53.9563
23.9329 45.3865
24.1154 44.0182
24.2979 43.328
24.4805 42.5045
24.6631 42.661
24.8458 42.0864
25.0286 42.6732
25.2114 43.9651
25.3943 44.1757
25.5773 41.632
25.7605 40.4426
25.9436 40.6079
26.1268 41.0209
26.31 40.7118
26.4933 40.5662
26.6767 41.4599
26.8601 40.9543
27.0437 39.2723
27.2272 38.597
27.4109 38.1111
27.5946 38.3522
27.7784 38.2509
27.9623 38.0385
28.1462 38.9285
28.3304 37.6354
28.5145 35.9955
28.6987 35.6973
28.8829 35.1888
29.0673 34.986
29.2517 34.2452
29.4361 33.9328
29.6207 33.3436
29.8053 32.7548
29.99 32.5137
30.1748 32.2208
30.3597 32.3583
30.5447 32.0688
30.7297 32.0128
30.915 31.7952
31.1002 31.1986
31.2855 30.8909
31.4708 30.6606
31.6563 30.6273
31.8418 30.0987
32.0275 29.9119
32.2132 29.5683
32.399 28.9646
32.5848 28.4389
32.7708 28.0543
32.9569 27.9737
33.143 27.674
33.3293 27.3965
33.5158 27.1363
33.7022 26.5672
33.8887 26.2524
34.0753 25.9251
34.262 25.487
34.4488 25.3176
34.6357 24.9734
34.8227 24.5748
35.0098 24.4701
35.1969 24.0786
35.3842 23.8985
35.5716 23.7649
35.759 23.4915
35.9468 23.0918
36.1345 22.8019
36.3222 22.664
36.5101 22.348
36.6981 22.1213
36.8861 21.8205
37.0743 21.523
37.2626 21.1822
37.451 20.9451
37.6395 20.7562
37.8281 20.4295
38.0168 20.2058
38.2056 19.8715
38.3945 19.6954
38.5837 19.4202
38.7728 19.2163
38.9621 18.9479
39.1514 18.6616
39.3409 18.3828
39.5304 18.1739
39.7201 18.0958
39.9099 17.8315
40.0999 17.5789
40.2899 17.351
40.48 17.1276
40.6703 16.8305
40.8607 16.774
41.0512 16.524
41.242 16.2332
41.4327 16.0103
41.6236 15.7998
41.8146 15.6194
42.0057 15.4311
42.1969 15.1846
42.3882 14.9641
42.5797 14.8002
42.7713 14.5675
42.963 14.3974
43.1549 14.2223
43.3468 14.0011
43.5389 13.7645
43.7312 13.5931
43.9237 13.4011
44.1162 13.2294
44.3088 13.0307
44.5016 12.8731
44.6945 12.7347
44.8875 12.5229
45.0806 12.3123
45.2739 12.1369
45.4673 12.0201
45.6609 11.8692
45.8546 11.6463
46.0484 11.5
46.2424 11.3425
46.4365 11.1911
46.631 11.0098
46.8254 10.8395
47.0199 10.6413
47.2146 10.513
47.4095 10.3348
47.6044 10.1944
47.7996 10.0665
47.9948 9.91364
48.1902 9.77547
48.3858 9.57958
48.5815 9.50855
48.7774 9.36076
48.9734 9.27033
49.1696 9.10058
49.3661 8.9386
49.5626 8.81384
49.7592 8.7062
49.956 8.58477
50.153 8.43374
50.3501 8.31775
50.5474 8.17541
50.7448 8.07753
50.9424 7.93598
51.1402 7.79886
51.3381 7.67337
51.5362 7.54016
51.7344 7.43019
51.9328 7.29655
52.1316 7.15896
52.3304 7.07746
52.5293 6.96202
52.7284 6.79368
52.9276 6.7314
53.1271 6.61738
53.3267 6.48449
53.5265 6.34967
53.7264 6.24916
53.9266 6.13969
54.1269 6.01778
54.3274 5.91497
54.528 5.7483
54.7289 5.59399
54.9301 5.40325
55.1314 5.25713
55.3328 4.99095
55.5344 4.82453
55.7361 4.74991