File: XRD/Ni3Fe_FD0795.xy
TT I
1.27165 7.48751
1.45013 5.84802
1.62863 5.28957
1.80712 4.89535
1.98562 4.80017
2.16411 4.60883
2.34263 5.33799
2.52115 7.18556
2.69965 7.85485
2.87818 9.07203
3.05672 10.842
3.23527 14.769
3.4138 18.4454
3.59237 23.5465
3.77094 25.805
3.9495 29.1648
4.12809 34.0897
4.30669 139.618
4.4853 57.2997
4.6639 55.086
4.84253 66.7233
5.02118 86.5599
5.19981 369.697
5.37848 179.474
5.55716 100.737
5.73586 91.4521
5.91455 93.5512
6.09328 4569.32
6.27201 80.0201
6.45075 67.7802
6.62952 61.9502
6.8083 57.8494
6.98711 55.0395
7.16591 54.7921
7.34475 75.6409
7.5236 54.0575
7.70247 55.9775
7.88135 57.3712
8.06026 61.6865
8.23919 68.5737
8.41812 83.4918
8.59709 1213.09
8.77609 96.7676
8.9551 88.4832
9.13412 81.7758
9.31318 82.5734
9.49226 83.8003
9.67134 94.6364
9.85047 99.607
10.0296 341.387
10.2088 344.0
10.388 103.296
10.5672 541.133
10.7465 84.9277
10.9257 76.6333
11.105 70.6348
11.2844 68.3845
11.4637 64.2305
11.6431 62.8274
11.8225 61.8208
12.002 63.293
12.1814 158.31
12.3609 67.136
12.5405 63.3587
12.72 67.8702
12.8996 70.4112
13.0792 78.7206
13.2589 245.244
13.4386 117.639
13.6183 254.844
13.7981 92.9681
13.9779 74.8752
14.1577 71.1896
14.3376 69.7139
14.5175 68.1071
14.6974 69.8924
14.8774 110.791
15.0574 142.315
15.2374 69.0923
15.4175 65.6629
15.5976 65.1622
15.7778 94.2835
15.958 147.47
16.1382 61.0575
16.3185 57.3761
16.4988 54.7003
16.6792 53.8666
16.8596 54.4259
17.04 55.0289
17.2205 66.4888
17.401 69.1818
17.5815 58.5426
17.7622 60.4418
17.9428 73.0894
18.1237 142.151
18.3044 90.8237
18.4852 74.225
18.666 59.5093
18.8469 57.4747
19.0278 56.0188
19.2088 58.6367
19.3898 76.0645
19.5709 53.3094
19.752 52.5782
19.9332 55.6237
20.1144 69.4018
20.2957 63.8425
20.477 52.5123
20.6586 49.1223
20.84 48.1628
21.0215 48.0907
21.203 50.3988
21.3846 48.4049
21.5662 48.3451
21.7479 52.1514
21.9297 64.4863
22.1115 55.7366
22.2933 49.0132
22.4753 48.0422
22.6572 48.309
22.8393 51.4329
23.0214 56.7568
23.2037 48.2185
23.3859 49.1783
23.5682 57.111
23.7505 47.3859
23.9329 44.7193
24.1154 43.612
24.2979 42.998
24.4805 42.3145
24.6631 42.4531
24.8458 41.7134
25.0286 42.3999
25.2114 44.168
25.3943 44.0932
25.5773 40.4336
25.7605 39.9185
25.9436 40.4084
26.1268 41.4292
26.31 39.6646
26.4933 40.2618
26.6767 41.6794
26.8601 40.0099
27.0437 38.5472
27.2272 38.1195
27.4109 38.0805
27.5946 38.0467
27.7784 37.4188
27.9623 38.1416
28.1462 38.4411
28.3304 36.6416
28.5145 35.6069
28.6987 35.202
28.8829 34.9663
29.0673 34.16
29.2517 33.9711
29.4361 33.6876
29.6207 32.7946
29.8053 32.4462
29.99 32.1932
30.1748 32.1205
30.3597 31.9374
30.5447 31.8804
30.7297 31.8749
30.915 31.2738
31.1002 30.7492
31.2855 30.5933
31.4708 30.4183
31.6563 30.1019
31.8418 29.8782
32.0275 29.6175
32.2132 29.0992
32.399 28.6816
32.5848 28.2702
32.7708 27.7935
32.9569 27.7678
33.143 27.4581
33.3293 27.0657
33.5158 26.7014
33.7022 26.2485
33.8887 26.0814
34.0753 25.71
34.262 25.4457
34.4488 25.0868
34.6357 24.7669
34.8227 24.4026
35.0098 24.2341
35.1969 23.9546
35.3842 23.8011
35.5716 23.5334
35.759 23.1946
35.9468 22.9392
36.1345 22.661
36.3222 22.3818
36.5101 22.1708
36.6981 21.8998
36.8861 21.5742
37.0743 21.2487
37.2626 20.9734
37.451 20.8053
37.6395 20.5857
37.8281 20.3349
38.0168 19.9937
38.2056 19.7288
38.3945 19.4666
38.5837 19.2795
38.7728 18.9588
38.9621 18.8026
39.1514 18.4809
39.3409 18.235
39.5304 17.986
39.7201 17.8693
39.9099 17.6383
40.0999 17.333
40.2899 17.1516
40.48 16.8958
40.6703 16.717
40.8607 16.5541
41.0512 16.3212
41.242 16.0887
41.4327 15.8903
41.6236 15.6474
41.8146 15.4706
42.0057 15.2382
42.1969 15.0713
42.3882 14.9059
42.5797 14.676
42.7713 14.5101
42.963 14.3055
43.1549 14.0549
43.3468 13.9433
43.5389 13.6891
43.7312 13.5256
43.9237 13.3274
44.1162 13.0724
44.3088 12.9434
44.5016 12.8026
44.6945 12.6278
44.8875 12.4257
45.0806 12.2597
45.2739 12.0636
45.4673 11.8797
45.6609 11.7439
45.8546 11.5789
46.0484 11.4493
46.2424 11.2582
46.4365 11.0888
46.631 10.9356
46.8254 10.7321
47.0199 10.5865
47.2146 10.4554
47.4095 10.3024
47.6044 10.1445
47.7996 9.9631
47.9948 9.85547
48.1902 9.71125
48.3858 9.53489
48.5815 9.43613
48.7774 9.27635
48.9734 9.11953
49.1696 8.98437
49.3661 8.83805
49.5626 8.69235
49.7592 8.5969
49.956 8.45426
50.153 8.3593
50.3501 8.22419
50.5474 8.08977
50.7448 7.95192
50.9424 7.87564
51.1402 7.714
51.3381 7.61021
51.5362 7.46928
51.7344 7.36163
51.9328 7.22725
52.1316 7.09091
52.3304 7.00208
52.5293 6.88813
52.7284 6.78924
52.9276 6.65813
53.1271 6.58011
53.3267 6.41708
53.5265 6.31972
53.7264 6.2256
53.9266 6.12747
54.1269 5.99914
54.3274 5.88565
54.528 5.74042
54.7289 5.60466
54.9301 5.41119
55.1314 5.28357
55.3328 5.11403
55.5344 4.90925
55.7361 4.73911