File: XRD/Ni3Fe_FD0658.xy
TT I
1.27165 7.63684
1.45013 6.11518
1.62863 5.06414
1.80712 4.57824
1.98562 5.13852
2.16411 4.67236
2.34263 5.04179
2.52115 6.59731
2.69965 8.33722
2.87818 8.90683
3.05672 10.9944
3.23527 15.1232
3.4138 18.8057
3.59237 24.6491
3.77094 26.572
3.9495 29.8364
4.12809 34.9676
4.30669 271.74
4.4853 71.007
4.6639 55.2518
4.84253 66.5155
5.02118 86.0292
5.19981 321.965
5.37848 192.93
5.55716 100.982
5.73586 91.5258
5.91455 92.9382
6.09328 4396.35
6.27201 83.2971
6.45075 67.1626
6.62952 63.1796
6.8083 58.7267
6.98711 56.0406
7.16591 55.4012
7.34475 103.294
7.5236 55.3766
7.70247 56.1177
7.88135 57.8048
8.06026 62.2728
8.23919 69.3412
8.41812 85.1271
8.59709 1110.17
8.77609 99.4124
8.9551 93.2851
9.13412 81.5368
9.31318 82.0346
9.49226 84.2947
9.67134 100.597
9.85047 99.6304
10.0296 315.321
10.2088 421.446
10.388 104.418
10.5672 500.468
10.7465 86.6634
10.9257 78.8183
11.105 72.1713
11.2844 71.022
11.4637 65.0218
11.6431 63.8717
11.8225 62.5457
12.002 63.2657
12.1814 147.472
12.3609 71.6764
12.5405 64.6485
12.72 71.3028
12.8996 70.6724
13.0792 78.4215
13.2589 226.423
13.4386 125.25
13.6183 236.792
13.7981 97.9331
13.9779 75.693
14.1577 72.7583
14.3376 72.002
14.5175 68.7624
14.6974 70.3339
14.8774 106.085
15.0574 153.308
15.2374 71.7015
15.4175 66.3063
15.5976 65.457
15.7778 91.7225
15.958 160.803
16.1382 63.4519
16.3185 58.876
16.4988 55.7154
16.6792 54.6793
16.8596 55.5207
17.04 55.8284
17.2205 65.7692
17.401 71.6623
17.5815 58.9849
17.7622 61.279
17.9428 72.5905
18.1237 142.151
18.3044 89.2246
18.4852 78.5804
18.666 60.5906
18.8469 58.1525
19.0278 56.8234
19.2088 59.4768
19.3898 77.6321
19.5709 54.1878
19.752 53.2833
19.9332 56.0343
20.1144 70.1558
20.2957 63.5093
20.477 53.7864
20.6586 49.641
20.84 49.0093
21.0215 48.5825
21.203 50.7814
21.3846 48.9065
21.5662 48.6431
21.7479 52.1422
21.9297 65.003
22.1115 56.2443
22.2933 50.1216
22.4753 49.1094
22.6572 48.8629
22.8393 51.5717
23.0214 57.7729
23.2037 48.7886
23.3859 49.4828
23.5682 57.132
23.7505 48.4406
23.9329 45.2504
24.1154 44.1553
24.2979 43.4827
24.4805 42.9008
24.6631 42.9223
24.8458 42.2741
25.0286 42.9056
25.2114 44.6359
25.3943 44.7878
25.5773 40.965
25.7605 40.4891
25.9436 40.8645
26.1268 41.9184
26.31 40.1122
26.4933 40.7113
26.6767 42.4145
26.8601 40.535
27.0437 39.069
27.2272 38.4951
27.4109 38.3107
27.5946 38.4314
27.7784 37.8741
27.9623 38.4139
28.1462 38.9092
28.3304 37.2679
28.5145 35.993
28.6987 35.5812
28.8829 35.3608
29.0673 34.8323
29.2517 34.3862
29.4361 34.3144
29.6207 33.2251
29.8053 32.9374
29.99 32.67
30.1748 32.5271
30.3597 32.3315
30.5447 32.1976
30.7297 32.1889
30.915 31.7307
31.1002 31.1808
31.2855 30.9474
31.4708 30.8321
31.6563 30.5562
31.8418 30.2312
32.0275 29.9745
32.2132 29.4573
32.399 29.0915
32.5848 28.5945
32.7708 28.2165
32.9569 27.9407
33.143 27.7826
33.3293 27.5113
33.5158 27.0957
33.7022 26.6843
33.8887 26.4438
34.0753 26.0596
34.262 25.7759
34.4488 25.3323
34.6357 25.022
34.8227 24.7537
35.0098 24.599
35.1969 24.267
35.3842 24.0138
35.5716 23.7838
35.759 23.5554
35.9468 23.1474
36.1345 22.9413
36.3222 22.6971
36.5101 22.4367
36.6981 22.1867
36.8861 21.8023
37.0743 21.5459
37.2626 21.3395
37.451 21.0208
37.6395 20.8654
37.8281 20.509
38.0168 20.2089
38.2056 20.0105
38.3945 19.7562
38.5837 19.4707
38.7728 19.3202
38.9621 19.0406
39.1514 18.7976
39.3409 18.5356
39.5304 18.2658
39.7201 18.1095
39.9099 17.8522
40.0999 17.599
40.2899 17.4679
40.48 17.1747
40.6703 16.9996
40.8607 16.7335
41.0512 16.5412
41.242 16.3149
41.4327 16.0499
41.6236 15.8808
41.8146 15.6591
42.0057 15.4547
42.1969 15.2399
42.3882 15.0727
42.5797 14.8582
42.7713 14.7501
42.963 14.4486
43.1549 14.2335
43.3468 14.0511
43.5389 13.9238
43.7312 13.6955
43.9237 13.4911
44.1162 13.2977
44.3088 13.1028
44.5016 12.9197
44.6945 12.7754
44.8875 12.5765
45.0806 12.458
45.2739 12.265
45.4673 12.0451
45.6609 11.8864
45.8546 11.7473
46.0484 11.5764
46.2424 11.4362
46.4365 11.228
46.631 11.0146
46.8254 10.8833
47.0199 10.7301
47.2146 10.6062
47.4095 10.4374
47.6044 10.2982
47.7996 10.1435
47.9948 9.94957
48.1902 9.85682
48.3858 9.65994
48.5815 9.55851
48.7774 9.44888
48.9734 9.30962
49.1696 9.14125
49.3661 8.96963
49.5626 8.84263
49.7592 8.74219
49.956 8.59922
50.153 8.41378
50.3501 8.31795
50.5474 8.22436
50.7448 8.07606
50.9424 7.94971
51.1402 7.82141
51.3381 7.69702
51.5362 7.59268
51.7344 7.46346
51.9328 7.35672
52.1316 7.20924
52.3304 7.1019
52.5293 6.97344
52.7284 6.86858
52.9276 6.72477
53.1271 6.64574
53.3267 6.52931
53.5265 6.42556
53.7264 6.29397
53.9266 6.16691
54.1269 6.07145
54.3274 5.91983
54.528 5.82827
54.7289 5.67564
54.9301 5.48817
55.1314 5.32311
55.3328 5.20672
55.5344 4.94154
55.7361 4.84224