File: XRD/Ni3Fe_FD0970.xy
TT I
1.27165 7.26057
1.45013 6.61013
1.62863 5.30385
1.80712 4.53886
1.98562 5.08091
2.16411 4.79458
2.34263 5.29146
2.52115 7.55822
2.69965 8.68653
2.87818 9.31899
3.05672 11.1647
3.23527 15.2806
3.4138 18.7939
3.59237 23.991
3.77094 26.0754
3.9495 29.7116
4.12809 34.7232
4.30669 205.706
4.4853 63.7652
4.6639 54.4039
4.84253 66.1
5.02118 84.3562
5.19981 277.932
5.37848 173.733
5.55716 100.184
5.73586 90.2205
5.91455 90.7691
6.09328 4607.93
6.27201 80.6665
6.45075 66.3722
6.62952 61.7452
6.8083 57.7651
6.98711 54.6079
7.16591 54.6103
7.34475 87.857
7.5236 54.2187
7.70247 55.3911
7.88135 56.8989
8.06026 60.857
8.23919 68.3941
8.41812 82.8245
8.59709 1146.19
8.77609 96.1274
8.9551 89.488
9.13412 80.173
9.31318 81.023
9.49226 82.9974
9.67134 95.8971
9.85047 97.9175
10.0296 299.547
10.2088 361.072
10.388 101.665
10.5672 524.678
10.7465 84.6739
10.9257 76.9883
11.105 70.3979
11.2844 68.8118
11.4637 63.5447
11.6431 62.591
11.8225 61.1781
12.002 62.2689
12.1814 154.719
12.3609 69.3367
12.5405 63.3883
12.72 68.2949
12.8996 69.2672
13.0792 77.1886
13.2589 233.205
13.4386 118.532
13.6183 248.541
13.7981 94.7921
13.9779 74.3943
14.1577 70.8621
14.3376 70.2694
14.5175 67.5253
14.6974 68.7152
14.8774 106.313
15.0574 145.639
15.2374 69.4604
15.4175 65.0197
15.5976 64.4617
15.7778 90.8597
15.958 150.808
16.1382 61.605
16.3185 57.5283
16.4988 54.3471
16.6792 53.5442
16.8596 54.1153
17.04 54.5932
17.2205 65.2526
17.401 69.0776
17.5815 58.0747
17.7622 59.8056
17.9428 70.6709
18.1237 137.796
18.3044 89.4649
18.4852 75.269
18.666 59.3453
18.8469 56.748
19.0278 55.8427
19.2088 57.9745
19.3898 75.1658
19.5709 53.0088
19.752 52.128
19.9332 54.6734
20.1144 68.7223
20.2957 63.7131
20.477 52.328
20.6586 48.6717
20.84 47.8466
21.0215 47.5363
21.203 49.982
21.3846 47.7842
21.5662 47.7251
21.7479 51.2762
21.9297 63.3884
22.1115 55.3167
22.2933 48.9532
22.4753 48.0142
22.6572 47.8577
22.8393 51.034
23.0214 56.0635
23.2037 47.848
23.3859 48.5624
23.5682 56.4335
23.7505 47.346
23.9329 44.3755
24.1154 43.2988
24.2979 42.6208
24.4805 42.1809
24.6631 41.8701
24.8458 41.4673
25.0286 42.0335
25.2114 43.7376
25.3943 43.7146
25.5773 40.2604
25.7605 39.7228
25.9436 39.9975
26.1268 40.9828
26.31 39.3113
26.4933 39.7831
26.6767 41.4383
26.8601 39.6669
27.0437 38.1796
27.2272 37.7818
27.4109 37.6691
27.5946 37.7001
27.7784 37.1323
27.9623 37.6703
28.1462 38.0345
28.3304 36.3894
28.5145 35.2859
28.6987 34.9519
28.8829 34.7521
29.0673 33.9674
29.2517 33.7734
29.4361 33.5273
29.6207 32.6619
29.8053 32.2328
29.99 31.9236
30.1748 31.8663
30.3597 31.662
30.5447 31.5901
30.7297 31.6519
30.915 30.9835
31.1002 30.4831
31.2855 30.3622
31.4708 30.2885
31.6563 29.7781
31.8418 29.5694
32.0275 29.3425
32.2132 28.9354
32.399 28.4134
32.5848 27.9892
32.7708 27.5898
32.9569 27.5261
33.143 27.2752
33.3293 26.8814
33.5158 26.5508
33.7022 26.069
33.8887 25.8871
34.0753 25.4857
34.262 25.161
34.4488 24.9123
34.6357 24.5725
34.8227 24.2149
35.0098 23.9368
35.1969 23.8019
35.3842 23.5875
35.5716 23.3462
35.759 23.0137
35.9468 22.7398
36.1345 22.4719
36.3222 22.3243
36.5101 22.0903
36.6981 21.7953
36.8861 21.4033
37.0743 21.1413
37.2626 20.8422
37.451 20.6165
37.6395 20.4522
37.8281 20.163
38.0168 19.8191
38.2056 19.6469
38.3945 19.3046
38.5837 19.1195
38.7728 18.8273
38.9621 18.6334
39.1514 18.3307
39.3409 18.1473
39.5304 17.9581
39.7201 17.7428
39.9099 17.5085
40.0999 17.2429
40.2899 16.9843
40.48 16.8809
40.6703 16.619
40.8607 16.4981
41.0512 16.1738
41.242 16.0033
41.4327 15.7514
41.6236 15.5439
41.8146 15.4539
42.0057 15.1615
42.1969 14.9032
42.3882 14.7946
42.5797 14.4905
42.7713 14.3609
42.963 14.1782
43.1549 13.9695
43.3468 13.7907
43.5389 13.6344
43.7312 13.4341
43.9237 13.2727
44.1162 13.0622
44.3088 12.8371
44.5016 12.6921
44.6945 12.5031
44.8875 12.3148
45.0806 12.173
45.2739 12.0019
45.4673 11.8307
45.6609 11.6321
45.8546 11.4984
46.0484 11.3312
46.2424 11.1475
46.4365 11.0472
46.631 10.8382
46.8254 10.6301
47.0199 10.5091
47.2146 10.3544
47.4095 10.2082
47.6044 10.0893
47.7996 9.919
47.9948 9.78161
48.1902 9.62861
48.3858 9.48662
48.5815 9.3429
48.7774 9.26266
48.9734 9.04227
49.1696 8.95667
49.3661 8.78595
49.5626 8.66751
49.7592 8.57708
49.956 8.41638
50.153 8.28382
50.3501 8.17506
50.5474 8.05248
50.7448 7.91033
50.9424 7.79372
51.1402 7.70804
51.3381 7.54961
51.5362 7.40625
51.7344 7.27781
51.9328 7.15402
52.1316 7.05185
52.3304 6.97986
52.5293 6.80319
52.7284 6.75815
52.9276 6.60666
53.1271 6.54334
53.3267 6.39599
53.5265 6.24803
53.7264 6.13674
53.9266 6.07961
54.1269 5.94228
54.3274 5.82385
54.528 5.73905
54.7289 5.56706
54.9301 5.34943
55.1314 5.28384
55.3328 5.03758
55.5344 4.89666
55.7361 4.75875