File: XRD/Ni3Fe_FD0813.xy
TT I
1.27165 7.18481
1.45013 6.17813
1.62863 4.96863
1.80712 4.91071
1.98562 4.33256
2.16411 4.82691
2.34263 5.36395
2.52115 7.46501
2.69965 7.74925
2.87818 8.87287
3.05672 10.9796
3.23527 15.4109
3.4138 19.1553
3.59237 23.5321
3.77094 25.6113
3.9495 29.1751
4.12809 34.0574
4.30669 108.812
4.4853 54.2976
4.6639 55.1145
4.84253 67.9389
5.02118 86.4392
5.19981 398.098
5.37848 190.054
5.55716 101.574
5.73586 92.2556
5.91455 94.3987
6.09328 4596.98
6.27201 79.2649
6.45075 69.0125
6.62952 62.3432
6.8083 58.8985
6.98711 55.2092
7.16591 55.4671
7.34475 68.8952
7.5236 53.8945
7.70247 56.5449
7.88135 57.1708
8.06026 62.1332
8.23919 69.1568
8.41812 83.3857
8.59709 1220.88
8.77609 96.9426
8.9551 88.9363
9.13412 82.2525
9.31318 84.0135
9.49226 84.3738
9.67134 94.8432
9.85047 100.653
10.0296 343.217
10.2088 348.584
10.388 104.262
10.5672 537.7
10.7465 85.3511
10.9257 77.0104
11.105 70.8676
11.2844 68.1276
11.4637 64.115
11.6431 62.9646
11.8225 62.1908
12.002 63.7689
12.1814 160.222
12.3609 66.3746
12.5405 64.1495
12.72 67.3593
12.8996 70.6898
13.0792 79.3634
13.2589 248.462
13.4386 118.031
13.6183 258.194
13.7981 92.731
13.9779 75.0711
14.1577 71.2162
14.3376 69.5763
14.5175 68.2741
14.6974 70.0483
14.8774 111.624
15.0574 140.586
15.2374 68.8015
15.4175 65.7146
15.5976 65.0404
15.7778 95.0153
15.958 146.398
16.1382 60.89
16.3185 57.194
16.4988 54.7959
16.6792 53.7947
16.8596 54.222
17.04 55.3707
17.2205 66.6501
17.401 68.5658
17.5815 58.4756
17.7622 60.7728
17.9428 73.223
18.1237 141.484
18.3044 91.0772
18.4852 74.0914
18.666 59.6448
18.8469 57.489
19.0278 56.3695
19.2088 58.5698
19.3898 75.4183
19.5709 53.4246
19.752 52.6462
19.9332 55.5359
20.1144 69.6292
20.2957 64.0375
20.477 52.4926
20.6586 49.2631
20.84 48.1987
21.0215 47.8939
21.203 50.4346
21.3846 48.2011
21.5662 48.3623
21.7479 52.3008
21.9297 64.0203
22.1115 55.6697
22.2933 49.1111
22.4753 48.3311
22.6572 48.4887
22.8393 51.686
23.0214 56.6303
23.2037 48.391
23.3859 49.4166
23.5682 56.8811
23.7505 47.3742
23.9329 44.6841
24.1154 43.668
24.2979 42.8905
24.4805 42.4845
24.6631 42.3943
24.8458 41.8764
25.0286 42.6199
25.2114 44.1826
25.3943 44.0058
25.5773 40.4915
25.7605 39.9411
25.9436 40.5173
26.1268 41.1468
26.31 39.5467
26.4933 40.3484
26.6767 41.76
26.8601 40.0632
27.0437 38.4283
27.2272 38.017
27.4109 38.1106
27.5946 38.0195
27.7784 37.6049
27.9623 38.2088
28.1462 38.3868
28.3304 36.5887
28.5145 35.5436
28.6987 35.2777
28.8829 35.0924
29.0673 34.2005
29.2517 34.0287
29.4361 33.7493
29.6207 32.6969
29.8053 32.4655
29.99 32.2404
30.1748 32.1941
30.3597 31.9147
30.5447 31.8347
30.7297 31.871
30.915 31.1563
31.1002 30.8003
31.2855 30.615
31.4708 30.5166
31.6563 30.0087
31.8418 29.8004
32.0275 29.626
32.2132 29.0563
32.399 28.6184
32.5848 28.1922
32.7708 27.9069
32.9569 27.6889
33.143 27.5438
33.3293 27.0071
33.5158 26.7001
33.7022 26.3185
33.8887 26.1103
34.0753 25.6614
34.262 25.4101
34.4488 24.9759
34.6357 24.6772
34.8227 24.4486
35.0098 24.198
35.1969 23.9108
35.3842 23.7087
35.5716 23.5447
35.759 23.2525
35.9468 22.8977
36.1345 22.5934
36.3222 22.4336
36.5101 22.1471
36.6981 21.8896
36.8861 21.6459
37.0743 21.207
37.2626 21.0555
37.451 20.7911
37.6395 20.6446
37.8281 20.2297
38.0168 20.0478
38.2056 19.7435
38.3945 19.4253
38.5837 19.2036
38.7728 18.955
38.9621 18.7793
39.1514 18.4975
39.3409 18.2544
39.5304 18.0046
39.7201 17.8543
39.9099 17.5947
40.0999 17.4037
40.2899 17.1955
40.48 16.9338
40.6703 16.713
40.8607 16.6278
41.0512 16.3277
41.242 16.0494
41.4327 15.9152
41.6236 15.6507
41.8146 15.478
42.0057 15.2299
42.1969 15.0284
42.3882 14.8625
42.5797 14.6497
42.7713 14.4696
42.963 14.2627
43.1549 14.0634
43.3468 13.8623
43.5389 13.7068
43.7312 13.5109
43.9237 13.3384
44.1162 13.0989
44.3088 12.9561
44.5016 12.7734
44.6945 12.5824
44.8875 12.4036
45.0806 12.2237
45.2739 12.0838
45.4673 11.904
45.6609 11.7164
45.8546 11.5396
46.0484 11.3749
46.2424 11.2133
46.4365 11.0814
46.631 10.9303
46.8254 10.7719
47.0199 10.5663
47.2146 10.4173
47.4095 10.2857
47.6044 10.1372
47.7996 9.97703
47.9948 9.8454
48.1902 9.6894
48.3858 9.57417
48.5815 9.45216
48.7774 9.29046
48.9734 9.15451
49.1696 9.03835
49.3661 8.84398
49.5626 8.73375
49.7592 8.60697
49.956 8.45218
50.153 8.33442
50.3501 8.22015
50.5474 8.05016
50.7448 7.9504
50.9424 7.85865
51.1402 7.74724
51.3381 7.59581
51.5362 7.48731
51.7344 7.34861
51.9328 7.21016
52.1316 7.08778
52.3304 6.97747
52.5293 6.86645
52.7284 6.80958
52.9276 6.6268
53.1271 6.56929
53.3267 6.39791
53.5265 6.26389
53.7264 6.23899
53.9266 6.09985
54.1269 6.00919
54.3274 5.87621
54.528 5.73975
54.7289 5.56411
54.9301 5.4272
55.1314 5.31592
55.3328 5.0935
55.5344 4.91301
55.7361 4.7691