File: XRD/Ni3Fe_FD0037.xy
TT I
1.27165 32.2431
1.45013 27.7692
1.62863 23.9374
1.80712 21.9836
1.98562 21.553
2.16411 22.4199
2.34263 23.1177
2.52115 22.7699
2.69965 27.3319
2.87818 36.7528
3.05672 64.0295
3.23527 70.8414
3.4138 37.7324
3.59237 32.1326
3.77094 30.7292
3.9495 29.5947
4.12809 35.6319
4.30669 61.8022
4.4853 44.878
4.6639 41.7375
4.84253 51.5247
5.02118 88.2592
5.19981 296.67
5.37848 3532.38
5.55716 154.329
5.73586 101.381
5.91455 114.981
6.09328 517.572
6.27201 263.853
6.45075 67.1808
6.62952 50.6616
6.8083 46.9375
6.98711 40.1401
7.16591 40.784
7.34475 57.4397
7.5236 52.1189
7.70247 43.1525
7.88135 37.1321
8.06026 39.0821
8.23919 44.1692
8.41812 56.6041
8.59709 177.831
8.77609 511.639
8.9551 75.961
9.13412 61.2338
9.31318 307.824
9.49226 55.5433
9.67134 54.8004
9.85047 61.5019
10.0296 109.736
10.2088 601.28
10.388 113.471
10.5672 95.4635
10.7465 235.105
10.9257 49.0942
11.105 43.2159
11.2844 41.4887
11.4637 38.1121
11.6431 37.8691
11.8225 37.801
12.002 94.2537
12.1814 48.6247
12.3609 93.9099
12.5405 42.8784
12.72 40.605
12.8996 39.7643
13.0792 44.4221
13.2589 67.7588
13.4386 174.771
13.6183 86.3405
13.7981 180.913
13.9779 57.1243
14.1577 52.7827
14.3376 46.285
14.5175 39.5243
14.6974 39.8118
14.8774 45.939
15.0574 67.3913
15.2374 72.9554
15.4175 41.4236
15.5976 39.3048
15.7778 43.6929
15.958 58.2459
16.1382 96.6576
16.3185 38.6717
16.4988 34.332
16.6792 32.5621
16.8596 32.6415
17.04 42.2829
17.2205 34.6199
17.401 38.4029
17.5815 42.5674
17.7622 36.2676
17.9428 40.4669
18.1237 44.1427
18.3044 92.3151
18.4852 54.8497
18.666 55.0728
18.8469 36.5015
19.0278 34.5793
19.2088 34.5419
19.3898 43.5126
19.5709 46.701
19.752 34.6276
19.9332 32.5959
20.1144 33.3111
20.2957 43.9677
20.477 38.8142
20.6586 34.9475
20.84 33.4011
21.0215 29.9942
21.203 29.4714
21.3846 30.0783
21.5662 31.57
21.7479 30.4705
21.9297 31.7242
22.1115 42.1604
22.2933 39.6405
22.4753 33.0913
22.6572 30.2379
22.8393 31.31
23.0214 31.5046
23.2037 39.3323
23.3859 32.3167
23.5682 34.4865
23.7505 35.1938
23.9329 35.1586
24.1154 29.3119
24.2979 27.8189
24.4805 26.8303
24.6631 27.0203
24.8458 27.7134
25.0286 26.5863
25.2114 26.8071
25.3943 28.982
25.5773 29.9187
25.7605 27.1084
25.9436 26.9607
26.1268 25.8221
26.31 26.8935
26.4933 26.6881
26.6767 25.9597
26.8601 27.6543
27.0437 28.5846
27.2272 25.9408
27.4109 24.8028
27.5946 24.8657
27.7784 25.271
27.9623 24.8294
28.1462 25.7571
28.3304 26.6809
28.5145 25.6926
28.6987 24.239
28.8829 22.9974
29.0673 22.7085
29.2517 23.0117
29.4361 22.0786
29.6207 22.1185
29.8053 22.0389
29.99 21.3101
30.1748 21.5095
30.3597 21.0866
30.5447 21.379
30.7297 20.9563
30.915 21.2575
31.1002 21.8187
31.2855 20.9483
31.4708 20.4807
31.6563 20.5238
31.8418 20.7758
32.0275 20.0556
32.2132 20.2605
32.399 20.0775
32.5848 19.3286
32.7708 18.8811
32.9569 18.7651
33.143 18.6983
33.3293 18.3623
33.5158 18.5834
33.7022 18.3369
33.8887 17.787
34.0753 17.5646
34.262 17.3632
34.4488 17.0985
34.6357 16.9558
34.8227 16.7329
35.0098 16.4657
35.1969 16.2991
35.3842 16.2476
35.5716 16.1201
35.759 16.2631
35.9468 16.032
36.1345 15.6789
36.3222 15.4697
36.5101 15.4256
36.6981 15.2041
36.8861 15.0046
37.0743 14.8704
37.2626 14.5764
37.451 14.3311
37.6395 14.345
37.8281 14.0686
38.0168 13.8617
38.2056 13.7613
38.3945 13.4905
38.5837 13.4153
38.7728 13.2274
38.9621 13.0608
39.1514 12.9192
39.3409 12.6836
39.5304 12.5978
39.7201 12.4346
39.9099 12.292
40.0999 12.146
40.2899 12.0726
40.48 11.9113
40.6703 11.7469
40.8607 11.6134
41.0512 11.487
41.242 11.3514
41.4327 11.2064
41.6236 11.0134
41.8146 10.9543
42.0057 10.8173
42.1969 10.6424
42.3882 10.515
42.5797 10.366
42.7713 10.2546
42.963 10.0794
43.1549 9.928
43.3468 9.76089
43.5389 9.65927
43.7312 9.55952
43.9237 9.42471
44.1162 9.30415
44.3088 9.20452
44.5016 9.0569
44.6945 8.91497
44.8875 8.85792
45.0806 8.71973
45.2739 8.59593
45.4673 8.50421
45.6609 8.37654
45.8546 8.24694
46.0484 8.14739
46.2424 8.01163
46.4365 7.91657
46.631 7.81128
46.8254 7.71377
47.0199 7.60582
47.2146 7.49351
47.4095 7.3488
47.6044 7.25638
47.7996 7.18984
47.9948 7.0861
48.1902 6.98535
48.3858 6.87709
48.5815 6.76042
48.7774 6.67638
48.9734 6.56914
49.1696 6.48126
49.3661 6.42137
49.5626 6.29164
49.7592 6.23092
49.956 6.12811
50.153 6.02934
50.3501 5.95367
50.5474 5.8759
50.7448 5.79625
50.9424 5.72387
51.1402 5.6427
51.3381 5.53995
51.5362 5.44291
51.7344 5.38749
51.9328 5.29118
52.1316 5.18836
52.3304 5.09702
52.5293 5.0582
52.7284 4.91968
52.9276 4.85832
53.1271 4.81805
53.3267 4.74133
53.5265 4.62621
53.7264 4.53636
53.9266 4.53125
54.1269 4.38924
54.3274 4.27812
54.528 4.12566
54.7289 4.0191
54.9301 3.93901
55.1314 3.82219
55.3328 3.60941
55.5344 3.52591
55.7361 3.41626