File: XRD/Ni3Fe_FD0897.xy
TT I
1.27165 6.90493
1.45013 6.08574
1.62863 5.35993
1.80712 4.44566
1.98562 4.39685
2.16411 4.81299
2.34263 5.31654
2.52115 7.6643
2.69965 8.40763
2.87818 8.63526
3.05672 10.9859
3.23527 15.3516
3.4138 19.1945
3.59237 23.4872
3.77094 25.9072
3.9495 29.3457
4.12809 34.3002
4.30669 176.511
4.4853 60.8474
4.6639 54.6355
4.84253 66.4839
5.02118 85.2995
5.19981 315.148
5.37848 168.543
5.55716 99.8208
5.73586 90.5064
5.91455 92.0148
6.09328 4519.35
6.27201 79.9579
6.45075 65.8574
6.62952 60.9083
6.8083 57.5986
6.98711 54.971
7.16591 54.2089
7.34475 81.8052
7.5236 53.6716
7.70247 55.0764
7.88135 56.5363
8.06026 61.1866
8.23919 68.4223
8.41812 83.3106
8.59709 1184.3
8.77609 95.6747
8.9551 88.2171
9.13412 80.3938
9.31318 81.0929
9.49226 83.1849
9.67134 95.1131
9.85047 97.8906
10.0296 319.724
10.2088 334.371
10.388 102.214
10.5672 536.313
10.7465 84.428
10.9257 76.4547
11.105 70.678
11.2844 68.6974
11.4637 63.6023
11.6431 62.4857
11.8225 61.2717
12.002 62.2363
12.1814 156.439
12.3609 67.2804
12.5405 63.2613
12.72 68.1464
12.8996 69.8688
13.0792 77.4054
13.2589 239.312
13.4386 114.259
13.6183 252.318
13.7981 90.8737
13.9779 74.376
14.1577 70.8497
14.3376 69.6794
14.5175 67.4416
14.6974 69.1328
14.8774 107.957
15.0574 135.84
15.2374 68.9307
15.4175 64.9486
15.5976 64.7696
15.7778 92.1587
15.958 149.057
16.1382 60.8938
16.3185 57.0808
16.4988 54.0943
16.6792 53.4801
16.8596 53.9378
17.04 54.7461
17.2205 65.3374
17.401 67.9
17.5815 57.9659
17.7622 60.1626
17.9428 71.6686
18.1237 139.152
18.3044 90.3965
18.4852 73.3858
18.666 59.1257
18.8469 56.9116
19.0278 55.9033
19.2088 58.0967
19.3898 75.7188
19.5709 53.1996
19.752 52.3112
19.9332 55.0671
20.1144 69.1365
20.2957 63.961
20.477 51.91
20.6586 48.7177
20.84 47.9136
21.0215 47.609
21.203 50.1046
21.3846 47.8496
21.5662 48.0762
21.7479 51.5828
21.9297 63.9232
22.1115 55.685
22.2933 48.6969
22.4753 48.0302
22.6572 47.94
22.8393 50.9665
23.0214 56.152
23.2037 47.7555
23.3859 48.8022
23.5682 56.9478
23.7505 46.9992
23.9329 44.4053
24.1154 43.2881
24.2979 42.6231
24.4805 42.1935
24.6631 41.9142
24.8458 41.4669
25.0286 42.1568
25.2114 43.9684
25.3943 43.6307
25.5773 40.065
25.7605 39.6921
25.9436 40.1319
26.1268 41.0101
26.31 39.3691
26.4933 40.1228
26.6767 41.4657
26.8601 39.6851
27.0437 38.1262
27.2272 37.8285
27.4109 37.7325
27.5946 37.6415
27.7784 37.1994
27.9623 37.8819
28.1462 38.1775
28.3304 36.4205
28.5145 35.2713
28.6987 34.9174
28.8829 34.6966
29.0673 34.1105
29.2517 33.721
29.4361 33.5245
29.6207 32.5205
29.8053 32.2944
29.99 32.0158
30.1748 31.9168
30.3597 31.701
30.5447 31.6605
30.7297 31.6254
30.915 31.013
31.1002 30.6
31.2855 30.2785
31.4708 30.2658
31.6563 29.7825
31.8418 29.602
32.0275 29.4557
32.2132 28.8011
32.399 28.4463
32.5848 28.0322
32.7708 27.6201
32.9569 27.5034
33.143 27.269
33.3293 26.8694
33.5158 26.5274
33.7022 26.0471
33.8887 25.8192
34.0753 25.4759
34.262 25.1179
34.4488 24.8404
34.6357 24.5484
34.8227 24.2114
35.0098 24.0159
35.1969 23.7353
35.3842 23.6133
35.5716 23.2972
35.759 23.029
35.9468 22.722
36.1345 22.438
36.3222 22.3119
36.5101 21.967
36.6981 21.7582
36.8861 21.4383
37.0743 21.1475
37.2626 20.9196
37.451 20.6235
37.6395 20.4394
37.8281 20.0859
38.0168 19.8718
38.2056 19.634
38.3945 19.328
38.5837 19.1432
38.7728 18.8532
38.9621 18.6284
39.1514 18.3399
39.3409 18.1183
39.5304 17.95
39.7201 17.7169
39.9099 17.5475
40.0999 17.2838
40.2899 17.0302
40.48 16.8224
40.6703 16.5618
40.8607 16.4668
41.0512 16.2315
41.242 15.9901
41.4327 15.7361
41.6236 15.5536
41.8146 15.3589
42.0057 15.1517
42.1969 14.9552
42.3882 14.8332
42.5797 14.5468
42.7713 14.3892
42.963 14.184
43.1549 13.9935
43.3468 13.7539
43.5389 13.5841
43.7312 13.4352
43.9237 13.2076
44.1162 13.0647
44.3088 12.842
44.5016 12.6975
44.6945 12.5201
44.8875 12.3149
45.0806 12.1879
45.2739 11.9695
45.4673 11.8346
45.6609 11.6143
45.8546 11.5363
46.0484 11.3167
46.2424 11.1408
46.4365 11.0096
46.631 10.8876
46.8254 10.6704
47.0199 10.5057
47.2146 10.3718
47.4095 10.2402
47.6044 10.0579
47.7996 9.88452
47.9948 9.7684
48.1902 9.60999
48.3858 9.48819
48.5815 9.34888
48.7774 9.23471
48.9734 9.10942
49.1696 8.94245
49.3661 8.80821
49.5626 8.65944
49.7592 8.56628
49.956 8.41475
50.153 8.26504
50.3501 8.18219
50.5474 8.04271
50.7448 7.91249
50.9424 7.80576
51.1402 7.66315
51.3381 7.51159
51.5362 7.44155
51.7344 7.32268
51.9328 7.17056
52.1316 7.08183
52.3304 6.94843
52.5293 6.78021
52.7284 6.75116
52.9276 6.60101
53.1271 6.54143
53.3267 6.40551
53.5265 6.27306
53.7264 6.20377
53.9266 6.05269
54.1269 5.90434
54.3274 5.83684
54.528 5.68073
54.7289 5.54669
54.9301 5.40363
55.1314 5.27174
55.3328 5.0921
55.5344 4.90879
55.7361 4.76271