File: XRD/Ni3Fe_FD0749.xy
TT I
1.27165 7.43858
1.45013 5.3084
1.62863 5.11672
1.80712 5.04976
1.98562 4.64182
2.16411 4.91035
2.34263 5.77107
2.52115 7.25892
2.69965 8.50395
2.87818 8.82208
3.05672 10.9267
3.23527 15.2952
3.4138 19.6782
3.59237 24.2818
3.77094 26.2558
3.9495 30.1231
4.12809 34.7868
4.30669 238.941
4.4853 67.2917
4.6639 54.936
4.84253 66.3069
5.02118 85.4628
5.19981 312.28
5.37848 186.927
5.55716 101.176
5.73586 91.5174
5.91455 92.3503
6.09328 4310.86
6.27201 82.7514
6.45075 66.8588
6.62952 62.6865
6.8083 58.6575
6.98711 55.7659
7.16591 55.1796
7.34475 96.3994
7.5236 54.3916
7.70247 55.8829
7.88135 57.6583
8.06026 61.9308
8.23919 69.1053
8.41812 84.5907
8.59709 1136.81
8.77609 98.9235
8.9551 91.6107
9.13412 81.2661
9.31318 81.3575
9.49226 83.7622
9.67134 98.9107
9.85047 98.081
10.0296 314.143
10.2088 408.38
10.388 103.461
10.5672 511.796
10.7465 86.3234
10.9257 77.8736
11.105 71.3543
11.2844 70.3077
11.4637 64.1963
11.6431 63.5281
11.8225 61.9949
12.002 62.7716
12.1814 149.831
12.3609 70.9188
12.5405 64.1937
12.72 70.1924
12.8996 70.4606
13.0792 77.9037
13.2589 231.168
13.4386 126.561
13.6183 241.515
13.7981 97.6335
13.9779 75.3276
14.1577 72.0566
14.3376 71.2802
14.5175 68.4784
14.6974 69.8401
14.8774 106.791
15.0574 152.787
15.2374 70.8846
15.4175 65.8939
15.5976 65.4012
15.7778 91.8827
15.958 156.964
16.1382 62.706
16.3185 58.609
16.4988 55.1859
16.6792 54.1495
16.8596 54.8853
17.04 55.2757
17.2205 65.75
17.401 70.9677
17.5815 59.0695
17.7622 60.8014
17.9428 71.7912
18.1237 138.495
18.3044 89.4554
18.4852 77.7764
18.666 60.05
18.8469 57.7153
19.0278 56.4453
19.2088 58.889
19.3898 76.3168
19.5709 54.0187
19.752 52.9928
19.9332 55.6091
20.1144 69.4526
20.2957 63.5062
20.477 53.6079
20.6586 49.4154
20.84 48.5754
21.0215 48.3037
21.203 50.6177
21.3846 48.5378
21.5662 48.3823
21.7479 52.2079
21.9297 64.1837
22.1115 55.6298
22.2933 49.6205
22.4753 48.4989
22.6572 48.4506
22.8393 51.5793
23.0214 57.0875
23.2037 48.4694
23.3859 49.2552
23.5682 56.6615
23.7505 48.1254
23.9329 45.0328
24.1154 43.7632
24.2979 43.1852
24.4805 42.8415
24.6631 42.5989
24.8458 42.0705
25.0286 42.5413
25.2114 44.2843
25.3943 44.3358
25.5773 40.6569
25.7605 40.2026
25.9436 40.481
26.1268 41.4969
26.31 39.8485
26.4933 40.4865
26.6767 41.971
26.8601 40.308
27.0437 38.7138
27.2272 38.2876
27.4109 38.1328
27.5946 38.2146
27.7784 37.6495
27.9623 38.163
28.1462 38.6001
28.3304 37.0708
28.5145 35.7691
28.6987 35.4332
28.8829 35.1904
29.0673 34.4977
29.2517 34.0713
29.4361 34.048
29.6207 33.0055
29.8053 32.6876
29.99 32.3888
30.1748 32.2092
30.3597 32.0009
30.5447 31.9975
30.7297 32.1127
30.915 31.4059
31.1002 30.8891
31.2855 30.7317
31.4708 30.6717
31.6563 30.2742
31.8418 29.9768
32.0275 29.7347
32.2132 29.3331
32.399 28.7804
32.5848 28.2962
32.7708 28.0295
32.9569 27.8959
33.143 27.6779
33.3293 27.2374
33.5158 26.9148
33.7022 26.5002
33.8887 26.1772
34.0753 25.9138
34.262 25.5609
34.4488 25.2089
34.6357 24.8492
34.8227 24.5312
35.0098 24.3818
35.1969 24.0939
35.3842 23.8737
35.5716 23.6738
35.759 23.3036
35.9468 22.9956
36.1345 22.6868
36.3222 22.563
36.5101 22.335
36.6981 21.9125
36.8861 21.685
37.0743 21.389
37.2626 21.2002
37.451 20.9089
37.6395 20.7824
37.8281 20.4289
38.0168 20.1876
38.2056 19.8806
38.3945 19.5857
38.5837 19.3363
38.7728 19.1235
38.9621 18.9135
39.1514 18.6024
39.3409 18.3402
39.5304 18.1883
39.7201 17.9011
39.9099 17.7511
40.0999 17.5878
40.2899 17.2725
40.48 16.9717
40.6703 16.8282
40.8607 16.6106
41.0512 16.4574
41.242 16.1693
41.4327 15.9438
41.6236 15.7516
41.8146 15.5211
42.0057 15.4021
42.1969 15.1679
42.3882 14.9364
42.5797 14.7571
42.7713 14.6019
42.963 14.3445
43.1549 14.1125
43.3468 13.9695
43.5389 13.7711
43.7312 13.5602
43.9237 13.3953
44.1162 13.2389
44.3088 13.0149
44.5016 12.8684
44.6945 12.6614
44.8875 12.4656
45.0806 12.3235
45.2739 12.1297
45.4673 11.99
45.6609 11.8094
45.8546 11.6152
46.0484 11.5194
46.2424 11.3204
46.4365 11.1562
46.631 10.9524
46.8254 10.7926
47.0199 10.7052
47.2146 10.5351
47.4095 10.3507
47.6044 10.1881
47.7996 10.0395
47.9948 9.90657
48.1902 9.77781
48.3858 9.61395
48.5815 9.50103
48.7774 9.35587
48.9734 9.22693
49.1696 9.06861
49.3661 8.93558
49.5626 8.74235
49.7592 8.6851
49.956 8.52502
50.153 8.40569
50.3501 8.27546
50.5474 8.13864
50.7448 8.03789
50.9424 7.89182
51.1402 7.79207
51.3381 7.61226
51.5362 7.56035
51.7344 7.40133
51.9328 7.2927
52.1316 7.12742
52.3304 7.04114
52.5293 6.96281
52.7284 6.82506
52.9276 6.68473
53.1271 6.58593
53.3267 6.46059
53.5265 6.3784
53.7264 6.25047
53.9266 6.16161
54.1269 6.03742
54.3274 5.93265
54.528 5.75869
54.7289 5.60359
54.9301 5.4546
55.1314 5.33933
55.3328 5.13845
55.5344 4.95361
55.7361 4.83059