File: XRD/Ni3Fe_FD0122.xy
TT I
1.27165 8.29974
1.45013 6.63501
1.62863 5.60455
1.80712 5.30592
1.98562 4.77449
2.16411 4.68844
2.34263 4.1701
2.52115 4.1452
2.69965 4.79309
2.87818 7.70971
3.05672 11.1297
3.23527 14.6498
3.4138 18.2728
3.59237 21.8108
3.77094 25.1136
3.9495 28.1793
4.12809 32.3918
4.30669 37.4914
4.4853 44.5136
4.6639 52.8977
4.84253 66.0166
5.02118 91.1431
5.19981 591.642
5.37848 538.604
5.55716 108.478
5.73586 95.676
5.91455 107.324
6.09328 2494.85
6.27201 91.2181
6.45075 66.1011
6.62952 59.2222
6.8083 55.2712
6.98711 52.8384
7.16591 51.7599
7.34475 51.7065
7.5236 56.3804
7.70247 53.2678
7.88135 55.5409
8.06026 59.8528
8.23919 67.4357
8.41812 83.1833
8.59709 832.507
8.77609 119.688
8.9551 85.1965
9.13412 80.7531
9.31318 88.6355
9.49226 82.6309
9.67134 87.9215
9.85047 98.1301
10.0296 561.082
10.2088 1066.94
10.388 104.239
10.5672 303.038
10.7465 91.5883
10.9257 74.6505
11.105 69.7076
11.2844 65.4839
11.4637 62.7246
11.6431 61.438
11.8225 60.462
12.002 65.9372
12.1814 112.066
12.3609 76.4021
12.5405 62.5196
12.72 64.1474
12.8996 68.9349
13.0792 78.4993
13.2589 196.093
13.4386 223.993
13.6183 182.037
13.7981 163.598
13.9779 75.2798
14.1577 74.7796
14.3376 68.5352
14.5175 67.7005
14.6974 69.0315
14.8774 119.881
15.0574 205.884
15.2374 68.4038
15.4175 65.5998
15.5976 64.8898
15.7778 107.162
15.958 183.541
16.1382 61.552
16.3185 56.6232
16.4988 54.4574
16.6792 53.3429
16.8596 53.701
17.04 54.9087
17.2205 64.2505
17.401 80.9008
17.5815 58.3216
17.7622 60.7172
17.9428 83.835
18.1237 108.712
18.3044 87.1827
18.4852 97.0012
18.666 60.3732
18.8469 57.6439
19.0278 56.305
19.2088 61.3926
19.3898 67.1508
19.5709 56.2839
19.752 52.8349
19.9332 58.1402
20.1144 65.3095
20.2957 60.2734
20.477 59.6281
20.6586 49.2574
20.84 48.7117
21.0215 48.5838
21.203 49.062
21.3846 50.025
21.5662 48.4661
21.7479 53.8114
21.9297 60.5972
22.1115 55.9778
22.2933 52.3415
22.4753 48.5149
22.6572 48.7534
22.8393 51.5547
23.0214 56.003
23.2037 49.6505
23.3859 51.5804
23.5682 52.4597
23.7505 53.7064
23.9329 45.2903
24.1154 43.9931
24.2979 43.2472
24.4805 42.495
24.6631 42.7266
24.8458 42.1089
25.0286 42.5506
25.2114 44.0167
25.3943 44.4735
25.5773 41.5394
25.7605 40.3554
25.9436 40.6273
26.1268 40.9854
26.31 40.7241
26.4933 40.6056
26.6767 41.426
26.8601 40.9966
27.0437 39.2811
27.2272 38.5981
27.4109 38.2124
27.5946 38.3128
27.7784 38.2308
27.9623 38.1482
28.1462 38.952
28.3304 37.6624
28.5145 36.0024
28.6987 35.6939
28.8829 35.2533
29.0673 34.8758
29.2517 34.1901
29.4361 33.9975
29.6207 33.2757
29.8053 32.8096
29.99 32.5267
30.1748 32.2195
30.3597 32.3424
30.5447 32.0091
30.7297 32.0367
30.915 31.9478
31.1002 31.197
31.2855 30.9463
31.4708 30.6469
31.6563 30.5464
31.8418 30.1576
32.0275 29.804
32.2132 29.4556
32.399 28.9019
32.5848 28.5172
32.7708 28.1416
32.9569 28.0704
33.143 27.5979
33.3293 27.4031
33.5158 27.0909
33.7022 26.5746
33.8887 26.2719
34.0753 25.9537
34.262 25.6321
34.4488 25.3484
34.6357 24.8681
34.8227 24.5788
35.0098 24.4014
35.1969 24.1528
35.3842 23.9034
35.5716 23.7706
35.759 23.4659
35.9468 23.118
36.1345 22.832
36.3222 22.7376
36.5101 22.3656
36.6981 22.1131
36.8861 21.7659
37.0743 21.4273
37.2626 21.2774
37.451 20.9683
37.6395 20.7886
37.8281 20.49
38.0168 20.1638
38.2056 19.9428
38.3945 19.713
38.5837 19.408
38.7728 19.1879
38.9621 18.9444
39.1514 18.6341
39.3409 18.3946
39.5304 18.2416
39.7201 18.0164
39.9099 17.8332
40.0999 17.5709
40.2899 17.3247
40.48 17.12
40.6703 16.8794
40.8607 16.6763
41.0512 16.4616
41.242 16.1714
41.4327 16.0161
41.6236 15.7857
41.8146 15.6086
42.0057 15.3742
42.1969 15.1349
42.3882 14.9873
42.5797 14.7981
42.7713 14.6453
42.963 14.4158
43.1549 14.1949
43.3468 13.9585
43.5389 13.8129
43.7312 13.5787
43.9237 13.4219
44.1162 13.2714
44.3088 13.0184
44.5016 12.8227
44.6945 12.7061
44.8875 12.4802
45.0806 12.3622
45.2739 12.2055
45.4673 11.99
45.6609 11.8187
45.8546 11.6991
46.0484 11.4807
46.2424 11.3165
46.4365 11.1857
46.631 11.0144
46.8254 10.8076
47.0199 10.6735
47.2146 10.5199
47.4095 10.3755
47.6044 10.224
47.7996 10.0757
47.9948 9.90382
48.1902 9.77921
48.3858 9.63554
48.5815 9.52045
48.7774 9.36352
48.9734 9.23177
49.1696 9.10247
49.3661 8.9321
49.5626 8.78266
49.7592 8.67868
49.956 8.54389
50.153 8.41633
50.3501 8.25392
50.5474 8.17388
50.7448 8.03836
50.9424 7.90786
51.1402 7.7947
51.3381 7.65679
51.5362 7.5398
51.7344 7.38446
51.9328 7.31295
52.1316 7.15207
52.3304 7.05153
52.5293 6.94874
52.7284 6.84621
52.9276 6.69918
53.1271 6.62478
53.3267 6.48554
53.5265 6.39511
53.7264 6.22828
53.9266 6.1425
54.1269 6.01873
54.3274 5.9111
54.528 5.74771
54.7289 5.56616
54.9301 5.39414
55.1314 5.25895
55.3328 4.97896
55.5344 4.8618
55.7361 4.69651