File: XRD/Ni3Fe_FD0290.xy
TT I
1.27165 7.66911
1.45013 6.2354
1.62863 5.35025
1.80712 4.70193
1.98562 4.89635
2.16411 4.76335
2.34263 4.83157
2.52115 5.75799
2.69965 6.84383
2.87818 8.41653
3.05672 11.3626
3.23527 15.003
3.4138 19.4861
3.59237 25.2235
3.77094 27.0764
3.9495 30.6356
4.12809 35.7086
4.30669 273.587
4.4853 72.1052
4.6639 57.3893
4.84253 69.3556
5.02118 91.5524
5.19981 506.254
5.37848 257.711
5.55716 107.85
5.73586 96.7918
5.91455 101.242
6.09328 3684.25
6.27201 90.124
6.45075 70.71
6.62952 65.7551
6.8083 61.5222
6.98711 58.0802
7.16591 57.9671
7.34475 105.409
7.5236 56.6816
7.70247 58.4821
7.88135 59.9629
8.06026 64.8732
8.23919 72.3054
8.41812 89.7611
8.59709 1013.7
8.77609 108.567
8.9551 97.4154
9.13412 84.8484
9.31318 86.3654
9.49226 87.6523
9.67134 104.794
9.85047 104.462
10.0296 391.16
10.2088 607.116
10.388 110.679
10.5672 455.864
10.7465 91.4397
10.9257 82.3164
11.105 74.8731
11.2844 74.1737
11.4637 67.1971
11.6431 66.2101
11.8225 65.0687
12.002 66.3469
12.1814 137.756
12.3609 76.7431
12.5405 67.3995
12.72 74.076
12.8996 73.7853
13.0792 82.1094
13.2589 215.412
13.4386 149.405
13.6183 217.455
13.7981 113.127
13.9779 78.9145
14.1577 75.7104
14.3376 75.0744
14.5175 71.3242
14.6974 73.38
14.8774 110.575
15.0574 174.929
15.2374 74.6072
15.4175 68.863
15.5976 68.4295
15.7778 96.6904
15.958 177.163
16.1382 66.0912
16.3185 61.358
16.4988 57.6489
16.6792 56.8067
16.8596 57.2766
17.04 58.2265
17.2205 67.5628
17.401 77.3493
17.5815 61.5416
17.7622 63.5237
17.9428 77.8044
18.1237 137.491
18.3044 89.1047
18.4852 85.4456
18.666 63.0362
18.8469 60.5642
19.0278 59.2185
19.2088 62.346
19.3898 78.1853
19.5709 56.7056
19.752 55.3727
19.9332 58.4229
20.1144 71.6182
20.2957 64.3669
20.477 57.1078
20.6586 51.771
20.84 50.8665
21.0215 50.5894
21.203 52.1783
21.3846 51.1624
21.5662 50.5164
21.7479 54.4246
21.9297 66.7126
22.1115 57.5384
22.2933 52.3879
22.4753 50.9126
22.6572 50.8673
22.8393 53.2101
23.0214 60.0259
23.2037 50.8912
23.3859 51.5705
23.5682 57.5688
23.7505 51.0332
23.9329 47.2027
24.1154 46.0367
24.2979 45.1741
24.4805 44.5406
24.6631 44.5913
24.8458 43.8962
25.0286 44.2682
25.2114 46.1169
25.3943 46.4443
25.5773 42.6829
25.7605 42.1618
25.9436 42.1462
26.1268 43.4076
26.31 41.7649
26.4933 42.1599
26.6767 43.643
26.8601 42.1568
27.0437 40.4373
27.2272 39.9686
27.4109 39.8854
27.5946 39.9129
27.7784 39.3102
27.9623 39.5838
28.1462 40.3477
28.3304 38.7931
28.5145 37.3503
28.6987 37.0583
28.8829 36.8194
29.0673 36.0813
29.2517 35.6392
29.4361 35.5195
29.6207 34.3562
29.8053 34.2621
29.99 33.8042
30.1748 33.644
30.3597 33.5773
30.5447 33.3671
30.7297 33.4295
30.915 32.9536
31.1002 32.3193
31.2855 32.0511
31.4708 31.9495
31.6563 31.6367
31.8418 31.1925
32.0275 31.1054
32.2132 30.466
32.399 30.0738
32.5848 29.6235
32.7708 29.2879
32.9569 29.1351
33.143 28.8473
33.3293 28.4148
33.5158 28.1927
33.7022 27.6611
33.8887 27.3175
34.0753 27.0306
34.262 26.5977
34.4488 26.2836
34.6357 25.9518
34.8227 25.5836
35.0098 25.4518
35.1969 25.1249
35.3842 24.9333
35.5716 24.6866
35.759 24.3289
35.9468 23.9713
36.1345 23.7915
36.3222 23.5001
36.5101 23.2894
36.6981 23.0021
36.8861 22.5948
37.0743 22.2782
37.2626 22.0234
37.451 21.8358
37.6395 21.7179
37.8281 21.2897
38.0168 20.9871
38.2056 20.8063
38.3945 20.4842
38.5837 20.2087
38.7728 19.9334
38.9621 19.7057
39.1514 19.4065
39.3409 19.2411
39.5304 18.9704
39.7201 18.8481
39.9099 18.5388
40.0999 18.2668
40.2899 18.0723
40.48 17.8032
40.6703 17.5772
40.8607 17.4379
41.0512 17.1519
41.242 16.8676
41.4327 16.6546
41.6236 16.3953
41.8146 16.2574
42.0057 16.0204
42.1969 15.8514
42.3882 15.5714
42.5797 15.3986
42.7713 15.1624
42.963 14.9838
43.1549 14.7728
43.3468 14.5869
43.5389 14.3719
43.7312 14.1526
43.9237 13.9375
44.1162 13.8271
44.3088 13.622
44.5016 13.4094
44.6945 13.2216
44.8875 13.0227
45.0806 12.8461
45.2739 12.683
45.4673 12.5184
45.6609 12.3256
45.8546 12.1515
46.0484 11.9688
46.2424 11.8232
46.4365 11.653
46.631 11.4295
46.8254 11.2586
47.0199 11.158
47.2146 10.9369
47.4095 10.813
47.6044 10.6211
47.7996 10.4629
47.9948 10.336
48.1902 10.1705
48.3858 10.0312
48.5815 9.8906
48.7774 9.76635
48.9734 9.58522
49.1696 9.46614
49.3661 9.31284
49.5626 9.16162
49.7592 8.99008
49.956 8.8986
50.153 8.76415
50.3501 8.61156
50.5474 8.51954
50.7448 8.36736
50.9424 8.25828
51.1402 8.09458
51.3381 7.9827
51.5362 7.85347
51.7344 7.72772
51.9328 7.6002
52.1316 7.47032
52.3304 7.34275
52.5293 7.21364
52.7284 7.09706
52.9276 6.98227
53.1271 6.84094
53.3267 6.76808
53.5265 6.63123
53.7264 6.51182
53.9266 6.39152
54.1269 6.29577
54.3274 6.19787
54.528 6.01144
54.7289 5.85874
54.9301 5.62537
55.1314 5.54959
55.3328 5.28762
55.5344 5.14138
55.7361 4.98722