File: XRD/Ni3Fe_FD0987.xy
TT I
1.27165 7.11165
1.45013 6.17652
1.62863 4.70374
1.80712 5.04041
1.98562 4.52304
2.16411 5.184
2.34263 5.19314
2.52115 7.61982
2.69965 7.92018
2.87818 8.95314
3.05672 11.4741
3.23527 14.989
3.4138 19.0802
3.59237 24.3526
3.77094 26.1185
3.9495 29.6125
4.12809 34.5798
4.30669 239.807
4.4853 67.3381
4.6639 54.1596
4.84253 65.2316
5.02118 84.026
5.19981 270.596
5.37848 172.282
5.55716 99.5385
5.73586 89.9946
5.91455 90.1924
6.09328 4594.61
6.27201 80.7537
6.45075 66.0021
6.62952 62.1579
6.8083 58.0044
6.98711 55.19
7.16591 54.5344
7.34475 95.4503
7.5236 54.0916
7.70247 55.2941
7.88135 56.6575
8.06026 61.1031
8.23919 68.3586
8.41812 83.2532
8.59709 1117.97
8.77609 96.5413
8.9551 91.0033
9.13412 80.5798
9.31318 80.9443
9.49226 82.494
9.67134 97.216
9.85047 97.5263
10.0296 289.722
10.2088 367.505
10.388 102.118
10.5672 536.905
10.7465 85.1451
10.9257 77.2653
11.105 70.6697
11.2844 69.2167
11.4637 63.7538
11.6431 62.5994
11.8225 61.5851
12.002 61.9899
12.1814 150.068
12.3609 69.7192
12.5405 63.3594
12.72 68.947
12.8996 69.3486
13.0792 76.6829
13.2589 227.027
13.4386 119.913
13.6183 241.506
13.7981 94.3976
13.9779 74.1337
14.1577 71.1867
14.3376 70.4695
14.5175 67.3624
14.6974 68.786
14.8774 103.609
15.0574 147.581
15.2374 69.6375
15.4175 64.9033
15.5976 64.1668
15.7778 89.0308
15.958 152.73
16.1382 61.6426
16.3185 57.777
16.4988 54.4264
16.6792 53.4788
16.8596 53.9838
17.04 54.4806
17.2205 64.6833
17.401 68.6746
17.5815 57.9496
17.7622 59.7973
17.9428 70.2182
18.1237 138.223
18.3044 88.5103
18.4852 75.3714
18.666 59.0533
18.8469 56.9281
19.0278 55.9362
19.2088 57.8279
19.3898 75.273
19.5709 52.9949
19.752 52.2441
19.9332 54.5071
20.1144 68.9778
20.2957 62.9718
20.477 52.5636
20.6586 48.5117
20.84 47.8876
21.0215 47.5025
21.203 49.9339
21.3846 47.8956
21.5662 47.6491
21.7479 51.072
21.9297 63.4719
22.1115 55.1804
22.2933 48.82
22.4753 47.9756
22.6572 47.6821
22.8393 50.5323
23.0214 56.219
23.2037 47.7543
23.3859 48.3468
23.5682 56.4169
23.7505 47.2724
23.9329 44.2661
24.1154 43.338
24.2979 42.5186
24.4805 42.0143
24.6631 42.0699
24.8458 41.3416
25.0286 41.9481
25.2114 43.7334
25.3943 43.7232
25.5773 39.9869
25.7605 39.6535
25.9436 40.1447
26.1268 40.9695
26.31 39.1462
26.4933 39.8496
26.6767 41.3767
26.8601 39.6179
27.0437 38.0647
27.2272 37.6435
27.4109 37.6321
27.5946 37.55
27.7784 37.0175
27.9623 37.6863
28.1462 38.0325
28.3304 36.4442
28.5145 35.2289
28.6987 34.9421
28.8829 34.7387
29.0673 33.9611
29.2517 33.6292
29.4361 33.4279
29.6207 32.4934
29.8053 32.3444
29.99 31.8569
30.1748 31.7953
30.3597 31.5276
30.5447 31.4335
30.7297 31.6099
30.915 30.9914
31.1002 30.5606
31.2855 30.2346
31.4708 30.247
31.6563 29.6866
31.8418 29.5969
32.0275 29.274
32.2132 28.8135
32.399 28.2999
32.5848 27.9311
32.7708 27.6786
32.9569 27.4631
33.143 27.3093
33.3293 26.739
33.5158 26.4674
33.7022 26.0844
33.8887 25.8157
34.0753 25.4144
34.262 25.22
34.4488 24.7828
34.6357 24.4716
34.8227 24.2434
35.0098 24.032
35.1969 23.7675
35.3842 23.5656
35.5716 23.2922
35.759 23.0998
35.9468 22.6067
36.1345 22.4816
36.3222 22.343
36.5101 22.0135
36.6981 21.6802
36.8861 21.3628
37.0743 21.1001
37.2626 20.8458
37.451 20.6129
37.6395 20.4788
37.8281 20.1264
38.0168 19.8708
38.2056 19.6561
38.3945 19.3129
38.5837 19.1226
38.7728 18.8416
38.9621 18.5996
39.1514 18.3536
39.3409 18.1258
39.5304 17.9892
39.7201 17.7349
39.9099 17.5204
40.0999 17.2775
40.2899 17.0683
40.48 16.7934
40.6703 16.6144
40.8607 16.4363
41.0512 16.2109
41.242 15.9659
41.4327 15.7729
41.6236 15.4833
41.8146 15.4201
42.0057 15.1383
42.1969 14.9404
42.3882 14.7769
42.5797 14.5514
42.7713 14.3523
42.963 14.1576
43.1549 13.9652
43.3468 13.7203
43.5389 13.5798
43.7312 13.3901
43.9237 13.2478
44.1162 13.041
44.3088 12.8672
44.5016 12.6739
44.6945 12.4812
44.8875 12.3208
45.0806 12.1115
45.2739 11.9716
45.4673 11.8402
45.6609 11.6425
45.8546 11.4882
46.0484 11.3373
46.2424 11.1267
46.4365 11.0171
46.631 10.8302
46.8254 10.6611
47.0199 10.5316
47.2146 10.3678
47.4095 10.2036
47.6044 10.0518
47.7996 9.93432
47.9948 9.76404
48.1902 9.65138
48.3858 9.49029
48.5815 9.365
48.7774 9.22982
48.9734 9.0895
49.1696 8.92974
49.3661 8.74912
49.5626 8.66212
49.7592 8.51423
49.956 8.41454
50.153 8.28442
50.3501 8.14436
50.5474 8.04669
50.7448 7.93811
50.9424 7.7887
51.1402 7.63563
51.3381 7.53346
51.5362 7.41536
51.7344 7.28317
51.9328 7.19102
52.1316 7.04793
52.3304 6.93821
52.5293 6.83584
52.7284 6.73405
52.9276 6.59258
53.1271 6.51847
53.3267 6.36635
53.5265 6.30015
53.7264 6.16483
53.9266 6.08754
54.1269 5.96746
54.3274 5.82268
54.528 5.69367
54.7289 5.56303
54.9301 5.36904
55.1314 5.2608
55.3328 5.04886
55.5344 4.87324
55.7361 4.71068