File: XRD/Ni3Fe_FD0005.xy
TT I
1.27165 35.3144
1.45013 31.9988
1.62863 28.4395
1.80712 26.1386
1.98562 25.8692
2.16411 25.8528
2.34263 25.9102
2.52115 25.9319
2.69965 29.8937
2.87818 40.2046
3.05672 65.738
3.23527 81.4971
3.4138 45.8668
3.59237 40.375
3.77094 42.1665
3.9495 44.2552
4.12809 54.6956
4.30669 77.7656
4.4853 69.8826
4.6639 55.3576
4.84253 60.358
5.02118 90.3423
5.19981 248.09
5.37848 4153.47
5.55716 165.18
5.73586 99.2461
5.91455 105.598
6.09328 393.488
6.27201 387.464
6.45075 74.0353
6.62952 54.42
6.8083 51.5698
6.98711 48.0116
7.16591 51.5921
7.34475 69.7147
7.5236 64.0358
7.70247 53.634
7.88135 38.9736
8.06026 39.4986
8.23919 43.4614
8.41812 53.8481
8.59709 136.795
8.77609 785.009
8.9551 81.8699
9.13412 58.2452
9.31318 230.558
9.49226 50.9639
9.67134 49.0099
9.85047 54.2643
10.0296 84.7207
10.2088 351.728
10.388 165.549
10.5672 87.2471
10.7465 304.193
10.9257 49.0194
11.105 40.9735
11.2844 39.3491
11.4637 37.8807
11.6431 36.9957
11.8225 36.781
12.002 60.1974
12.1814 45.5127
12.3609 83.3558
12.5405 46.8098
12.72 38.7057
12.8996 38.5402
13.0792 40.1079
13.2589 61.0452
13.4386 113.157
13.6183 108.412
13.7981 121.348
13.9779 75.3374
14.1577 43.7367
14.3376 56.5982
14.5175 35.5504
14.6974 35.2058
14.8774 39.2731
15.0574 53.2601
15.2374 123.455
15.4175 41.0702
15.5976 36.4455
15.7778 38.3889
15.958 49.4114
16.1382 139.674
16.3185 41.6654
16.4988 32.2738
16.6792 30.4713
16.8596 30.1091
17.04 37.3668
17.2205 31.7805
17.401 33.8138
17.5815 52.8558
17.7622 33.4835
17.9428 41.4463
18.1237 41.6388
18.3044 73.6278
18.4852 63.9755
18.666 79.3472
18.8469 36.0012
19.0278 31.7776
19.2088 31.5651
19.3898 36.2656
19.5709 45.7846
19.752 39.1858
19.9332 30.6415
20.1144 31.1642
20.2957 38.2488
20.477 41.5032
20.6586 45.1678
20.84 30.4319
21.0215 30.2083
21.203 27.1392
21.3846 27.4541
21.5662 32.4012
21.7479 28.4131
21.9297 29.8434
22.1115 37.1889
22.2933 50.2157
22.4753 39.6245
22.6572 29.4179
22.8393 28.7654
23.0214 31.1929
23.2037 35.4603
23.3859 38.6022
23.5682 34.3306
23.7505 32.4986
23.9329 48.779
24.1154 29.7664
24.2979 26.9252
24.4805 25.4043
24.6631 25.2652
24.8458 27.7343
25.0286 25.5214
25.2114 25.3071
25.3943 27.5719
25.5773 30.9813
25.7605 32.3935
25.9436 26.2475
26.1268 25.1501
26.31 25.4471
26.4933 29.5441
26.6767 25.6294
26.8601 26.4913
27.0437 32.8689
27.2272 28.9628
27.4109 24.3732
27.5946 23.8422
27.7784 24.2669
27.9623 25.7957
28.1462 25.1829
28.3304 26.5044
28.5145 30.0468
28.6987 26.8986
28.8829 23.0075
29.0673 22.0595
29.2517 23.0034
29.4361 22.2408
29.6207 21.5302
29.8053 23.084
29.99 21.297
30.1748 20.826
30.3597 21.0021
30.5447 20.8553
30.7297 21.2609
30.915 20.8406
31.1002 23.3597
31.2855 23.0871
31.4708 20.5605
31.6563 20.2534
31.8418 21.3926
32.0275 21.354
32.2132 20.6096
32.399 21.6785
32.5848 20.2405
32.7708 18.895
32.9569 18.4785
33.143 18.8781
33.3293 18.1908
33.5158 18.6194
33.7022 19.5577
33.8887 18.5582
34.0753 17.672
34.262 17.5126
34.4488 17.4845
34.6357 16.8824
34.8227 17.1188
35.0098 16.5806
35.1969 16.1263
35.3842 16.2009
35.5716 16.2188
35.759 16.4477
35.9468 17.3705
36.1345 16.6682
36.3222 15.7502
36.5101 15.6293
36.6981 15.8728
36.8861 15.2339
37.0743 15.4932
37.2626 15.1519
37.451 14.5906
37.6395 14.4287
37.8281 14.2516
38.0168 14.0042
38.2056 14.1318
38.3945 13.8222
38.5837 13.4931
38.7728 13.5109
38.9621 13.3364
39.1514 13.2991
39.3409 13.058
39.5304 12.7569
39.7201 12.5621
39.9099 12.4792
40.0999 12.2857
40.2899 12.4112
40.48 12.2726
40.6703 12.0332
40.8607 11.9622
41.0512 11.805
41.242 11.7523
41.4327 11.6113
41.6236 11.2033
41.8146 11.1048
42.0057 11.0194
42.1969 10.9561
42.3882 10.9085
42.5797 10.597
42.7713 10.4338
42.963 10.2965
43.1549 10.1309
43.3468 9.97903
43.5389 9.81601
43.7312 9.69148
43.9237 9.65593
44.1162 9.49981
44.3088 9.49545
44.5016 9.29674
44.6945 9.14261
44.8875 9.11628
45.0806 8.97793
45.2739 8.86141
45.4673 8.67439
45.6609 8.56371
45.8546 8.48867
46.0484 8.36844
46.2424 8.29946
46.4365 8.14249
46.631 8.04182
46.8254 7.91207
47.0199 7.79785
47.2146 7.68208
47.4095 7.52375
47.6044 7.43193
47.7996 7.32203
47.9948 7.27158
48.1902 7.14625
48.3858 7.00471
48.5815 6.95465
48.7774 6.83351
48.9734 6.73503
49.1696 6.65734
49.3661 6.55255
49.5626 6.42345
49.7592 6.3976
49.956 6.32872
50.153 6.22014
50.3501 6.1116
50.5474 6.05538
50.7448 5.97657
50.9424 5.8806
51.1402 5.78212
51.3381 5.64968
51.5362 5.60767
51.7344 5.49913
51.9328 5.40917
52.1316 5.31682
52.3304 5.23176
52.5293 5.1897
52.7284 5.06191
52.9276 4.98364
53.1271 4.95898
53.3267 4.86682
53.5265 4.74681
53.7264 4.70282
53.9266 4.6023
54.1269 4.5367
54.3274 4.38587
54.528 4.27576
54.7289 4.12437
54.9301 4.03691
55.1314 3.85365
55.3328 3.75417
55.5344 3.60846
55.7361 3.51863