File: XRD/Ni3Fe_FD0504.xy
TT I
1.27165 7.59768
1.45013 6.02227
1.62863 5.09875
1.80712 5.14108
1.98562 4.49243
2.16411 5.14561
2.34263 4.92239
2.52115 6.24963
2.69965 7.53371
2.87818 8.38968
3.05672 11.2069
3.23527 14.8932
3.4138 19.1854
3.59237 23.9532
3.77094 26.3578
3.9495 29.9272
4.12809 35.4564
4.30669 213.727
4.4853 66.0347
4.6639 55.7054
4.84253 68.1086
5.02118 88.4471
5.19981 392.619
5.37848 205.246
5.55716 103.702
5.73586 93.9471
5.91455 96.173
6.09328 4172.78
6.27201 85.0088
6.45075 68.2276
6.62952 63.7066
6.8083 59.0819
6.98711 56.4801
7.16591 56.0793
7.34475 91.4017
7.5236 55.2906
7.70247 56.7566
7.88135 58.7889
8.06026 62.9138
8.23919 70.0196
8.41812 86.5543
8.59709 1169.53
8.77609 102.269
8.9551 92.8446
9.13412 82.6298
9.31318 83.6093
9.49226 85.7567
9.67134 99.777
9.85047 101.373
10.0296 359.194
10.2088 448.865
10.388 106.231
10.5672 497.512
10.7465 87.9218
10.9257 79.1711
11.105 72.9266
11.2844 71.5733
11.4637 65.7294
11.6431 64.3691
11.8225 63.3571
12.002 64.2014
12.1814 153.49
12.3609 72.0804
12.5405 65.2593
12.72 70.7657
12.8996 71.754
13.0792 79.8636
13.2589 237.947
13.4386 132.254
13.6183 245.337
13.7981 103.258
13.9779 76.9524
14.1577 73.2125
14.3376 72.5154
14.5175 69.5719
14.6974 71.3377
14.8774 112.539
15.0574 156.485
15.2374 72.1693
15.4175 67.0545
15.5976 66.4871
15.7778 96.4738
15.958 160.836
16.1382 63.6617
16.3185 59.438
16.4988 56.434
16.6792 55.3069
16.8596 56.1039
17.04 56.5679
17.2205 67.359
17.401 72.9354
17.5815 60.1062
17.7622 62.1289
17.9428 74.9362
18.1237 137.226
18.3044 91.2052
18.4852 80.8473
18.666 61.2532
18.8469 58.7631
19.0278 57.6564
19.2088 60.5751
19.3898 76.836
19.5709 55.2895
19.752 54.0011
19.9332 57.1061
20.1144 70.2628
20.2957 64.0973
20.477 54.7548
20.6586 50.3994
20.84 49.3121
21.0215 49.1311
21.203 51.4604
21.3846 49.555
21.5662 49.5519
21.7479 53.4363
21.9297 64.7973
22.1115 56.5228
22.2933 50.736
22.4753 49.4324
22.6572 49.4677
22.8393 52.7128
23.0214 58.1265
23.2037 49.5401
23.3859 50.572
23.5682 57.0073
23.7505 49.3189
23.9329 45.8559
24.1154 44.7839
24.2979 44.0274
24.4805 43.5276
24.6631 43.2434
24.8458 42.6612
25.0286 43.4671
25.2114 45.326
25.3943 45.113
25.5773 41.6523
25.7605 41.0143
25.9436 41.5258
26.1268 42.2123
26.31 40.7179
26.4933 41.2012
26.6767 42.7782
26.8601 41.0661
27.0437 39.5061
27.2272 39.1578
27.4109 38.9118
27.5946 38.9464
27.7784 38.3369
27.9623 38.9564
28.1462 39.3176
28.3304 37.7342
28.5145 36.3992
28.6987 36.1633
28.8829 35.8245
29.0673 35.1925
29.2517 34.8634
29.4361 34.5441
29.6207 33.6105
29.8053 33.357
29.99 33.0131
30.1748 32.8439
30.3597 32.6819
30.5447 32.7083
30.7297 32.741
30.915 32.0976
31.1002 31.6172
31.2855 31.2887
31.4708 31.257
31.6563 30.7884
31.8418 30.3953
32.0275 30.3882
32.2132 29.7671
32.399 29.3566
32.5848 28.8507
32.7708 28.446
32.9569 28.4605
33.143 28.2141
33.3293 27.7133
33.5158 27.4086
33.7022 26.9648
33.8887 26.7113
34.0753 26.4268
34.262 26.0036
34.4488 25.7151
34.6357 25.3394
34.8227 25.0344
35.0098 24.8541
35.1969 24.5937
35.3842 24.3031
35.5716 24.0836
35.759 23.8891
35.9468 23.4822
36.1345 23.2008
36.3222 23.0285
36.5101 22.7507
36.6981 22.4579
36.8861 22.1074
37.0743 21.7533
37.2626 21.5369
37.451 21.2674
37.6395 21.1399
37.8281 20.818
38.0168 20.4046
38.2056 20.2678
38.3945 19.956
38.5837 19.6742
38.7728 19.4757
38.9621 19.1782
39.1514 18.9536
39.3409 18.7057
39.5304 18.514
39.7201 18.3235
39.9099 18.1327
40.0999 17.8606
40.2899 17.5987
40.48 17.3183
40.6703 17.1936
40.8607 16.9463
41.0512 16.7787
41.242 16.502
41.4327 16.3844
41.6236 16.0833
41.8146 15.8581
42.0057 15.6089
42.1969 15.4257
42.3882 15.2568
42.5797 15.0338
42.7713 14.8445
42.963 14.6317
43.1549 14.4216
43.3468 14.2395
43.5389 14.074
43.7312 13.8077
43.9237 13.6128
44.1162 13.4444
44.3088 13.2828
44.5016 13.0021
44.6945 12.9308
44.8875 12.7695
45.0806 12.5371
45.2739 12.3791
45.4673 12.2194
45.6609 12.02
45.8546 11.8348
46.0484 11.6798
46.2424 11.5059
46.4365 11.3678
46.631 11.1807
46.8254 11.017
47.0199 10.8738
47.2146 10.7446
47.4095 10.5512
47.6044 10.399
47.7996 10.257
47.9948 10.0692
48.1902 9.94919
48.3858 9.77078
48.5815 9.66301
48.7774 9.49467
48.9734 9.39262
49.1696 9.21426
49.3661 9.07615
49.5626 8.91882
49.7592 8.86344
49.956 8.69031
50.153 8.57558
50.3501 8.43234
50.5474 8.29427
50.7448 8.16578
50.9424 8.05052
51.1402 7.93521
51.3381 7.77627
51.5362 7.68788
51.7344 7.5137
51.9328 7.38681
52.1316 7.29046
52.3304 7.20047
52.5293 7.05675
52.7284 6.93326
52.9276 6.80798
53.1271 6.6878
53.3267 6.60737
53.5265 6.48076
53.7264 6.33581
53.9266 6.25591
54.1269 6.18517
54.3274 6.07018
54.528 5.85555
54.7289 5.72546
54.9301 5.55173
55.1314 5.47453
55.3328 5.18176
55.5344 5.0187
55.7361 4.90084