File: XRD/Ni3Fe_FD0124.xy
TT I
1.27165 8.40555
1.45013 6.5033
1.62863 5.52239
1.80712 5.31291
1.98562 4.99354
2.16411 4.72215
2.34263 4.36668
2.52115 4.2746
2.69965 5.02363
2.87818 7.93873
3.05672 10.913
3.23527 15.1729
3.4138 18.6475
3.59237 21.5384
3.77094 25.0374
3.9495 28.6264
4.12809 32.3701
4.30669 37.1474
4.4853 44.9145
4.6639 53.3137
4.84253 65.6767
5.02118 90.9637
5.19981 590.81
5.37848 524.853
5.55716 108.6
5.73586 95.8164
5.91455 106.991
6.09328 2515.65
6.27201 90.6339
6.45075 66.2109
6.62952 59.511
6.8083 55.3204
6.98711 53.2336
7.16591 52.1192
7.34475 51.4283
7.5236 56.5626
7.70247 53.5516
7.88135 55.8592
8.06026 60.2892
8.23919 67.6571
8.41812 83.3608
8.59709 839.745
8.77609 119.612
8.9551 84.5938
9.13412 81.0406
9.31318 88.5785
9.49226 82.751
9.67134 88.0106
9.85047 98.0954
10.0296 560.252
10.2088 1058.36
10.388 104.149
10.5672 306.05
10.7465 91.3562
10.9257 75.4838
11.105 69.684
11.2844 65.6932
11.4637 62.845
11.6431 61.5022
11.8225 60.9189
12.002 66.3131
12.1814 112.543
12.3609 77.1784
12.5405 62.6745
12.72 64.5695
12.8996 69.0187
13.0792 78.9441
13.2589 197.305
13.4386 224.589
13.6183 183.263
13.7981 164.053
13.9779 75.4574
14.1577 74.6388
14.3376 68.3969
14.5175 67.7149
14.6974 69.1309
14.8774 120.383
15.0574 205.663
15.2374 68.5802
15.4175 65.4871
15.5976 64.9879
15.7778 107.28
15.958 183.637
16.1382 61.7237
16.3185 56.8326
16.4988 54.5547
16.6792 53.6886
16.8596 53.8926
17.04 54.9118
17.2205 64.4511
17.401 81.0613
17.5815 58.5943
17.7622 60.9078
17.9428 84.0741
18.1237 109.323
18.3044 87.7431
18.4852 96.802
18.666 60.5908
18.8469 57.6447
19.0278 56.3148
19.2088 61.3434
19.3898 67.3806
19.5709 56.2543
19.752 52.8466
19.9332 57.9216
20.1144 65.6138
20.2957 60.4111
20.477 59.4978
20.6586 49.3659
20.84 48.7662
21.0215 48.6058
21.203 49.1717
21.3846 50.3832
21.5662 48.5827
21.7479 53.7185
21.9297 60.659
22.1115 55.9819
22.2933 52.3471
22.4753 48.4506
22.6572 48.6474
22.8393 51.4343
23.0214 56.0766
23.2037 49.6441
23.3859 51.6488
23.5682 52.6342
23.7505 53.6136
23.9329 45.3597
24.1154 44.0441
24.2979 43.2946
24.4805 42.6098
24.6631 42.7607
24.8458 42.2255
25.0286 42.6829
25.2114 43.9563
25.3943 44.3319
25.5773 41.5663
25.7605 40.5769
25.9436 40.6915
26.1268 41.2205
26.31 40.7472
26.4933 40.5725
26.6767 41.5431
26.8601 41.0681
27.0437 39.2878
27.2272 38.7022
27.4109 38.3698
27.5946 38.51
27.7784 38.2473
27.9623 38.3229
28.1462 38.998
28.3304 37.758
28.5145 36.1738
28.6987 35.8013
28.8829 35.1413
29.0673 34.9503
29.2517 34.2637
29.4361 33.9833
29.6207 33.4168
29.8053 32.8235
29.99 32.5171
30.1748 32.2224
30.3597 32.4312
30.5447 32.1238
30.7297 32.1262
30.915 31.8653
31.1002 31.1751
31.2855 30.8626
31.4708 30.7357
31.6563 30.6908
31.8418 30.0858
32.0275 29.9917
32.2132 29.5585
32.399 28.8717
32.5848 28.4927
32.7708 28.1774
32.9569 28.0093
33.143 27.7485
33.3293 27.4932
33.5158 27.1172
33.7022 26.5934
33.8887 26.2405
34.0753 26.0608
34.262 25.6063
34.4488 25.3147
34.6357 24.9176
34.8227 24.6928
35.0098 24.3661
35.1969 24.1231
35.3842 23.9193
35.5716 23.7932
35.759 23.4952
35.9468 23.1265
36.1345 22.8651
36.3222 22.6303
36.5101 22.4117
36.6981 22.1138
36.8861 21.8179
37.0743 21.5628
37.2626 21.1904
37.451 20.9722
37.6395 20.7549
37.8281 20.5563
38.0168 20.1837
38.2056 19.9728
38.3945 19.6987
38.5837 19.4315
38.7728 19.1223
38.9621 19.0262
39.1514 18.6891
39.3409 18.4191
39.5304 18.1591
39.7201 17.9956
39.9099 17.8134
40.0999 17.5254
40.2899 17.3973
40.48 17.0879
40.6703 16.9367
40.8607 16.773
41.0512 16.4013
41.242 16.2615
41.4327 16.0944
41.6236 15.8254
41.8146 15.6719
42.0057 15.3917
42.1969 15.1801
42.3882 14.9872
42.5797 14.8229
42.7713 14.5898
42.963 14.4374
43.1549 14.2391
43.3468 14.0124
43.5389 13.7933
43.7312 13.6216
43.9237 13.4104
44.1162 13.2659
44.3088 13.0555
44.5016 12.8904
44.6945 12.7197
44.8875 12.534
45.0806 12.3598
45.2739 12.2029
45.4673 12.0237
45.6609 11.7828
45.8546 11.665
46.0484 11.5206
46.2424 11.3268
46.4365 11.1739
46.631 11.0423
46.8254 10.8698
47.0199 10.6871
47.2146 10.542
47.4095 10.3594
47.6044 10.2011
47.7996 10.0707
47.9948 9.92603
48.1902 9.77197
48.3858 9.63955
48.5815 9.47873
48.7774 9.36309
48.9734 9.25562
49.1696 9.08164
49.3661 8.95687
49.5626 8.79007
49.7592 8.69732
49.956 8.59014
50.153 8.40801
50.3501 8.29401
50.5474 8.16716
50.7448 8.04814
50.9424 7.92532
51.1402 7.80751
51.3381 7.64874
51.5362 7.55254
51.7344 7.40072
51.9328 7.30109
52.1316 7.21141
52.3304 7.08141
52.5293 6.94439
52.7284 6.82783
52.9276 6.73175
53.1271 6.62183
53.3267 6.53262
53.5265 6.38846
53.7264 6.27712
53.9266 6.16199
54.1269 6.03107
54.3274 5.94727
54.528 5.76013
54.7289 5.59226
54.9301 5.36453
55.1314 5.2581
55.3328 5.07252
55.5344 4.86024
55.7361 4.74177