File: XRD/Ni3Fe_FD0085.xy
TT I
1.27165 9.7676
1.45013 8.27628
1.62863 6.82787
1.80712 6.25616
1.98562 6.12878
2.16411 5.22911
2.34263 4.30449
2.52115 3.98997
2.69965 5.43127
2.87818 8.07002
3.05672 11.0934
3.23527 14.7022
3.4138 18.9081
3.59237 21.176
3.77094 24.6567
3.9495 28.2979
4.12809 32.5534
4.30669 37.8588
4.4853 44.4246
4.6639 53.5278
4.84253 67.0416
5.02118 98.3001
5.19981 759.522
5.37848 1065.91
5.55716 118.766
5.73586 101.144
5.91455 120.508
6.09328 1674.2
6.27201 106.5
6.45075 67.5815
6.62952 59.249
6.8083 55.0714
6.98711 52.6083
7.16591 51.354
7.34475 51.2734
7.5236 66.6597
7.70247 53.2263
7.88135 55.0246
8.06026 59.5138
8.23919 67.008
8.41812 85.5234
8.59709 636.098
8.77609 149.897
8.9551 86.0338
9.13412 81.6037
9.31318 119.672
9.49226 82.4642
9.67134 87.5733
9.85047 98.4125
10.0296 600.737
10.2088 1406.53
10.388 107.242
10.5672 203.511
10.7465 105.792
10.9257 74.7378
11.105 68.7303
11.2844 64.5687
11.4637 61.9817
11.6431 60.7997
11.8225 59.9594
12.002 80.0086
12.1814 92.4556
12.3609 89.8795
12.5405 61.5429
12.72 63.6018
12.8996 67.7341
13.0792 79.6423
13.2589 165.822
13.4386 301.331
13.6183 147.711
13.7981 220.894
13.9779 75.2538
14.1577 84.305
14.3376 67.7029
14.5175 66.7644
14.6974 68.3712
14.8774 117.078
15.0574 205.247
15.2374 68.6207
15.4175 64.5487
15.5976 64.1139
15.7778 106.337
15.958 161.913
16.1382 64.3099
16.3185 56.3
16.4988 53.6442
16.6792 52.5052
16.8596 53.0482
17.04 54.5003
17.2205 61.3056
17.401 80.1639
17.5815 57.5084
17.7622 60.7846
17.9428 84.9038
18.1237 86.8917
18.3044 89.0091
18.4852 103.344
18.666 60.1362
18.8469 56.5962
19.0278 55.3286
19.2088 60.8843
19.3898 62.4067
19.5709 58.5335
19.752 52.1641
19.9332 57.0694
20.1144 59.9234
20.2957 58.8494
20.477 62.7603
20.6586 48.6931
20.84 48.5236
21.0215 47.849
21.203 47.4062
21.3846 50.2573
21.5662 47.7243
21.7479 52.4996
21.9297 55.2262
22.1115 56.5904
22.2933 53.5373
22.4753 47.5625
22.6572 47.9283
22.8393 49.8723
23.0214 51.9308
23.2037 50.0864
23.3859 50.9405
23.5682 49.0004
23.7505 56.164
23.9329 44.6701
24.1154 43.325
24.2979 42.7059
24.4805 41.9581
24.6631 41.8949
24.8458 41.4544
25.0286 41.7686
25.2114 42.3775
25.3943 42.6591
25.5773 41.5646
25.7605 39.855
25.9436 39.8071
26.1268 39.8169
26.31 40.443
26.4933 39.5886
26.6767 39.8796
26.8601 40.6513
27.0437 38.8792
27.2272 38.0041
27.4109 37.4948
27.5946 37.4137
27.7784 37.7881
27.9623 37.2727
28.1462 37.922
28.3304 36.9776
28.5145 35.5035
28.6987 35.0034
28.8829 34.3818
29.0673 34.3168
29.2517 33.5871
29.4361 33.1361
29.6207 32.9233
29.8053 32.1897
29.99 31.8653
30.1748 31.5477
30.3597 31.5972
30.5447 31.3805
30.7297 31.1759
30.915 31.282
31.1002 30.6323
31.2855 30.2148
31.4708 29.9791
31.6563 30.0925
31.8418 29.4448
32.0275 29.2036
32.2132 28.9677
32.399 28.3115
32.5848 27.9478
32.7708 27.5863
32.9569 27.412
33.143 27.0236
33.3293 26.7744
33.5158 26.6661
33.7022 26.0118
33.8887 25.6838
34.0753 25.4138
34.262 25.1292
34.4488 24.7656
34.6357 24.4071
34.8227 24.1507
35.0098 23.9515
35.1969 23.6298
35.3842 23.3659
35.5716 23.217
35.759 23.0489
35.9468 22.6204
36.1345 22.3547
36.3222 22.206
36.5101 21.949
36.6981 21.6564
36.8861 21.3463
37.0743 21.0185
37.2626 20.8318
37.451 20.4979
37.6395 20.4157
37.8281 20.0644
38.0168 19.7701
38.2056 19.5626
38.3945 19.2825
38.5837 19.0111
38.7728 18.7663
38.9621 18.5449
39.1514 18.3528
39.3409 18.0199
39.5304 17.8698
39.7201 17.6849
39.9099 17.4685
40.0999 17.2259
40.2899 16.9838
40.48 16.7229
40.6703 16.5899
40.8607 16.3364
41.0512 16.2043
41.242 15.97
41.4327 15.7574
41.6236 15.418
41.8146 15.3285
42.0057 15.1388
42.1969 14.9289
42.3882 14.7373
42.5797 14.6095
42.7713 14.3141
42.963 14.1346
43.1549 13.9938
43.3468 13.7196
43.5389 13.5536
43.7312 13.3603
43.9237 13.1928
44.1162 12.9685
44.3088 12.7897
44.5016 12.6171
44.6945 12.4418
44.8875 12.3399
45.0806 12.1389
45.2739 11.9747
45.4673 11.8003
45.6609 11.6302
45.8546 11.4861
46.0484 11.32
46.2424 11.116
46.4365 11.0065
46.631 10.8479
46.8254 10.6339
47.0199 10.5092
47.2146 10.3356
47.4095 10.1783
47.6044 10.0314
47.7996 9.89019
47.9948 9.71874
48.1902 9.6128
48.3858 9.45284
48.5815 9.36772
48.7774 9.24401
48.9734 9.09618
49.1696 8.90955
49.3661 8.81287
49.5626 8.6607
49.7592 8.54955
49.956 8.41504
50.153 8.2719
50.3501 8.17345
50.5474 8.00819
50.7448 7.92654
50.9424 7.77522
51.1402 7.65908
51.3381 7.52522
51.5362 7.38005
51.7344 7.28401
51.9328 7.18482
52.1316 7.0378
52.3304 6.98474
52.5293 6.85125
52.7284 6.70738
52.9276 6.61845
53.1271 6.49447
53.3267 6.38897
53.5265 6.26016
53.7264 6.1655
53.9266 6.04119
54.1269 5.92864
54.3274 5.83825
54.528 5.61004
54.7289 5.41831
54.9301 5.25661
55.1314 5.12172
55.3328 4.89819
55.5344 4.72802
55.7361 4.64634