File: XRD/Ni3Fe_FD0344.xy
TT I
1.27165 7.64448
1.45013 6.4221
1.62863 5.6655
1.80712 5.42986
1.98562 5.21052
2.16411 4.81793
2.34263 4.95086
2.52115 6.01455
2.69965 7.42421
2.87818 8.44025
3.05672 11.3144
3.23527 15.0626
3.4138 19.5996
3.59237 23.7803
3.77094 26.4107
3.9495 30.476
4.12809 34.9593
4.30669 140.35
4.4853 59.2799
4.6639 57.2596
4.84253 69.4196
5.02118 92.1872
5.19981 597.187
5.37848 226.328
5.55716 106.674
5.73586 97.2212
5.91455 102.088
6.09328 4043.01
6.27201 86.1779
6.45075 69.5272
6.62952 64.0531
6.8083 59.7957
6.98711 56.9307
7.16591 56.7726
7.34475 76.7674
7.5236 55.6374
7.70247 57.7263
7.88135 59.3102
8.06026 64.4118
8.23919 71.5079
8.41812 88.7389
8.59709 1176.75
8.77609 104.8
8.9551 92.0295
9.13412 84.5045
9.31318 86.0241
9.49226 87.3483
9.67134 98.285
9.85047 104.011
10.0296 439.11
10.2088 471.697
10.388 109.866
10.5672 486.646
10.7465 90.0734
10.9257 80.2485
11.105 73.9408
11.2844 71.3486
11.4637 66.787
11.6431 65.6386
11.8225 64.3518
12.002 66.3685
12.1814 149.93
12.3609 70.7391
12.5405 66.7132
12.72 70.6331
12.8996 73.6162
13.0792 82.859
13.2589 247.311
13.4386 132.785
13.6183 244.901
13.7981 102.247
13.9779 78.4293
14.1577 74.3543
14.3376 72.8415
14.5175 71.0615
14.6974 73.1516
14.8774 119.912
15.0574 154.549
15.2374 72.4627
15.4175 68.5652
15.5976 68.3335
15.7778 103.184
15.958 163.13
16.1382 63.8628
16.3185 59.9894
16.4988 57.0696
16.6792 56.2957
16.8596 56.9
17.04 58.0166
17.2205 69.2057
17.401 73.7898
17.5815 61.118
17.7622 63.3172
17.9428 79.0268
18.1237 139.79
18.3044 91.4882
18.4852 80.0052
18.666 62.2668
18.8469 59.9528
19.0278 58.7083
19.2088 62.0513
19.3898 76.8729
19.5709 55.9945
19.752 55.1197
19.9332 58.7289
20.1144 71.1984
20.2957 64.3843
20.477 55.2267
20.6586 51.1366
20.84 50.1547
21.0215 50.1357
21.203 51.9943
21.3846 50.7225
21.5662 50.5131
21.7479 54.7974
21.9297 66.2153
22.1115 57.12
22.2933 51.422
22.4753 50.2665
22.6572 50.6067
22.8393 53.838
23.0214 58.9266
23.2037 50.2753
23.3859 51.6291
23.5682 57.644
23.7505 49.8625
23.9329 46.6149
24.1154 45.5446
24.2979 44.8055
24.4805 44.2424
24.6631 44.1952
24.8458 43.5338
25.0286 44.2169
25.2114 45.8058
25.3943 45.9445
25.5773 42.1748
25.7605 41.7343
25.9436 42.0633
26.1268 42.9802
26.31 41.4528
26.4933 41.9069
26.6767 43.3616
26.8601 41.5668
27.0437 40.0541
27.2272 39.6942
27.4109 39.4973
27.5946 39.4702
27.7784 38.9889
27.9623 39.4948
28.1462 39.9377
28.3304 38.1487
28.5145 36.9245
28.6987 36.5373
28.8829 36.328
29.0673 35.6457
29.2517 35.2725
29.4361 35.1201
29.6207 34.1228
29.8053 33.9904
29.99 33.5141
30.1748 33.4838
30.3597 33.1126
30.5447 33.0141
30.7297 33.1587
30.915 32.4996
31.1002 31.999
31.2855 31.7756
31.4708 31.7315
31.6563 31.1825
31.8418 31.0076
32.0275 30.6884
32.2132 30.2105
32.399 29.836
32.5848 29.2754
32.7708 28.9437
32.9569 28.788
33.143 28.6105
33.3293 28.1883
33.5158 27.7755
33.7022 27.3824
33.8887 27.105
34.0753 26.7062
34.262 26.3325
34.4488 26.0819
34.6357 25.6467
34.8227 25.4455
35.0098 25.1922
35.1969 24.9208
35.3842 24.6452
35.5716 24.4941
35.759 24.1293
35.9468 23.7406
36.1345 23.5543
36.3222 23.2657
36.5101 23.0675
36.6981 22.7557
36.8861 22.4672
37.0743 22.0938
37.2626 21.865
37.451 21.4966
37.6395 21.4533
37.8281 21.0604
38.0168 20.7907
38.2056 20.4771
38.3945 20.1801
38.5837 20.0133
38.7728 19.7077
38.9621 19.4104
39.1514 19.2374
39.3409 19.0156
39.5304 18.7836
39.7201 18.5723
39.9099 18.3767
40.0999 18.1264
40.2899 17.8477
40.48 17.5742
40.6703 17.4023
40.8607 17.1845
41.0512 16.976
41.242 16.7096
41.4327 16.5172
41.6236 16.2359
41.8146 16.0482
42.0057 15.8577
42.1969 15.6515
42.3882 15.433
42.5797 15.2415
42.7713 15.0289
42.963 14.7989
43.1549 14.6044
43.3468 14.3986
43.5389 14.2556
43.7312 14.0418
43.9237 13.8349
44.1162 13.654
44.3088 13.4823
44.5016 13.2917
44.6945 13.0589
44.8875 12.8634
45.0806 12.7059
45.2739 12.5197
45.4673 12.3706
45.6609 12.1193
45.8546 12.0047
46.0484 11.8317
46.2424 11.6491
46.4365 11.5267
46.631 11.3097
46.8254 11.1537
47.0199 11.013
47.2146 10.8057
47.4095 10.654
47.6044 10.4976
47.7996 10.3769
47.9948 10.2081
48.1902 10.0373
48.3858 9.91731
48.5815 9.761
48.7774 9.66071
48.9734 9.49207
49.1696 9.34573
49.3661 9.19369
49.5626 9.03672
49.7592 8.95588
49.956 8.81594
50.153 8.68848
50.3501 8.54281
50.5474 8.42448
50.7448 8.29394
50.9424 8.15752
51.1402 7.99288
51.3381 7.85017
51.5362 7.75152
51.7344 7.62312
51.9328 7.50173
52.1316 7.36743
52.3304 7.25641
52.5293 7.14216
52.7284 7.00816
52.9276 6.93872
53.1271 6.79576
53.3267 6.69867
53.5265 6.58025
53.7264 6.42816
53.9266 6.321
54.1269 6.18739
54.3274 6.08566
54.528 5.93125
54.7289 5.79013
54.9301 5.64417
55.1314 5.50558
55.3328 5.3263
55.5344 5.08167
55.7361 4.96323