File: XRD/Ni3Fe_FD1065.xy
TT I
1.27165 6.9201
1.45013 6.16385
1.62863 4.78536
1.80712 4.52378
1.98562 4.13151
2.16411 3.98855
2.34263 5.52829
2.52115 7.02957
2.69965 8.49432
2.87818 8.25609
3.05672 10.8351
3.23527 14.5612
3.4138 17.7614
3.59237 21.2374
3.77094 24.7019
3.9495 28.3197
4.12809 32.2536
4.30669 56.7678
4.4853 46.349
4.6639 52.5877
4.84253 64.2086
5.02118 83.3856
5.19981 231.071
5.37848 208.828
5.55716 97.3863
5.73586 88.5897
5.91455 89.2912
6.09328 4578.47
6.27201 76.1691
6.45075 63.6625
6.62952 57.9817
6.8083 54.6048
6.98711 52.8281
7.16591 51.7073
7.34475 55.6649
7.5236 58.8686
7.70247 53.3068
7.88135 55.0819
8.06026 59.1791
8.23919 66.1996
8.41812 78.2352
8.59709 1106.5
8.77609 95.1383
8.9551 82.5899
9.13412 79.3891
9.31318 88.7966
9.49226 81.6244
9.67134 86.8158
9.85047 94.1223
10.0296 350.67
10.2088 444.796
10.388 97.7822
10.5672 513.023
10.7465 86.614
10.9257 73.5744
11.105 68.2186
11.2844 64.7093
11.4637 62.2085
11.6431 60.8069
11.8225 60.0749
12.002 66.3117
12.1814 147.061
12.3609 64.9342
12.5405 61.4335
12.72 64.3082
12.8996 68.1108
13.0792 77.0613
13.2589 230.574
13.4386 126.837
13.6183 237.909
13.7981 100.137
13.9779 73.7544
14.1577 75.3141
14.3376 67.6194
14.5175 66.9481
14.6974 67.6741
14.8774 110.924
15.0574 159.342
15.2374 66.8247
15.4175 64.4822
15.5976 63.4904
15.7778 95.1174
15.958 169.375
16.1382 59.7166
16.3185 55.8147
16.4988 53.6393
16.6792 52.9193
16.8596 53.0925
17.04 53.9447
17.2205 64.9299
17.401 72.3519
17.5815 57.5187
17.7622 60.1796
17.9428 73.5007
18.1237 142.606
18.3044 89.1144
18.4852 78.9344
18.666 59.0563
18.8469 56.6421
19.0278 55.3733
19.2088 58.2446
19.3898 76.2032
19.5709 52.9761
19.752 51.899
19.9332 55.3046
20.1144 70.5659
20.2957 63.699
20.477 52.8693
20.6586 48.5046
20.84 48.0698
21.0215 47.2699
21.203 49.8883
21.3846 47.9555
21.5662 47.7835
21.7479 52.0896
21.9297 65.3739
22.1115 55.9458
22.2933 49.2432
22.4753 47.5641
22.6572 47.797
22.8393 51.5746
23.0214 57.4508
23.2037 47.9856
23.3859 49.506
23.5682 57.5425
23.7505 48.4435
23.9329 44.4129
24.1154 43.3614
24.2979 42.6469
24.4805 41.9527
24.6631 42.1429
24.8458 41.4104
25.0286 42.143
25.2114 44.3288
25.3943 44.459
25.5773 40.306
25.7605 39.6467
25.9436 40.222
26.1268 41.3085
26.31 39.5213
26.4933 40.1732
26.6767 41.9949
26.8601 40.1227
27.0437 38.3797
27.2272 37.9112
27.4109 37.8401
27.5946 38.0187
27.7784 37.5417
27.9623 38.1585
28.1462 38.7624
28.3304 36.8687
28.5145 35.3981
28.6987 35.1343
28.8829 34.8776
29.0673 34.1636
29.2517 33.9005
29.4361 33.7256
29.6207 32.6713
29.8053 32.2983
29.99 32.0996
30.1748 32.0456
30.3597 31.8628
30.5447 31.6638
30.7297 31.8839
30.915 31.3103
31.1002 30.7282
31.2855 30.5125
31.4708 30.4745
31.6563 30.0607
31.8418 29.8089
32.0275 29.5843
32.2132 29.0748
32.399 28.6051
32.5848 28.0977
32.7708 27.7366
32.9569 27.6683
33.143 27.4752
33.3293 27.133
33.5158 26.696
33.7022 26.2246
33.8887 26.0041
34.0753 25.6744
34.262 25.3289
34.4488 24.9433
34.6357 24.6262
34.8227 24.3915
35.0098 24.1875
35.1969 23.8618
35.3842 23.7454
35.5716 23.4936
35.759 23.2402
35.9468 22.8208
36.1345 22.6555
36.3222 22.4144
36.5101 22.2068
36.6981 21.8738
36.8861 21.5383
37.0743 21.1932
37.2626 20.9813
37.451 20.7968
37.6395 20.5262
37.8281 20.2715
38.0168 19.953
38.2056 19.6654
38.3945 19.4024
38.5837 19.2269
38.7728 19.0076
38.9621 18.7301
39.1514 18.5017
39.3409 18.2363
39.5304 18.0273
39.7201 17.845
39.9099 17.5948
40.0999 17.3484
40.2899 17.1433
40.48 16.8843
40.6703 16.7207
40.8607 16.5469
41.0512 16.3398
41.242 16.0576
41.4327 15.8479
41.6236 15.611
41.8146 15.4763
42.0057 15.2657
42.1969 15.0162
42.3882 14.8635
42.5797 14.6333
42.7713 14.4328
42.963 14.2156
43.1549 14.0504
43.3468 13.8599
43.5389 13.6977
43.7312 13.4912
43.9237 13.3164
44.1162 13.0981
44.3088 12.922
44.5016 12.7442
44.6945 12.5725
44.8875 12.3875
45.0806 12.2397
45.2739 12.04
45.4673 11.9078
45.6609 11.7215
45.8546 11.5561
46.0484 11.4107
46.2424 11.2465
46.4365 11.054
46.631 10.8606
46.8254 10.7419
47.0199 10.579
47.2146 10.4131
47.4095 10.2815
47.6044 10.0326
47.7996 9.94302
47.9948 9.82976
48.1902 9.72177
48.3858 9.54437
48.5815 9.38955
48.7774 9.27709
48.9734 9.1242
49.1696 9.00605
49.3661 8.85037
49.5626 8.68155
49.7592 8.57392
49.956 8.47304
50.153 8.31007
50.3501 8.18948
50.5474 8.0713
50.7448 7.99244
50.9424 7.81835
51.1402 7.71362
51.3381 7.59434
51.5362 7.45852
51.7344 7.2805
51.9328 7.18201
52.1316 7.05269
52.3304 6.9858
52.5293 6.87191
52.7284 6.71644
52.9276 6.61195
53.1271 6.54393
53.3267 6.40058
53.5265 6.31428
53.7264 6.17788
53.9266 6.10152
54.1269 5.9796
54.3274 5.81918
54.528 5.74272
54.7289 5.60773
54.9301 5.43787
55.1314 5.26542
55.3328 5.07793
55.5344 4.88035
55.7361 4.83869