File: XRD/Ni3Fe_FD0446.xy
TT I
1.27165 7.53413
1.45013 5.6793
1.62863 4.8708
1.80712 5.10225
1.98562 4.71223
2.16411 4.91407
2.34263 5.24567
2.52115 6.39767
2.69965 7.51662
2.87818 8.552
3.05672 10.6886
3.23527 15.0277
3.4138 19.3004
3.59237 23.7836
3.77094 26.1462
3.9495 29.8588
4.12809 34.8748
4.30669 157.935
4.4853 60.0667
4.6639 56.1894
4.84253 68.5854
5.02118 89.8128
5.19981 490.237
5.37848 203.069
5.55716 104.426
5.73586 94.8329
5.91455 98.7509
6.09328 4327.19
6.27201 84.2739
6.45075 68.5822
6.62952 63.1893
6.8083 59.0615
6.98711 56.6054
7.16591 55.961
7.34475 80.2651
7.5236 55.1005
7.70247 56.8928
7.88135 58.7894
8.06026 63.6794
8.23919 70.7094
8.41812 86.8904
8.59709 1233.71
8.77609 102.002
8.9551 91.3449
9.13412 83.499
9.31318 84.1393
9.49226 85.9626
9.67134 97.6355
9.85047 101.809
10.0296 402.595
10.2088 425.32
10.388 107.527
10.5672 500.524
10.7465 88.0803
10.9257 79.4086
11.105 72.57
11.2844 70.5569
11.4637 65.7152
11.6431 64.8038
11.8225 63.5381
12.002 65.2524
12.1814 154.219
12.3609 69.9049
12.5405 65.4372
12.72 70.4653
12.8996 72.3716
13.0792 81.2757
13.2589 246.906
13.4386 126.544
13.6183 250.107
13.7981 98.7404
13.9779 77.1727
14.1577 73.4487
14.3376 72.1513
14.5175 70.0433
14.6974 71.6495
14.8774 117.297
15.0574 150.534
15.2374 72.0635
15.4175 67.4542
15.5976 67.1232
15.7778 100.625
15.958 156.869
16.1382 63.1869
16.3185 59.2152
16.4988 56.302
16.6792 55.3789
16.8596 55.8755
17.04 57.1685
17.2205 68.2631
17.401 71.9914
17.5815 60.236
17.7622 62.5687
17.9428 76.8938
18.1237 139.289
18.3044 92.0912
18.4852 78.1955
18.666 61.2939
18.8469 58.9534
19.0278 57.875
19.2088 60.8564
19.3898 77.2112
19.5709 55.2548
19.752 54.2748
19.9332 57.7992
20.1144 70.756
20.2957 64.5291
20.477 54.5468
20.6586 50.5689
20.84 49.6067
21.0215 49.5636
21.203 51.5807
21.3846 49.9064
21.5662 49.8505
21.7479 53.8807
21.9297 65.5358
22.1115 56.7827
22.2933 50.7829
22.4753 49.5167
22.6572 50.0786
22.8393 53.1082
23.0214 58.1998
23.2037 49.6785
23.3859 50.6979
23.5682 57.2885
23.7505 49.0743
23.9329 45.9064
24.1154 44.8695
24.2979 44.1655
24.4805 43.5954
24.6631 43.6019
24.8458 43.0399
25.0286 43.5846
25.2114 45.4377
25.3943 45.3494
25.5773 41.7285
25.7605 41.253
25.9436 41.5855
26.1268 42.3052
26.31 40.8388
26.4933 41.5053
26.6767 42.9133
26.8601 41.0726
27.0437 39.6365
27.2272 39.266
27.4109 39.0855
27.5946 39.0466
27.7784 38.6735
27.9623 39.1725
28.1462 39.4474
28.3304 37.7281
28.5145 36.5817
28.6987 36.2323
28.8829 35.8717
29.0673 35.1889
29.2517 34.9348
29.4361 34.7103
29.6207 33.6772
29.8053 33.5168
29.99 33.143
30.1748 32.9181
30.3597 32.8406
30.5447 32.6602
30.7297 32.7359
30.915 32.122
31.1002 31.6159
31.2855 31.5068
31.4708 31.3042
31.6563 30.8892
31.8418 30.6005
32.0275 30.4554
32.2132 29.8581
32.399 29.3735
32.5848 28.9808
32.7708 28.6948
32.9569 28.4782
33.143 28.2344
33.3293 27.8345
33.5158 27.5528
33.7022 27.0175
33.8887 26.7582
34.0753 26.4001
34.262 26.109
34.4488 25.6985
34.6357 25.456
34.8227 25.162
35.0098 24.8093
35.1969 24.5113
35.3842 24.5044
35.5716 24.1766
35.759 23.8117
35.9468 23.5297
36.1345 23.2468
36.3222 22.9966
36.5101 22.7521
36.6981 22.5022
36.8861 22.1361
37.0743 21.8789
37.2626 21.6365
37.451 21.2406
37.6395 21.1378
37.8281 20.802
38.0168 20.5204
38.2056 20.3139
38.3945 20.0018
38.5837 19.7797
38.7728 19.5038
38.9621 19.3056
39.1514 19.0027
39.3409 18.7911
39.5304 18.515
39.7201 18.3497
39.9099 18.2106
40.0999 17.8932
40.2899 17.6108
40.48 17.4095
40.6703 17.2645
40.8607 17.0651
41.0512 16.7543
41.242 16.5155
41.4327 16.3407
41.6236 16.1455
41.8146 15.9205
42.0057 15.6322
42.1969 15.4699
42.3882 15.2999
42.5797 15.0354
42.7713 14.8408
42.963 14.6437
43.1549 14.4278
43.3468 14.2296
43.5389 14.0775
43.7312 13.7856
43.9237 13.6889
44.1162 13.463
44.3088 13.3228
44.5016 13.1019
44.6945 12.8993
44.8875 12.7323
45.0806 12.5738
45.2739 12.3818
45.4673 12.2289
45.6609 12.001
45.8546 11.8502
46.0484 11.7155
46.2424 11.5287
46.4365 11.3682
46.631 11.1828
46.8254 11.0196
47.0199 10.8897
47.2146 10.7338
47.4095 10.5808
47.6044 10.3845
47.7996 10.2781
47.9948 10.0753
48.1902 9.9569
48.3858 9.79329
48.5815 9.67647
48.7774 9.51603
48.9734 9.41401
49.1696 9.24699
49.3661 9.08453
49.5626 8.97827
49.7592 8.84061
49.956 8.73401
50.153 8.55659
50.3501 8.44303
50.5474 8.31956
50.7448 8.19514
50.9424 8.04841
51.1402 7.91515
51.3381 7.77522
51.5362 7.68806
51.7344 7.59466
51.9328 7.41409
52.1316 7.26495
52.3304 7.1992
52.5293 7.07502
52.7284 6.91976
52.9276 6.81616
53.1271 6.71069
53.3267 6.65215
53.5265 6.46718
53.7264 6.35471
53.9266 6.24109
54.1269 6.13046
54.3274 6.02523
54.528 5.85783
54.7289 5.70505
54.9301 5.57853
55.1314 5.42524
55.3328 5.18189
55.5344 5.05613
55.7361 4.88266