File: XRD/Ni3Fe_FD0350.xy
TT I
1.27165 7.38167
1.45013 6.66639
1.62863 5.07229
1.80712 4.67008
1.98562 4.85026
2.16411 4.76843
2.34263 5.1179
2.52115 5.95518
2.69965 6.97208
2.87818 8.5038
3.05672 10.9307
3.23527 14.7647
3.4138 19.1221
3.59237 23.6112
3.77094 26.5139
3.9495 30.1066
4.12809 35.2016
4.30669 131.131
4.4853 57.5874
4.6639 56.9683
4.84253 69.5234
5.02118 91.727
5.19981 603.851
5.37848 222.58
5.55716 106.632
5.73586 96.4556
5.91455 101.671
6.09328 4008.79
6.27201 86.0909
6.45075 69.3982
6.62952 63.6891
6.8083 59.7244
6.98711 56.7701
7.16591 56.5934
7.34475 74.8795
7.5236 55.3358
7.70247 57.3265
7.88135 59.3167
8.06026 63.918
8.23919 71.5449
8.41812 88.0183
8.59709 1184.34
8.77609 104.438
8.9551 91.1503
9.13412 84.754
9.31318 85.8166
9.49226 87.1299
9.67134 97.1118
9.85047 103.727
10.0296 440.281
10.2088 467.303
10.388 109.594
10.5672 485.819
10.7465 89.3574
10.9257 79.5427
11.105 73.6466
11.2844 70.746
11.4637 66.5125
11.6431 65.0892
11.8225 64.1483
12.002 66.3589
12.1814 150.107
12.3609 70.0408
12.5405 66.4513
12.72 70.356
12.8996 73.1474
13.0792 83.0396
13.2589 246.472
13.4386 132.828
13.6183 244.277
13.7981 102.051
13.9779 77.8718
14.1577 74.0611
14.3376 72.6038
14.5175 70.7411
14.6974 73.1655
14.8774 119.672
15.0574 153.785
15.2374 71.9694
15.4175 68.3389
15.5976 68.0416
15.7778 102.97
15.958 162.925
16.1382 63.2401
16.3185 59.8808
16.4988 56.9388
16.6792 55.878
16.8596 56.6611
17.04 57.7088
17.2205 69.123
17.401 73.5057
17.5815 60.9152
17.7622 63.2481
17.9428 79.2918
18.1237 139.572
18.3044 91.7132
18.4852 79.6704
18.666 62.1357
18.8469 59.759
19.0278 58.4143
19.2088 61.8361
19.3898 76.8921
19.5709 55.6932
19.752 54.8655
19.9332 58.1444
20.1144 71.3118
20.2957 64.5973
20.477 55.1876
20.6586 51.0737
20.84 50.2431
21.0215 50.0616
21.203 51.7712
21.3846 50.538
21.5662 50.534
21.7479 54.6462
21.9297 66.0794
22.1115 57.1819
22.2933 51.1956
22.4753 50.2507
22.6572 50.5201
22.8393 53.7487
23.0214 58.9658
23.2037 50.2475
23.3859 51.5628
23.5682 57.6649
23.7505 49.7111
23.9329 46.5778
24.1154 45.3588
24.2979 44.7077
24.4805 44.141
24.6631 44.0617
24.8458 43.5357
25.0286 44.2461
25.2114 45.9312
25.3943 45.9184
25.5773 42.008
25.7605 41.5672
25.9436 42.0822
26.1268 42.8572
26.31 41.3783
26.4933 42.0265
26.6767 43.3468
26.8601 41.506
27.0437 39.9663
27.2272 39.5782
27.4109 39.5438
27.5946 39.5195
27.7784 39.0169
27.9623 39.4437
28.1462 39.911
28.3304 38.2167
28.5145 36.9154
28.6987 36.5752
28.8829 36.4444
29.0673 35.677
29.2517 35.3513
29.4361 35.1272
29.6207 34.0534
29.8053 33.8127
29.99 33.5085
30.1748 33.3131
30.3597 33.2341
30.5447 33.0096
30.7297 33.1286
30.915 32.5369
31.1002 31.9916
31.2855 31.6756
31.4708 31.5676
31.6563 31.2013
31.8418 30.8545
32.0275 30.7156
32.2132 30.1507
32.399 29.738
32.5848 29.3374
32.7708 28.9614
32.9569 28.7932
33.143 28.5244
33.3293 28.1439
33.5158 27.7589
33.7022 27.3373
33.8887 27.0636
34.0753 26.6365
34.262 26.3207
34.4488 25.9576
34.6357 25.6877
34.8227 25.3464
35.0098 25.1231
35.1969 24.8173
35.3842 24.6285
35.5716 24.3679
35.759 24.1307
35.9468 23.7055
36.1345 23.5024
36.3222 23.2475
36.5101 23.0148
36.6981 22.7694
36.8861 22.4456
37.0743 22.0039
37.2626 21.8607
37.451 21.6065
37.6395 21.3662
37.8281 21.0191
38.0168 20.7605
38.2056 20.4131
38.3945 20.1497
38.5837 19.9443
38.7728 19.789
38.9621 19.4604
39.1514 19.2169
39.3409 18.9671
39.5304 18.7058
39.7201 18.5234
39.9099 18.3552
40.0999 18.0905
40.2899 17.7808
40.48 17.5665
40.6703 17.3837
40.8607 17.1914
41.0512 16.9466
41.242 16.6599
41.4327 16.5486
41.6236 16.2521
41.8146 16.0656
42.0057 15.8081
42.1969 15.6214
42.3882 15.4181
42.5797 15.2389
42.7713 15.007
42.963 14.7943
43.1549 14.6149
43.3468 14.4021
43.5389 14.2372
43.7312 13.9634
43.9237 13.8431
44.1162 13.618
44.3088 13.4501
44.5016 13.2164
44.6945 13.0583
44.8875 12.8985
45.0806 12.7242
45.2739 12.4704
45.4673 12.3501
45.6609 12.1752
45.8546 12.0079
46.0484 11.8206
46.2424 11.6034
46.4365 11.4937
46.631 11.3239
46.8254 11.1437
47.0199 10.9753
47.2146 10.8387
47.4095 10.6514
47.6044 10.4769
47.7996 10.3725
47.9948 10.2211
48.1902 10.0229
48.3858 9.88309
48.5815 9.77998
48.7774 9.65811
48.9734 9.50855
49.1696 9.33645
49.3661 9.19071
49.5626 9.05906
49.7592 8.94203
49.956 8.78129
50.153 8.64653
50.3501 8.52743
50.5474 8.39795
50.7448 8.28672
50.9424 8.16733
51.1402 7.98916
51.3381 7.86142
51.5362 7.77825
51.7344 7.63309
51.9328 7.45884
52.1316 7.3608
52.3304 7.25086
52.5293 7.1214
52.7284 7.03097
52.9276 6.89631
53.1271 6.77814
53.3267 6.62588
53.5265 6.5344
53.7264 6.40534
53.9266 6.31384
54.1269 6.237
54.3274 6.06578
54.528 5.94625
54.7289 5.7653
54.9301 5.62238
55.1314 5.51813
55.3328 5.26097
55.5344 5.13725
55.7361 4.96681