File: XRD/Ni3Fe_FD0731.xy
TT I
1.27165 7.54659
1.45013 6.25132
1.62863 5.67822
1.80712 4.92987
1.98562 4.36745
2.16411 5.7196
2.34263 5.52575
2.52115 7.12482
2.69965 8.67602
2.87818 9.17411
3.05672 11.1646
3.23527 14.8964
3.4138 18.6505
3.59237 23.5516
3.77094 26.0791
3.9495 29.7634
4.12809 34.4586
4.30669 199.276
4.4853 64.0211
4.6639 55.2172
4.84253 66.972
5.02118 86.1161
5.19981 325.423
5.37848 184.585
5.55716 101.897
5.73586 92.0115
5.91455 93.1185
6.09328 4534.9
6.27201 82.4668
6.45075 67.0387
6.62952 62.4854
6.8083 57.9269
6.98711 55.6167
7.16591 54.7445
7.34475 86.9373
7.5236 54.2373
7.70247 56.1451
7.88135 57.9629
8.06026 62.0499
8.23919 69.2444
8.41812 84.3677
8.59709 1176.0
8.77609 99.0781
8.9551 90.7572
9.13412 81.4273
9.31318 81.7959
9.49226 84.4039
9.67134 97.1577
9.85047 99.5825
10.0296 331.969
10.2088 410.631
10.388 103.874
10.5672 516.774
10.7465 86.1592
10.9257 78.1957
11.105 71.5568
11.2844 69.7621
11.4637 64.8196
11.6431 63.5158
11.8225 62.2047
12.002 63.339
12.1814 154.483
12.3609 70.2386
12.5405 64.1523
12.72 69.4322
12.8996 70.8796
13.0792 78.4961
13.2589 240.298
13.4386 127.14
13.6183 249.285
13.7981 97.5001
13.9779 75.5214
14.1577 72.0951
14.3376 71.0491
14.5175 68.7155
14.6974 70.2845
14.8774 110.155
15.0574 148.484
15.2374 70.4795
15.4175 66.2103
15.5976 65.3634
15.7778 94.3324
15.958 154.281
16.1382 62.2518
16.3185 58.3441
16.4988 55.297
16.6792 54.2253
16.8596 55.1577
17.04 55.7425
17.2205 66.7046
17.401 70.8221
17.5815 58.9368
17.7622 61.2069
17.9428 73.0366
18.1237 139.176
18.3044 90.7825
18.4852 77.0666
18.666 60.1984
18.8469 58.0089
19.0278 56.7045
19.2088 59.2358
19.3898 75.6033
19.5709 53.8616
19.752 53.0918
19.9332 56.023
20.1144 69.8262
20.2957 64.07
20.477 53.7412
20.6586 49.6047
20.84 48.8759
21.0215 48.4727
21.203 50.7119
21.3846 48.7465
21.5662 48.711
21.7479 52.4816
21.9297 64.471
22.1115 56.0323
22.2933 49.8403
22.4753 48.7831
22.6572 48.8265
22.8393 51.8081
23.0214 57.0913
23.2037 48.6242
23.3859 49.6202
23.5682 56.9021
23.7505 48.2865
23.9329 45.2366
24.1154 44.0986
24.2979 43.3585
24.4805 42.8933
24.6631 42.7428
24.8458 42.0935
25.0286 42.6438
25.2114 44.5795
25.3943 44.4737
25.5773 40.8586
25.7605 40.3047
25.9436 40.658
26.1268 41.4577
26.31 39.9637
26.4933 40.6219
26.6767 42.0202
26.8601 40.365
27.0437 38.7751
27.2272 38.4528
27.4109 38.3168
27.5946 38.2435
27.7784 37.7524
27.9623 38.3814
28.1462 38.6721
28.3304 37.0636
28.5145 35.8523
28.6987 35.6063
28.8829 35.3757
29.0673 34.5519
29.2517 34.3006
29.4361 34.0876
29.6207 33.0642
29.8053 32.7839
29.99 32.4141
30.1748 32.4162
30.3597 32.2954
30.5447 32.0421
30.7297 32.1409
30.915 31.5548
31.1002 31.084
31.2855 30.8148
31.4708 30.6916
31.6563 30.3013
31.8418 30.0361
32.0275 29.8198
32.2132 29.2627
32.399 28.8327
32.5848 28.3791
32.7708 28.2252
32.9569 27.9423
33.143 27.6696
33.3293 27.2816
33.5158 26.9095
33.7022 26.5464
33.8887 26.2305
34.0753 25.9099
34.262 25.5747
34.4488 25.2802
34.6357 24.9175
34.8227 24.5984
35.0098 24.3531
35.1969 24.1811
35.3842 23.9557
35.5716 23.7043
35.759 23.4359
35.9468 23.0879
36.1345 22.8559
36.3222 22.5893
36.5101 22.3495
36.6981 22.0418
36.8861 21.7575
37.0743 21.4506
37.2626 21.2107
37.451 20.9823
37.6395 20.7437
37.8281 20.4679
38.0168 20.1895
38.2056 19.9113
38.3945 19.6472
38.5837 19.407
38.7728 19.1867
38.9621 18.9528
39.1514 18.7054
39.3409 18.3869
39.5304 18.2214
39.7201 18.0638
39.9099 17.8138
40.0999 17.5599
40.2899 17.3616
40.48 17.0707
40.6703 16.9089
40.8607 16.6815
41.0512 16.4626
41.242 16.2278
41.4327 15.9925
41.6236 15.8298
41.8146 15.621
42.0057 15.4311
42.1969 15.1718
42.3882 15.0359
42.5797 14.7926
42.7713 14.5931
42.963 14.3862
43.1549 14.2137
43.3468 13.9877
43.5389 13.8099
43.7312 13.5757
43.9237 13.4293
44.1162 13.1809
44.3088 13.0125
44.5016 12.8981
44.6945 12.6944
44.8875 12.5319
45.0806 12.326
45.2739 12.1946
45.4673 12.0449
45.6609 11.7948
45.8546 11.7042
46.0484 11.5282
46.2424 11.321
46.4365 11.2191
46.631 11.0057
46.8254 10.8479
47.0199 10.7062
47.2146 10.5606
47.4095 10.3879
47.6044 10.2272
47.7996 10.0637
47.9948 9.91149
48.1902 9.79012
48.3858 9.63399
48.5815 9.482
48.7774 9.35318
48.9734 9.2089
49.1696 9.04124
49.3661 8.9614
49.5626 8.80563
49.7592 8.70835
49.956 8.55943
50.153 8.40535
50.3501 8.3072
50.5474 8.15793
50.7448 8.06265
50.9424 7.90169
51.1402 7.78344
51.3381 7.63676
51.5362 7.5473
51.7344 7.39559
51.9328 7.27736
52.1316 7.12331
52.3304 7.04746
52.5293 6.9205
52.7284 6.82091
52.9276 6.71829
53.1271 6.59656
53.3267 6.46718
53.5265 6.35822
53.7264 6.2334
53.9266 6.16305
54.1269 6.0176
54.3274 5.91814
54.528 5.81606
54.7289 5.61502
54.9301 5.44501
55.1314 5.32867
55.3328 5.12098
55.5344 4.92785
55.7361 4.85367