File: XRD/Ni3Fe_FD0135.xy
TT I
1.27165 8.64269
1.45013 7.20133
1.62863 5.44816
1.80712 5.14817
1.98562 5.05386
2.16411 4.5626
2.34263 4.08808
2.52115 4.19854
2.69965 4.64705
2.87818 7.9067
3.05672 10.8537
3.23527 15.1899
3.4138 18.3197
3.59237 21.6889
3.77094 24.6542
3.9495 28.285
4.12809 32.6193
4.30669 37.3452
4.4853 44.4158
4.6639 53.476
4.84253 66.0217
5.02118 90.8385
5.19981 567.971
5.37848 476.962
5.55716 107.5
5.73586 95.1293
5.91455 105.485
6.09328 2605.43
6.27201 89.6893
6.45075 66.313
6.62952 59.2705
6.8083 55.2756
6.98711 52.9043
7.16591 51.9972
7.34475 51.5315
7.5236 56.0927
7.70247 53.4562
7.88135 55.6445
8.06026 59.9991
8.23919 67.8146
8.41812 83.1364
8.59709 860.698
8.77609 117.752
8.9551 84.7707
9.13412 80.9079
9.31318 87.2839
9.49226 82.7609
9.67134 88.0819
9.85047 98.073
10.0296 551.879
10.2088 1015.94
10.388 103.818
10.5672 317.001
10.7465 90.8847
10.9257 75.1869
11.105 69.7051
11.2844 65.7732
11.4637 63.1556
11.6431 61.6969
11.8225 60.7112
12.002 65.5556
12.1814 114.743
12.3609 76.2225
12.5405 62.7411
12.72 64.5708
12.8996 68.9359
13.0792 78.8996
13.2589 199.844
13.4386 220.31
13.6183 187.223
13.7981 159.782
13.9779 75.4891
14.1577 74.1898
14.3376 68.5598
14.5175 67.8295
14.6974 69.1236
14.8774 120.396
15.0574 204.653
15.2374 68.6274
15.4175 65.7199
15.5976 65.1286
15.7778 107.184
15.958 183.289
16.1382 61.7256
16.3185 56.9868
16.4988 54.7472
16.6792 53.7426
16.8596 53.9115
17.04 54.8862
17.2205 64.5353
17.401 80.9601
17.5815 58.5542
17.7622 60.7391
17.9428 83.5736
18.1237 111.904
18.3044 87.9232
18.4852 95.5927
18.666 60.5473
18.8469 57.8796
19.0278 56.3772
19.2088 61.4894
19.3898 68.007
19.5709 56.2913
19.752 53.1494
19.9332 57.9974
20.1144 66.0338
20.2957 60.5792
20.477 59.3915
20.6586 49.4333
20.84 48.7423
21.0215 48.6561
21.203 49.2603
21.3846 50.2364
21.5662 48.6964
21.7479 53.7614
21.9297 61.143
22.1115 55.8839
22.2933 52.25
22.4753 48.6634
22.6572 48.8915
22.8393 51.704
23.0214 56.386
23.2037 49.6512
23.3859 51.4466
23.5682 52.919
23.7505 53.4626
23.9329 45.3406
24.1154 44.0507
24.2979 43.4159
24.4805 42.7405
24.6631 42.9181
24.8458 42.2042
25.0286 42.7094
25.2114 44.3747
25.3943 44.4248
25.5773 41.6924
25.7605 40.5991
25.9436 40.7607
26.1268 41.3445
26.31 40.8533
26.4933 40.6211
26.6767 41.7765
26.8601 41.0953
27.0437 39.4306
27.2272 38.764
27.4109 38.3463
27.5946 38.5283
27.7784 38.3477
27.9623 38.3543
28.1462 39.1446
28.3304 37.8825
28.5145 36.07
28.6987 35.7414
28.8829 35.3042
29.0673 35.039
29.2517 34.4616
29.4361 34.1342
29.6207 33.4297
29.8053 32.8526
29.99 32.5357
30.1748 32.4141
30.3597 32.4053
30.5447 32.2014
30.7297 32.1449
30.915 31.9083
31.1002 31.3247
31.2855 30.9349
31.4708 30.7471
31.6563 30.7727
31.8418 30.2325
32.0275 30.0855
32.2132 29.5441
32.399 29.0531
32.5848 28.5891
32.7708 28.2018
32.9569 28.0408
33.143 27.7947
33.3293 27.4949
33.5158 27.1411
33.7022 26.6636
33.8887 26.4334
34.0753 26.0865
34.262 25.6433
34.4488 25.2912
34.6357 24.9768
34.8227 24.729
35.0098 24.5296
35.1969 24.2179
35.3842 23.9767
35.5716 23.719
35.759 23.5298
35.9468 23.1876
36.1345 22.9588
36.3222 22.8308
36.5101 22.4896
36.6981 22.1589
36.8861 21.9571
37.0743 21.5234
37.2626 21.2977
37.451 21.0314
37.6395 20.9002
37.8281 20.5381
38.0168 20.2574
38.2056 19.9903
38.3945 19.7327
38.5837 19.4501
38.7728 19.2228
38.9621 19.0137
39.1514 18.7031
39.3409 18.5397
39.5304 18.2796
39.7201 18.098
39.9099 17.8604
40.0999 17.6164
40.2899 17.4005
40.48 17.1305
40.6703 16.9738
40.8607 16.7723
41.0512 16.5783
41.242 16.2595
41.4327 16.0975
41.6236 15.8511
41.8146 15.6577
42.0057 15.4931
42.1969 15.2001
42.3882 15.0572
42.5797 14.8567
42.7713 14.6025
42.963 14.4315
43.1549 14.2784
43.3468 14.0223
43.5389 13.8609
43.7312 13.605
43.9237 13.4837
44.1162 13.3113
44.3088 13.1074
44.5016 12.9258
44.6945 12.7276
44.8875 12.5622
45.0806 12.4083
45.2739 12.2469
45.4673 12.0267
45.6609 11.8751
45.8546 11.7094
46.0484 11.5832
46.2424 11.3718
46.4365 11.2317
46.631 11.05
46.8254 10.8728
47.0199 10.7234
47.2146 10.5854
47.4095 10.3812
47.6044 10.2513
47.7996 10.081
47.9948 9.94363
48.1902 9.79502
48.3858 9.66824
48.5815 9.50934
48.7774 9.41982
48.9734 9.25929
49.1696 9.07627
49.3661 8.97071
49.5626 8.84046
49.7592 8.71451
49.956 8.62154
50.153 8.45314
50.3501 8.33323
50.5474 8.20683
50.7448 8.05926
50.9424 7.94572
51.1402 7.8518
51.3381 7.6884
51.5362 7.55272
51.7344 7.44213
51.9328 7.326
52.1316 7.19928
52.3304 7.08761
52.5293 6.96752
52.7284 6.81545
52.9276 6.72418
53.1271 6.67446
53.3267 6.50325
53.5265 6.40084
53.7264 6.26998
53.9266 6.17621
54.1269 6.0404
54.3274 5.96907
54.528 5.75367
54.7289 5.58308
54.9301 5.44195
55.1314 5.2646
55.3328 5.02743
55.5344 4.88868
55.7361 4.72023