File: XRD/Ni3Fe_FD0679.xy
TT I
1.27165 7.27699
1.45013 6.17462
1.62863 5.22471
1.80712 5.09179
1.98562 4.97232
2.16411 4.67782
2.34263 5.85099
2.52115 6.48343
2.69965 8.36115
2.87818 8.92484
3.05672 11.0206
3.23527 14.9208
3.4138 18.595
3.59237 23.2395
3.77094 25.8805
3.9495 29.6393
4.12809 34.1486
4.30669 145.32
4.4853 57.5906
4.6639 55.5072
4.84253 67.8886
5.02118 88.0199
5.19981 402.514
5.37848 185.031
5.55716 102.405
5.73586 92.7771
5.91455 95.1764
6.09328 4523.86
6.27201 81.6345
6.45075 67.4988
6.62952 62.3356
6.8083 58.4704
6.98711 55.7039
7.16591 55.3062
7.34475 76.5427
7.5236 54.5833
7.70247 55.7746
7.88135 57.7432
8.06026 62.3851
8.23919 69.4693
8.41812 84.5768
8.59709 1227.54
8.77609 98.346
8.9551 89.7866
9.13412 81.9013
9.31318 83.4637
9.49226 84.4775
9.67134 95.8088
9.85047 100.352
10.0296 365.257
10.2088 365.43
10.388 104.511
10.5672 512.023
10.7465 86.1402
10.9257 77.6828
11.105 71.4895
11.2844 69.1196
11.4637 64.6454
11.6431 63.361
11.8225 62.4504
12.002 63.779
12.1814 155.59
12.3609 68.1934
12.5405 64.4983
12.72 68.61
12.8996 70.842
13.0792 79.8134
13.2589 249.201
13.4386 120.313
13.6183 255.049
13.7981 93.4479
13.9779 75.7476
14.1577 71.9624
14.3376 70.9133
14.5175 68.6201
14.6974 70.4101
14.8774 113.109
15.0574 140.277
15.2374 70.101
15.4175 66.2403
15.5976 65.9716
15.7778 96.6117
15.958 150.36
16.1382 61.8559
16.3185 58.2098
16.4988 55.3821
16.6792 54.3025
16.8596 54.9558
17.04 55.7479
17.2205 67.2965
17.401 69.7735
17.5815 59.1094
17.7622 61.4278
17.9428 74.2424
18.1237 142.739
18.3044 91.5222
18.4852 75.3903
18.666 60.3761
18.8469 57.8772
19.0278 56.8565
19.2088 59.4138
19.3898 76.3504
19.5709 53.9071
19.752 53.4349
19.9332 56.2055
20.1144 69.896
20.2957 64.0351
20.477 53.0535
20.6586 49.5895
20.84 48.7847
21.0215 48.643
21.203 50.8562
21.3846 48.7666
21.5662 49.0869
21.7479 52.8228
21.9297 64.5173
22.1115 56.0962
22.2933 49.5437
22.4753 48.8103
22.6572 48.8203
22.8393 52.001
23.0214 57.1132
23.2037 48.711
23.3859 49.8965
23.5682 57.3047
23.7505 47.9237
23.9329 45.0966
24.1154 44.1167
24.2979 43.2648
24.4805 42.7841
24.6631 42.7028
24.8458 42.1575
25.0286 42.8925
25.2114 44.6036
25.3943 44.4034
25.5773 40.7743
25.7605 40.298
25.9436 40.7145
26.1268 41.6491
26.31 39.9681
26.4933 40.8272
26.6767 42.1112
26.8601 40.4472
27.0437 38.8233
27.2272 38.498
27.4109 38.4188
27.5946 38.2917
27.7784 37.8645
27.9623 38.4516
28.1462 38.7313
28.3304 37.0714
28.5145 35.8631
28.6987 35.4823
28.8829 35.4258
29.0673 34.6801
29.2517 34.3762
29.4361 34.067
29.6207 33.2262
29.8053 32.922
29.99 32.6051
30.1748 32.3707
30.3597 32.1428
30.5447 32.1217
30.7297 32.1342
30.915 31.5833
31.1002 31.0084
31.2855 30.8328
31.4708 30.8667
31.6563 30.3527
31.8418 30.1519
32.0275 29.956
32.2132 29.4448
32.399 28.9034
32.5848 28.4228
32.7708 28.0827
32.9569 27.9608
33.143 27.8046
33.3293 27.3491
33.5158 27.0029
33.7022 26.521
33.8887 26.3149
34.0753 25.9518
34.262 25.5628
34.4488 25.2344
34.6357 24.8885
34.8227 24.6162
35.0098 24.5364
35.1969 24.1414
35.3842 24.0168
35.5716 23.7661
35.759 23.5591
35.9468 23.0701
36.1345 22.8768
36.3222 22.6038
36.5101 22.3534
36.6981 22.065
36.8861 21.8324
37.0743 21.4668
37.2626 21.2308
37.451 20.9769
37.6395 20.8004
37.8281 20.4446
38.0168 20.1387
38.2056 19.9291
38.3945 19.6214
38.5837 19.3827
38.7728 19.1435
38.9621 18.8818
39.1514 18.6651
39.3409 18.3803
39.5304 18.2126
39.7201 18.0502
39.9099 17.7711
40.0999 17.5381
40.2899 17.3559
40.48 17.0876
40.6703 16.8248
40.8607 16.7141
41.0512 16.4327
41.242 16.2227
41.4327 16.053
41.6236 15.8003
41.8146 15.5988
42.0057 15.4303
42.1969 15.1751
42.3882 15.0289
42.5797 14.7498
42.7713 14.5953
42.963 14.4134
43.1549 14.1647
43.3468 13.9612
43.5389 13.7867
43.7312 13.5851
43.9237 13.4378
44.1162 13.2645
44.3088 13.0263
44.5016 12.8431
44.6945 12.7249
44.8875 12.5091
45.0806 12.3478
45.2739 12.2
45.4673 12.0457
45.6609 11.8196
45.8546 11.6984
46.0484 11.4932
46.2424 11.3362
46.4365 11.1926
46.631 11.0019
46.8254 10.8504
47.0199 10.687
47.2146 10.5349
47.4095 10.3574
47.6044 10.2068
47.7996 10.0546
47.9948 9.8952
48.1902 9.78318
48.3858 9.62425
48.5815 9.50319
48.7774 9.37513
48.9734 9.22058
49.1696 9.11742
49.3661 8.95094
49.5626 8.79008
49.7592 8.68868
49.956 8.55504
50.153 8.4136
50.3501 8.27229
50.5474 8.17143
50.7448 8.03367
50.9424 7.9092
51.1402 7.78734
51.3381 7.69814
51.5362 7.55887
51.7344 7.43102
51.9328 7.29939
52.1316 7.19054
52.3304 7.04948
52.5293 6.92587
52.7284 6.82939
52.9276 6.66846
53.1271 6.56502
53.3267 6.47497
53.5265 6.34904
53.7264 6.25402
53.9266 6.14355
54.1269 6.04088
54.3274 5.92164
54.528 5.8466
54.7289 5.63201
54.9301 5.44471
55.1314 5.34834
55.3328 5.09336
55.5344 4.99188
55.7361 4.86268