File: XRD/Ni3Fe_FD1062.xy
TT I
1.27165 7.2753
1.45013 5.46383
1.62863 5.22072
1.80712 4.08121
1.98562 3.88595
2.16411 4.35389
2.34263 4.73003
2.52115 6.70217
2.69965 8.36559
2.87818 8.98245
3.05672 10.9741
3.23527 14.523
3.4138 17.9143
3.59237 21.243
3.77094 24.4453
3.9495 28.0191
4.12809 32.5735
4.30669 56.5435
4.4853 46.5123
4.6639 52.6565
4.84253 64.38
5.02118 83.089
5.19981 230.248
5.37848 210.328
5.55716 97.3689
5.73586 88.2709
5.91455 88.8422
6.09328 4576.39
6.27201 76.0075
6.45075 63.6071
6.62952 57.8028
6.8083 54.761
6.98711 52.5313
7.16591 51.4618
7.34475 55.8312
7.5236 58.0643
7.70247 53.1412
7.88135 54.6563
8.06026 58.8282
8.23919 65.8233
8.41812 77.6685
8.59709 1098.41
8.77609 95.12
8.9551 82.5676
9.13412 79.0532
9.31318 89.0878
9.49226 81.1546
9.67134 86.439
9.85047 94.1222
10.0296 349.316
10.2088 449.022
10.388 98.2765
10.5672 509.602
10.7465 86.5534
10.9257 73.671
11.105 68.2323
11.2844 65.0609
11.4637 62.0387
11.6431 60.5246
11.8225 59.8611
12.002 66.467
12.1814 146.79
12.3609 64.8978
12.5405 61.3656
12.72 64.0879
12.8996 67.8638
13.0792 76.7133
13.2589 229.294
13.4386 128.063
13.6183 237.535
13.7981 100.79
13.9779 73.5365
14.1577 75.0329
14.3376 67.3436
14.5175 66.6007
14.6974 67.5463
14.8774 110.387
15.0574 161.037
15.2374 66.7015
15.4175 64.2337
15.5976 63.6348
15.7778 95.0003
15.958 169.96
16.1382 60.1132
16.3185 55.8006
16.4988 53.6141
16.6792 52.6987
16.8596 52.9915
17.04 53.8027
17.2205 64.8285
17.401 72.5116
17.5815 57.3927
17.7622 59.9449
17.9428 73.5698
18.1237 142.839
18.3044 89.3645
18.4852 79.2121
18.666 59.053
18.8469 56.5881
19.0278 54.9687
19.2088 58.0605
19.3898 76.3478
19.5709 53.0776
19.752 51.7969
19.9332 55.1158
20.1144 70.7183
20.2957 63.6193
20.477 52.8329
20.6586 48.3559
20.84 47.8345
21.0215 47.5795
21.203 49.6341
21.3846 47.9415
21.5662 47.5399
21.7479 51.9856
21.9297 65.2868
22.1115 55.9817
22.2933 49.0851
22.4753 47.7067
22.6572 47.7111
22.8393 51.2752
23.0214 57.6123
23.2037 47.8714
23.3859 49.4257
23.5682 57.2855
23.7505 48.4014
23.9329 44.3838
24.1154 43.2313
24.2979 42.6128
24.4805 42.0739
24.6631 42.0486
24.8458 41.4026
25.0286 42.1219
25.2114 44.3178
25.3943 44.3788
25.5773 40.1157
25.7605 39.7137
25.9436 40.214
26.1268 41.4269
26.31 39.4781
26.4933 40.1044
26.6767 42.1619
26.8601 40.1267
27.0437 38.3058
27.2272 37.9784
27.4109 37.7408
27.5946 38.026
27.7784 37.3364
27.9623 38.0511
28.1462 38.7784
28.3304 36.8202
28.5145 35.4843
28.6987 35.1482
28.8829 34.8827
29.0673 34.1989
29.2517 33.7235
29.4361 33.7484
29.6207 32.571
29.8053 32.3401
29.99 32.1151
30.1748 31.9828
30.3597 31.782
30.5447 31.7631
30.7297 32.029
30.915 31.2679
31.1002 30.7556
31.2855 30.452
31.4708 30.5513
31.6563 30.001
31.8418 29.8967
32.0275 29.6281
32.2132 28.9496
32.399 28.429
32.5848 28.0862
32.7708 27.7277
32.9569 27.7334
33.143 27.4443
33.3293 27.0819
33.5158 26.714
33.7022 26.2131
33.8887 26.0546
34.0753 25.6524
34.262 25.3148
34.4488 24.9896
34.6357 24.6268
34.8227 24.3392
35.0098 24.1074
35.1969 23.8511
35.3842 23.6323
35.5716 23.5642
35.759 23.2167
35.9468 22.821
36.1345 22.5793
36.3222 22.4803
36.5101 22.2411
36.6981 21.8293
36.8861 21.4434
37.0743 21.2304
37.2626 21.0128
37.451 20.7008
37.6395 20.5328
37.8281 20.2
38.0168 19.9822
38.2056 19.6779
38.3945 19.3907
38.5837 19.1232
38.7728 18.9929
38.9621 18.6844
39.1514 18.3741
39.3409 18.2141
39.5304 17.9917
39.7201 17.8556
39.9099 17.6549
40.0999 17.3852
40.2899 17.1663
40.48 16.914
40.6703 16.7274
40.8607 16.5236
41.0512 16.2768
41.242 16.0458
41.4327 15.8412
41.6236 15.6319
41.8146 15.4289
42.0057 15.2497
42.1969 15.0365
42.3882 14.8641
42.5797 14.5413
42.7713 14.4507
42.963 14.2592
43.1549 14.0661
43.3468 13.8207
43.5389 13.6501
43.7312 13.456
43.9237 13.3012
44.1162 13.0811
44.3088 12.9039
44.5016 12.7272
44.6945 12.5829
44.8875 12.3728
45.0806 12.2101
45.2739 12.0374
45.4673 11.926
45.6609 11.6761
45.8546 11.5277
46.0484 11.3718
46.2424 11.1921
46.4365 11.0463
46.631 10.8628
46.8254 10.716
47.0199 10.5983
47.2146 10.4261
47.4095 10.2156
47.6044 10.0422
47.7996 9.93714
47.9948 9.8478
48.1902 9.6876
48.3858 9.50037
48.5815 9.38481
48.7774 9.25236
48.9734 9.11268
49.1696 9.01299
49.3661 8.84472
49.5626 8.71634
49.7592 8.59759
49.956 8.46998
50.153 8.32438
50.3501 8.16484
50.5474 8.07957
50.7448 7.91762
50.9424 7.78794
51.1402 7.70886
51.3381 7.60607
51.5362 7.46204
51.7344 7.35678
51.9328 7.19507
52.1316 7.08092
52.3304 6.97216
52.5293 6.86024
52.7284 6.7523
52.9276 6.6282
53.1271 6.55032
53.3267 6.42818
53.5265 6.28337
53.7264 6.1997
53.9266 6.07704
54.1269 5.95897
54.3274 5.87594
54.528 5.7208
54.7289 5.60576
54.9301 5.38858
55.1314 5.28961
55.3328 5.13306
55.5344 4.88226
55.7361 4.74304