File: XRD/Ni3Fe_FD1082.xy
TT I
1.27165 6.71213
1.45013 5.88143
1.62863 4.30193
1.80712 4.18565
1.98562 4.21983
2.16411 4.4983
2.34263 5.00407
2.52115 7.31406
2.69965 8.74924
2.87818 9.36771
3.05672 11.3106
3.23527 14.6377
3.4138 17.9695
3.59237 21.0304
3.77094 24.5895
3.9495 28.0331
4.12809 32.572
4.30669 56.3166
4.4853 46.0801
4.6639 53.233
4.84253 64.2414
5.02118 83.0834
5.19981 233.3
5.37848 203.512
5.55716 97.5735
5.73586 87.8063
5.91455 89.1753
6.09328 4462.31
6.27201 76.0058
6.45075 63.6926
6.62952 58.1889
6.8083 54.6083
6.98711 52.8524
7.16591 51.971
7.34475 55.7766
7.5236 58.2159
7.70247 53.2461
7.88135 55.1563
8.06026 59.1544
8.23919 65.7165
8.41812 78.0088
8.59709 1121.38
8.77609 95.0808
8.9551 82.5419
9.13412 79.3477
9.31318 88.0437
9.49226 81.2721
9.67134 86.7122
9.85047 94.3279
10.0296 354.931
10.2088 438.997
10.388 98.0033
10.5672 515.385
10.7465 86.1933
10.9257 73.7399
11.105 68.1238
11.2844 65.0727
11.4637 62.175
11.6431 60.5578
11.8225 59.468
12.002 65.8586
12.1814 147.261
12.3609 64.734
12.5405 61.4059
12.72 64.2471
12.8996 67.9582
13.0792 76.5745
13.2589 232.024
13.4386 124.783
13.6183 238.045
13.7981 99.7356
13.9779 73.3764
14.1577 74.5522
14.3376 67.4265
14.5175 66.6261
14.6974 67.7816
14.8774 110.927
15.0574 157.869
15.2374 66.5604
15.4175 64.1564
15.5976 63.674
15.7778 95.6787
15.958 168.492
16.1382 59.9864
16.3185 55.7731
16.4988 53.5366
16.6792 52.7476
16.8596 53.0241
17.04 53.8416
17.2205 65.0246
17.401 71.9334
17.5815 57.3644
17.7622 60.1324
17.9428 73.8745
18.1237 142.654
18.3044 89.048
18.4852 78.6181
18.666 58.8436
18.8469 56.4677
19.0278 55.1181
19.2088 58.1452
19.3898 75.746
19.5709 53.0899
19.752 51.819
19.9332 55.4184
20.1144 70.4997
20.2957 63.655
20.477 52.8303
20.6586 48.5403
20.84 47.9105
21.0215 47.3904
21.203 49.5252
21.3846 48.0716
21.5662 47.4924
21.7479 51.9249
21.9297 65.3623
22.1115 56.0594
22.2933 49.0953
22.4753 47.5975
22.6572 47.729
22.8393 51.3745
23.0214 57.4612
23.2037 47.9502
23.3859 49.4173
23.5682 57.1279
23.7505 48.0952
23.9329 44.3998
24.1154 43.1804
24.2979 42.4849
24.4805 41.9429
24.6631 42.0383
24.8458 41.376
25.0286 42.042
25.2114 44.2269
25.3943 44.4199
25.5773 40.2924
25.7605 39.5872
25.9436 40.0688
26.1268 41.4737
26.31 39.3983
26.4933 40.1245
26.6767 42.0259
26.8601 40.1879
27.0437 38.3248
27.2272 38.078
27.4109 37.8916
27.5946 37.8879
27.7784 37.4851
27.9623 38.0867
28.1462 38.697
28.3304 36.8886
28.5145 35.45
28.6987 35.1546
28.8829 34.9137
29.0673 34.165
29.2517 33.9143
29.4361 33.7562
29.6207 32.6351
29.8053 32.3285
29.99 32.204
30.1748 32.0452
30.3597 31.7903
30.5447 31.7193
30.7297 31.8389
30.915 31.3277
31.1002 30.7291
31.2855 30.4904
31.4708 30.4949
31.6563 30.1741
31.8418 29.802
32.0275 29.6389
32.2132 29.0956
32.399 28.588
32.5848 28.031
32.7708 27.7569
32.9569 27.5653
33.143 27.578
33.3293 27.0857
33.5158 26.6117
33.7022 26.2226
33.8887 26.0092
34.0753 25.6062
34.262 25.2242
34.4488 24.9573
34.6357 24.6097
34.8227 24.3056
35.0098 24.0922
35.1969 23.9025
35.3842 23.6735
35.5716 23.488
35.759 23.103
35.9468 22.8214
36.1345 22.5738
36.3222 22.4125
36.5101 22.1533
36.6981 21.8726
36.8861 21.5442
37.0743 21.2581
37.2626 20.9566
37.451 20.6447
37.6395 20.5387
37.8281 20.1889
38.0168 19.9399
38.2056 19.6937
38.3945 19.4021
38.5837 19.1821
38.7728 18.9747
38.9621 18.6602
39.1514 18.4277
39.3409 18.23
39.5304 17.989
39.7201 17.7864
39.9099 17.6267
40.0999 17.3641
40.2899 17.1568
40.48 16.9021
40.6703 16.69
40.8607 16.4973
41.0512 16.3017
41.242 16.0199
41.4327 15.848
41.6236 15.6008
41.8146 15.4688
42.0057 15.2496
42.1969 15.0215
42.3882 14.831
42.5797 14.6297
42.7713 14.428
42.963 14.2023
43.1549 14.0216
43.3468 13.8436
43.5389 13.6612
43.7312 13.4478
43.9237 13.3049
44.1162 13.0555
44.3088 12.9295
44.5016 12.6966
44.6945 12.5427
44.8875 12.3723
45.0806 12.2399
45.2739 12.0552
45.4673 11.8853
45.6609 11.7165
45.8546 11.5231
46.0484 11.3469
46.2424 11.2355
46.4365 11.0086
46.631 10.8747
46.8254 10.6921
47.0199 10.55
47.2146 10.3692
47.4095 10.2361
47.6044 10.0832
47.7996 9.93334
47.9948 9.79913
48.1902 9.69233
48.3858 9.5617
48.5815 9.43824
48.7774 9.27894
48.9734 9.18301
49.1696 8.99147
49.3661 8.81408
49.5626 8.68506
49.7592 8.58472
49.956 8.45218
50.153 8.30917
50.3501 8.18489
50.5474 8.07928
50.7448 7.95297
50.9424 7.82705
51.1402 7.69036
51.3381 7.56681
51.5362 7.4326
51.7344 7.31053
51.9328 7.20033
52.1316 7.09011
52.3304 6.92747
52.5293 6.85627
52.7284 6.79262
52.9276 6.59844
53.1271 6.52985
53.3267 6.4155
53.5265 6.29535
53.7264 6.1985
53.9266 6.06548
54.1269 5.94054
54.3274 5.85411
54.528 5.72816
54.7289 5.5803
54.9301 5.42715
55.1314 5.29221
55.3328 5.07475
55.5344 4.90478
55.7361 4.80457