File: XRD/Ni3Fe_FD0871.xy
TT I
1.27165 7.37577
1.45013 5.96935
1.62863 4.70249
1.80712 4.72241
1.98562 4.76932
2.16411 5.08728
2.34263 5.84323
2.52115 7.60857
2.69965 8.68633
2.87818 8.92505
3.05672 11.3952
3.23527 15.191
3.4138 19.1265
3.59237 24.2054
3.77094 26.297
3.9495 29.6514
4.12809 34.8819
4.30669 244.204
4.4853 67.6106
4.6639 54.8024
4.84253 66.1354
5.02118 84.7497
5.19981 290.0
5.37848 179.23
5.55716 100.3
5.73586 89.9875
5.91455 90.7442
6.09328 4354.43
6.27201 81.6588
6.45075 66.312
6.62952 62.0821
6.8083 58.3808
6.98711 55.5982
7.16591 54.9266
7.34475 97.0397
7.5236 54.3342
7.70247 55.4905
7.88135 57.2768
8.06026 61.2466
8.23919 68.5903
8.41812 83.6071
8.59709 1113.98
8.77609 97.741
8.9551 91.1958
9.13412 80.4752
9.31318 81.1479
9.49226 83.3865
9.67134 98.3136
9.85047 97.8787
10.0296 296.14
10.2088 405.485
10.388 102.968
10.5672 528.456
10.7465 85.4427
10.9257 77.7698
11.105 70.7865
11.2844 70.0433
11.4637 63.9842
11.6431 62.7311
11.8225 61.6722
12.002 62.1671
12.1814 149.864
12.3609 70.447
12.5405 63.7368
12.72 69.574
12.8996 69.8185
13.0792 77.0429
13.2589 226.225
13.4386 123.699
13.6183 241.011
13.7981 96.1185
13.9779 74.6745
14.1577 71.3946
14.3376 70.6485
14.5175 67.7381
14.6974 68.9873
14.8774 104.659
15.0574 146.056
15.2374 70.3502
15.4175 65.1402
15.5976 64.7008
15.7778 89.843
15.958 157.273
16.1382 62.2569
16.3185 58.0856
16.4988 54.6046
16.6792 53.6817
16.8596 54.4789
17.04 54.6973
17.2205 64.9079
17.401 69.6564
17.5815 58.2935
17.7622 60.1977
17.9428 70.6133
18.1237 138.967
18.3044 88.8062
18.4852 76.5322
18.666 59.54
18.8469 57.0548
19.0278 55.9668
19.2088 58.3098
19.3898 76.4478
19.5709 53.4919
19.752 52.4966
19.9332 55.0477
20.1144 69.1615
20.2957 63.2155
20.477 53.213
20.6586 48.9472
20.84 47.9751
21.0215 47.825
21.203 50.1123
21.3846 48.2021
21.5662 47.9314
21.7479 51.5418
21.9297 63.9027
22.1115 55.2738
22.2933 49.2261
22.4753 48.2416
22.6572 47.9592
22.8393 50.9241
23.0214 56.631
23.2037 48.0559
23.3859 48.8064
23.5682 56.3781
23.7505 47.6412
23.9329 44.5873
24.1154 43.5573
24.2979 42.9003
24.4805 42.2424
24.6631 42.1798
24.8458 41.5501
25.0286 42.385
25.2114 44.0632
25.3943 43.9422
25.5773 40.4147
25.7605 39.838
25.9436 40.2963
26.1268 41.2381
26.31 39.3361
26.4933 40.1916
26.6767 41.4723
26.8601 39.8825
27.0437 38.3491
27.2272 37.8986
27.4109 37.8458
27.5946 37.8175
27.7784 37.4031
27.9623 37.8744
28.1462 38.3054
28.3304 36.5495
28.5145 35.463
28.6987 35.1193
28.8829 35.0147
29.0673 34.3489
29.2517 33.8375
29.4361 33.7092
29.6207 32.7953
29.8053 32.5457
29.99 32.1505
30.1748 32.0724
30.3597 31.8498
30.5447 31.809
30.7297 31.7054
30.915 31.1473
31.1002 30.5949
31.2855 30.473
31.4708 30.4438
31.6563 29.8962
31.8418 29.6903
32.0275 29.5111
32.2132 28.9222
32.399 28.531
32.5848 28.1372
32.7708 27.7986
32.9569 27.5864
33.143 27.3784
33.3293 27.0355
33.5158 26.7087
33.7022 26.2664
33.8887 25.9417
34.0753 25.6653
34.262 25.316
34.4488 24.9192
34.6357 24.6487
34.8227 24.3331
35.0098 24.0879
35.1969 23.8958
35.3842 23.7366
35.5716 23.4455
35.759 23.1918
35.9468 22.8608
36.1345 22.6793
36.3222 22.3083
36.5101 22.2071
36.6981 21.7363
36.8861 21.5669
37.0743 21.2582
37.2626 20.934
37.451 20.778
37.6395 20.5576
37.8281 20.188
38.0168 19.8801
38.2056 19.6933
38.3945 19.4079
38.5837 19.2009
38.7728 18.9996
38.9621 18.725
39.1514 18.5109
39.3409 18.2207
39.5304 18.0331
39.7201 17.8212
39.9099 17.6209
40.0999 17.3954
40.2899 17.1093
40.48 16.8967
40.6703 16.6844
40.8607 16.531
41.0512 16.3215
41.242 16.0783
41.4327 15.8499
41.6236 15.5953
41.8146 15.433
42.0057 15.2642
42.1969 15.0308
42.3882 14.8167
42.5797 14.6144
42.7713 14.4271
42.963 14.2347
43.1549 14.0579
43.3468 13.8442
43.5389 13.6441
43.7312 13.4773
43.9237 13.275
44.1162 13.1288
44.3088 12.8845
44.5016 12.7733
44.6945 12.5576
44.8875 12.3755
45.0806 12.1892
45.2739 12.0732
45.4673 11.919
45.6609 11.7107
45.8546 11.5813
46.0484 11.389
46.2424 11.2272
46.4365 11.0552
46.631 10.8895
46.8254 10.7368
47.0199 10.5656
47.2146 10.4762
47.4095 10.23
47.6044 10.084
47.7996 9.94889
47.9948 9.79948
48.1902 9.66221
48.3858 9.50546
48.5815 9.4387
48.7774 9.26486
48.9734 9.14566
49.1696 8.96665
49.3661 8.85067
49.5626 8.71223
49.7592 8.58427
49.956 8.4734
50.153 8.32041
50.3501 8.1812
50.5474 8.08767
50.7448 7.95109
50.9424 7.84795
51.1402 7.6865
51.3381 7.57004
51.5362 7.50354
51.7344 7.32941
51.9328 7.19454
52.1316 7.10195
52.3304 6.9908
52.5293 6.88245
52.7284 6.76832
52.9276 6.604
53.1271 6.57716
53.3267 6.42903
53.5265 6.28609
53.7264 6.16219
53.9266 6.06518
54.1269 5.99198
54.3274 5.88115
54.528 5.74638
54.7289 5.60647
54.9301 5.39657
55.1314 5.27723
55.3328 5.10882
55.5344 4.94692
55.7361 4.75734