File: XRD/Ni3Fe_FD0202.xy
TT I
1.27165 8.41769
1.45013 6.67253
1.62863 6.10429
1.80712 5.42948
1.98562 5.14187
2.16411 4.91211
2.34263 4.20366
2.52115 4.526
2.69965 5.47962
2.87818 7.4747
3.05672 10.9082
3.23527 15.4078
3.4138 19.3063
3.59237 22.7238
3.77094 25.9522
3.9495 30.17
4.12809 35.4588
4.30669 40.7921
4.4853 48.6987
4.6639 57.6519
4.84253 71.9017
5.02118 97.4194
5.19981 889.416
5.37848 302.211
5.55716 113.842
5.73586 102.06
5.91455 112.127
6.09328 3483.27
6.27201 90.666
6.45075 71.0965
6.62952 64.1944
6.8083 59.7035
6.98711 57.4985
7.16591 56.6067
7.34475 56.1634
7.5236 58.072
7.70247 58.295
7.88135 60.7312
8.06026 65.3744
8.23919 73.5355
8.41812 91.6289
8.59709 1027.48
8.77609 112.927
8.9551 90.7263
9.13412 87.7252
9.31318 89.2799
9.49226 90.2294
9.67134 96.0271
9.85047 107.056
10.0296 531.817
10.2088 632.881
10.388 114.522
10.5672 427.904
10.7465 93.4427
10.9257 80.9614
11.105 75.5203
11.2844 71.1958
11.4637 68.1459
11.6431 66.3675
11.8225 65.5386
12.002 69.2429
12.1814 136.421
12.3609 70.9023
12.5405 67.781
12.72 69.9872
12.8996 74.7817
13.0792 86.3681
13.2589 224.476
13.4386 157.223
13.6183 220.018
13.7981 115.725
13.9779 80.7636
14.1577 76.5097
14.3376 73.5523
14.5175 73.1824
14.6974 74.9847
14.8774 119.012
15.0574 178.022
15.2374 72.7875
15.4175 70.3658
15.5976 70.0195
15.7778 103.771
15.958 179.725
16.1382 64.4981
16.3185 60.5199
16.4988 58.2811
16.6792 57.3578
16.8596 57.5916
17.04 59.3958
17.2205 68.7767
17.401 78.1042
17.5815 62.7736
17.7622 64.9571
17.9428 83.6241
18.1237 136.145
18.3044 90.0712
18.4852 85.6113
18.666 63.5481
18.8469 61.2345
19.0278 59.653
19.2088 63.169
19.3898 75.7504
19.5709 57.5242
19.752 56.1034
19.9332 59.786
20.1144 72.2829
20.2957 64.1555
20.477 57.5487
20.6586 52.325
20.84 51.4171
21.0215 51.4553
21.203 52.6713
21.3846 52.042
21.5662 51.9243
21.7479 55.5148
21.9297 66.2712
22.1115 57.5693
22.2933 52.9165
22.4753 51.1756
22.6572 52.1074
22.8393 54.1825
23.0214 59.8591
23.2037 51.5194
23.3859 52.7721
23.5682 57.1712
23.7505 51.8258
23.9329 47.6383
24.1154 46.3664
24.2979 45.6958
24.4805 45.1485
24.6631 45.0527
24.8458 44.5521
25.0286 45.1017
25.2114 46.6347
25.3943 46.7751
25.5773 42.9915
25.7605 42.6754
25.9436 42.705
26.1268 43.5546
26.31 42.382
26.4933 42.7455
26.6767 43.9955
26.8601 42.3752
27.0437 40.8299
27.2272 40.5186
27.4109 40.1462
27.5946 40.3847
27.7784 39.8757
27.9623 40.0476
28.1462 40.5951
28.3304 39.1495
28.5145 37.7259
28.6987 37.3149
28.8829 37.0801
29.0673 36.4648
29.2517 35.9745
29.4361 35.7951
29.6207 34.8545
29.8053 34.5143
29.99 34.1982
30.1748 34.0142
30.3597 33.9278
30.5447 33.6812
30.7297 33.7221
30.915 33.2573
31.1002 32.6139
31.2855 32.3473
31.4708 32.3491
31.6563 31.8625
31.8418 31.5581
32.0275 31.3764
32.2132 30.8829
32.399 30.3173
32.5848 29.8156
32.7708 29.5392
32.9569 29.2945
33.143 29.0951
33.3293 28.6945
33.5158 28.3865
33.7022 27.9251
33.8887 27.5968
34.0753 27.2376
34.262 26.8532
34.4488 26.4963
34.6357 26.2823
34.8227 25.9277
35.0098 25.6982
35.1969 25.4296
35.3842 25.1465
35.5716 24.9598
35.759 24.5802
35.9468 24.1455
36.1345 23.9277
36.3222 23.7676
36.5101 23.5333
36.6981 23.2293
36.8861 22.8805
37.0743 22.5472
37.2626 22.2606
37.451 22.0147
37.6395 21.8033
37.8281 21.5104
38.0168 21.1536
38.2056 20.9012
38.3945 20.6035
38.5837 20.4182
38.7728 20.1089
38.9621 19.9334
39.1514 19.6052
39.3409 19.363
39.5304 19.0983
39.7201 18.9319
39.9099 18.6756
40.0999 18.4221
40.2899 18.2675
40.48 17.9425
40.6703 17.7084
40.8607 17.5726
41.0512 17.2999
41.242 17.0102
41.4327 16.794
41.6236 16.6085
41.8146 16.3853
42.0057 16.1344
42.1969 15.9246
42.3882 15.7438
42.5797 15.5363
42.7713 15.3209
42.963 15.1292
43.1549 14.8948
43.3468 14.6709
43.5389 14.5188
43.7312 14.2806
43.9237 14.0591
44.1162 13.8976
44.3088 13.6856
44.5016 13.5146
44.6945 13.3192
44.8875 13.1353
45.0806 12.9597
45.2739 12.8143
45.4673 12.5959
45.6609 12.4333
45.8546 12.2861
46.0484 12.0576
46.2424 11.8952
46.4365 11.722
46.631 11.5606
46.8254 11.2989
47.0199 11.1853
47.2146 11.0331
47.4095 10.8664
47.6044 10.6897
47.7996 10.5655
47.9948 10.3826
48.1902 10.2241
48.3858 10.1003
48.5815 9.9509
48.7774 9.8254
48.9734 9.67776
49.1696 9.52553
49.3661 9.38441
49.5626 9.21673
49.7592 9.09264
49.956 8.96456
50.153 8.84142
50.3501 8.68975
50.5474 8.55368
50.7448 8.4634
50.9424 8.30849
51.1402 8.17829
51.3381 7.99046
51.5362 7.89556
51.7344 7.80649
51.9328 7.60778
52.1316 7.52983
52.3304 7.35593
52.5293 7.22975
52.7284 7.1755
52.9276 7.01006
53.1271 6.93063
53.3267 6.78308
53.5265 6.61311
53.7264 6.56323
53.9266 6.45513
54.1269 6.33002
54.3274 6.16797
54.528 6.02195
54.7289 5.78671
54.9301 5.68764
55.1314 5.51902
55.3328 5.32886
55.5344 5.15922
55.7361 5.02091