File: XRD/Ni3Fe_FD0563.xy
TT I
1.27165 7.03501
1.45013 6.45471
1.62863 5.4841
1.80712 4.66841
1.98562 4.54887
2.16411 4.8647
2.34263 5.427
2.52115 6.72042
2.69965 8.59282
2.87818 8.58447
3.05672 11.1086
3.23527 15.1468
3.4138 18.8262
3.59237 23.4978
3.77094 25.8656
3.9495 29.6493
4.12809 34.8611
4.30669 148.553
4.4853 58.6635
4.6639 55.8025
4.84253 68.2912
5.02118 88.5747
5.19981 435.804
5.37848 196.985
5.55716 103.005
5.73586 93.4657
5.91455 96.6597
6.09328 4459.48
6.27201 82.5316
6.45075 67.9832
6.62952 62.822
6.8083 58.7753
6.98711 56.1832
7.16591 55.3094
7.34475 77.9428
7.5236 55.1498
7.70247 56.3866
7.88135 58.0909
8.06026 62.7257
8.23919 70.3238
8.41812 85.7433
8.59709 1229.04
8.77609 100.386
8.9551 90.2119
9.13412 82.6701
9.31318 83.5605
9.49226 85.0762
9.67134 96.8589
9.85047 101.01
10.0296 379.214
10.2088 402.369
10.388 106.095
10.5672 520.191
10.7465 87.0188
10.9257 78.5236
11.105 72.1362
11.2844 70.0419
11.4637 65.2706
11.6431 64.0822
11.8225 62.8259
12.002 64.5574
12.1814 154.937
12.3609 68.745
12.5405 64.8256
12.72 69.3672
12.8996 71.7935
13.0792 80.3017
13.2589 249.371
13.4386 123.454
13.6183 254.399
13.7981 96.4649
13.9779 76.4436
14.1577 72.64
14.3376 71.4834
14.5175 69.3773
14.6974 71.1687
14.8774 115.681
15.0574 144.157
15.2374 70.297
15.4175 66.8565
15.5976 66.4401
15.7778 98.6118
15.958 152.804
16.1382 62.1761
16.3185 58.6771
16.4988 55.7086
16.6792 54.9513
16.8596 55.6366
17.04 56.448
17.2205 67.7779
17.401 71.4857
17.5815 59.9141
17.7622 61.7827
17.9428 75.4588
18.1237 142.034
18.3044 91.6712
18.4852 76.7157
18.666 60.5765
18.8469 58.4789
19.0278 57.2801
19.2088 60.0494
19.3898 76.2595
19.5709 54.2622
19.752 53.8076
19.9332 56.9686
20.1144 70.422
20.2957 64.1329
20.477 53.6805
20.6586 50.132
20.84 49.1409
21.0215 49.1637
21.203 51.2919
21.3846 49.1044
21.5662 49.3445
21.7479 53.3652
21.9297 65.1467
22.1115 56.4166
22.2933 50.0347
22.4753 49.0053
22.6572 49.321
22.8393 52.7305
23.0214 57.6461
23.2037 49.183
23.3859 50.2094
23.5682 57.386
23.7505 48.3868
23.9329 45.4861
24.1154 44.2728
24.2979 43.5447
24.4805 43.2465
24.6631 43.0047
24.8458 42.4809
25.0286 43.1641
25.2114 44.9842
25.3943 44.9353
25.5773 41.2381
25.7605 40.7737
25.9436 41.198
26.1268 42.0157
26.31 40.4012
26.4933 41.1841
26.6767 42.4651
26.8601 40.6321
27.0437 39.1175
27.2272 38.8325
27.4109 38.8259
27.5946 38.6994
27.7784 38.1768
27.9623 38.7933
28.1462 38.9849
28.3304 37.3908
28.5145 36.1899
28.6987 35.9145
28.8829 35.5978
29.0673 34.8685
29.2517 34.6388
29.4361 34.4341
29.6207 33.3101
29.8053 33.0522
29.99 32.7363
30.1748 32.6733
30.3597 32.4511
30.5447 32.4234
30.7297 32.3991
30.915 31.8906
31.1002 31.2935
31.2855 31.0814
31.4708 30.9765
31.6563 30.6808
31.8418 30.4116
32.0275 30.0516
32.2132 29.5482
32.399 29.1414
32.5848 28.7159
32.7708 28.4176
32.9569 28.3015
33.143 27.9913
33.3293 27.5336
33.5158 27.1838
33.7022 26.8353
33.8887 26.4648
34.0753 26.1373
34.262 25.7429
34.4488 25.4441
34.6357 25.1656
34.8227 24.8778
35.0098 24.7109
35.1969 24.3982
35.3842 24.1589
35.5716 24.0014
35.759 23.6117
35.9468 23.2847
36.1345 23.0547
36.3222 22.7901
36.5101 22.577
36.6981 22.2703
36.8861 21.9449
37.0743 21.6626
37.2626 21.4256
37.451 21.1311
37.6395 20.9531
37.8281 20.6624
38.0168 20.3393
38.2056 20.0546
38.3945 19.8202
38.5837 19.6062
38.7728 19.3328
38.9621 19.0715
39.1514 18.7885
39.3409 18.5677
39.5304 18.3786
39.7201 18.1999
39.9099 17.8976
40.0999 17.6659
40.2899 17.4827
40.48 17.2328
40.6703 17.0501
40.8607 16.8857
41.0512 16.6204
41.242 16.3266
41.4327 16.1521
41.6236 15.9356
41.8146 15.7587
42.0057 15.4747
42.1969 15.2846
42.3882 15.1244
42.5797 14.9252
42.7713 14.7485
42.963 14.5051
43.1549 14.3202
43.3468 14.0822
43.5389 13.8729
43.7312 13.7029
43.9237 13.523
44.1162 13.3787
44.3088 13.1429
44.5016 12.9347
44.6945 12.788
44.8875 12.6103
45.0806 12.4756
45.2739 12.2989
45.4673 12.114
45.6609 11.929
45.8546 11.7833
46.0484 11.5807
46.2424 11.4305
46.4365 11.2902
46.631 11.1121
46.8254 10.9071
47.0199 10.7535
47.2146 10.6062
47.4095 10.4438
47.6044 10.3016
47.7996 10.1355
47.9948 9.97854
48.1902 9.85735
48.3858 9.72571
48.5815 9.56731
48.7774 9.41624
48.9734 9.29115
49.1696 9.15359
49.3661 8.96938
49.5626 8.86066
49.7592 8.74818
49.956 8.60188
50.153 8.51686
50.3501 8.36112
50.5474 8.22707
50.7448 8.09171
50.9424 7.98932
51.1402 7.83881
51.3381 7.66927
51.5362 7.59748
51.7344 7.4714
51.9328 7.34445
52.1316 7.20656
52.3304 7.1061
52.5293 6.97296
52.7284 6.87186
52.9276 6.75343
53.1271 6.67044
53.3267 6.52485
53.5265 6.41954
53.7264 6.31461
53.9266 6.16479
54.1269 6.07596
54.3274 5.94566
54.528 5.83172
54.7289 5.63571
54.9301 5.50625
55.1314 5.3924
55.3328 5.17585
55.5344 4.9866
55.7361 4.81879