File: XRD/Ni3Fe_FD0800.xy
TT I
1.27165 7.09272
1.45013 6.06408
1.62863 5.1727
1.80712 4.25334
1.98562 4.46888
2.16411 5.05264
2.34263 5.71062
2.52115 7.24802
2.69965 8.33593
2.87818 8.47295
3.05672 10.9345
3.23527 14.7503
3.4138 18.4107
3.59237 23.1807
3.77094 25.8008
3.9495 29.6944
4.12809 34.3826
4.30669 128.397
4.4853 56.7003
4.6639 55.2192
4.84253 67.5
5.02118 86.7235
5.19981 381.134
5.37848 182.766
5.55716 100.935
5.73586 92.0639
5.91455 94.3182
6.09328 4590.26
6.27201 80.2591
6.45075 68.0014
6.62952 62.1445
6.8083 58.0121
6.98711 55.1683
7.16591 55.0797
7.34475 73.0385
7.5236 53.8254
7.70247 55.9875
7.88135 57.4102
8.06026 62.0379
8.23919 69.2284
8.41812 83.4567
8.59709 1211.59
8.77609 97.2249
8.9551 88.4589
9.13412 82.0604
9.31318 83.1498
9.49226 84.6804
9.67134 94.9483
9.85047 100.174
10.0296 344.801
10.2088 339.918
10.388 103.88
10.5672 540.669
10.7465 85.4273
10.9257 76.9516
11.105 70.7017
11.2844 68.3312
11.4637 63.9946
11.6431 63.0714
11.8225 61.8917
12.002 63.4218
12.1814 157.837
12.3609 66.7243
12.5405 64.2443
12.72 67.7955
12.8996 70.7164
13.0792 79.2219
13.2589 247.867
13.4386 117.034
13.6183 257.596
13.7981 92.262
13.9779 75.2017
14.1577 71.3657
14.3376 69.9169
14.5175 68.0974
14.6974 69.8982
14.8774 111.389
15.0574 140.603
15.2374 69.1378
15.4175 65.765
15.5976 65.2224
15.7778 95.1087
15.958 145.404
16.1382 60.8849
16.3185 57.4477
16.4988 54.8283
16.6792 53.738
16.8596 54.395
17.04 55.4537
17.2205 66.7891
17.401 68.6606
17.5815 58.4694
17.7622 60.6912
17.9428 73.0311
18.1237 141.504
18.3044 91.3778
18.4852 73.7928
18.666 59.5698
18.8469 57.4796
19.0278 56.1517
19.2088 58.6584
19.3898 75.9125
19.5709 53.5753
19.752 52.6577
19.9332 55.6463
20.1144 69.7979
20.2957 64.0452
20.477 52.4603
20.6586 49.09
20.84 48.1891
21.0215 48.0655
21.203 50.4208
21.3846 48.3249
21.5662 48.5607
21.7479 52.261
21.9297 64.3118
22.1115 55.9244
22.2933 49.1592
22.4753 48.3134
22.6572 48.436
22.8393 51.6856
23.0214 56.6136
23.2037 48.286
23.3859 49.4789
23.5682 57.0393
23.7505 47.4246
23.9329 44.7087
24.1154 43.6082
24.2979 42.9743
24.4805 42.624
24.6631 42.3978
24.8458 41.7966
25.0286 42.5051
25.2114 44.2831
25.3943 44.1902
25.5773 40.4399
25.7605 39.9005
25.9436 40.4236
26.1268 41.2652
26.31 39.6957
26.4933 40.3754
26.6767 41.9384
26.8601 40.0669
27.0437 38.5546
27.2272 38.1448
27.4109 38.0524
27.5946 37.9583
27.7784 37.6229
27.9623 38.1461
28.1462 38.3415
28.3304 36.6909
28.5145 35.6325
28.6987 35.3201
28.8829 35.0715
29.0673 34.3947
29.2517 34.0221
29.4361 33.7157
29.6207 32.7354
29.8053 32.5409
29.99 32.1767
30.1748 32.0646
30.3597 31.9208
30.5447 31.7131
30.7297 31.9327
30.915 31.2256
31.1002 30.8891
31.2855 30.6041
31.4708 30.5675
31.6563 30.0343
31.8418 29.793
32.0275 29.5836
32.2132 29.0998
32.399 28.5982
32.5848 28.1882
32.7708 27.871
32.9569 27.6692
33.143 27.5649
33.3293 27.1754
33.5158 26.7683
33.7022 26.2596
33.8887 25.9929
34.0753 25.7374
34.262 25.4158
34.4488 25.0932
34.6357 24.8119
34.8227 24.4306
35.0098 24.3031
35.1969 23.9406
35.3842 23.7862
35.5716 23.5695
35.759 23.2494
35.9468 22.7982
36.1345 22.7187
36.3222 22.4353
36.5101 22.1853
36.6981 21.8734
36.8861 21.5887
37.0743 21.2809
37.2626 20.9837
37.451 20.7596
37.6395 20.5554
37.8281 20.2971
38.0168 19.9636
38.2056 19.7345
38.3945 19.5217
38.5837 19.2169
38.7728 18.9727
38.9621 18.7573
39.1514 18.5242
39.3409 18.2231
39.5304 18.066
39.7201 17.9214
39.9099 17.7019
40.0999 17.3998
40.2899 17.1938
40.48 16.9549
40.6703 16.7288
40.8607 16.5704
41.0512 16.3159
41.242 16.1042
41.4327 15.8838
41.6236 15.7266
41.8146 15.5089
42.0057 15.2359
42.1969 15.0821
42.3882 14.8647
42.5797 14.6713
42.7713 14.4962
42.963 14.301
43.1549 14.0555
43.3468 13.8581
43.5389 13.6876
43.7312 13.4876
43.9237 13.3029
44.1162 13.1512
44.3088 12.959
44.5016 12.7109
44.6945 12.6044
44.8875 12.4679
45.0806 12.1983
45.2739 12.0485
45.4673 11.8907
45.6609 11.7736
45.8546 11.5743
46.0484 11.3962
46.2424 11.2233
46.4365 11.0812
46.631 10.8945
46.8254 10.7378
47.0199 10.5886
47.2146 10.4795
47.4095 10.2911
47.6044 10.1598
47.7996 9.98535
47.9948 9.872
48.1902 9.73089
48.3858 9.56614
48.5815 9.44432
48.7774 9.32613
48.9734 9.19853
49.1696 9.0237
49.3661 8.85394
49.5626 8.72079
49.7592 8.60713
49.956 8.46729
50.153 8.33151
50.3501 8.20741
50.5474 8.08591
50.7448 8.0231
50.9424 7.85043
51.1402 7.68451
51.3381 7.55405
51.5362 7.48468
51.7344 7.35358
51.9328 7.22383
52.1316 7.09869
52.3304 6.99379
52.5293 6.90264
52.7284 6.79652
52.9276 6.68125
53.1271 6.54297
53.3267 6.46315
53.5265 6.35053
53.7264 6.20842
53.9266 6.09424
54.1269 6.03622
54.3274 5.86445
54.528 5.76359
54.7289 5.57444
54.9301 5.3836
55.1314 5.28525
55.3328 5.09791
55.5344 4.91118
55.7361 4.76427