File: XRD/Ni3Fe_FD0901.xy
TT I
1.27165 7.54136
1.45013 5.84017
1.62863 5.48776
1.80712 5.03379
1.98562 4.96067
2.16411 5.34829
2.34263 5.45544
2.52115 6.94934
2.69965 8.51755
2.87818 8.58643
3.05672 11.4091
3.23527 15.0201
3.4138 18.818
3.59237 23.7644
3.77094 25.8116
3.9495 29.6288
4.12809 34.0324
4.30669 161.552
4.4853 59.403
4.6639 54.9252
4.84253 66.4798
5.02118 85.4506
5.19981 326.825
5.37848 171.384
5.55716 99.9083
5.73586 90.5707
5.91455 92.3025
6.09328 4582.72
6.27201 79.6315
6.45075 66.4574
6.62952 61.8039
6.8083 57.1033
6.98711 54.8461
7.16591 54.3531
7.34475 79.2108
7.5236 53.6647
7.70247 55.4988
7.88135 56.8202
8.06026 61.1309
8.23919 68.5779
8.41812 82.9644
8.59709 1186.24
8.77609 95.5086
8.9551 88.379
9.13412 80.9343
9.31318 81.5252
9.49226 83.2748
9.67134 94.5738
9.85047 98.4215
10.0296 323.073
10.2088 328.852
10.388 102.688
10.5672 537.164
10.7465 84.0677
10.9257 76.4159
11.105 70.5657
11.2844 68.2825
11.4637 63.6492
11.6431 62.2148
11.8225 61.3837
12.002 62.4906
12.1814 158.24
12.3609 67.2373
12.5405 63.1642
12.72 67.8462
12.8996 69.6378
13.0792 78.5919
13.2589 239.751
13.4386 113.851
13.6183 255.65
13.7981 91.3553
13.9779 74.2978
14.1577 70.8708
14.3376 69.5221
14.5175 67.2731
14.6974 69.0865
14.8774 108.398
15.0574 136.629
15.2374 68.9553
15.4175 65.083
15.5976 64.4358
15.7778 92.3909
15.958 148.157
16.1382 60.7701
16.3185 57.2327
16.4988 54.3872
16.6792 53.4247
16.8596 53.875
17.04 54.7041
17.2205 65.7105
17.401 67.9261
17.5815 58.1541
17.7622 59.9765
17.9428 71.7689
18.1237 139.737
18.3044 90.1172
18.4852 73.2752
18.666 59.1627
18.8469 56.975
19.0278 55.8791
19.2088 58.139
19.3898 75.684
19.5709 53.0754
19.752 52.2625
19.9332 55.0277
20.1144 69.4803
20.2957 63.9862
20.477 52.035
20.6586 48.8492
20.84 47.8545
21.0215 47.648
21.203 50.0507
21.3846 47.8046
21.5662 48.1254
21.7479 51.6304
21.9297 64.0253
22.1115 55.4444
22.2933 48.7275
22.4753 47.9014
22.6572 47.8924
22.8393 51.1214
23.0214 56.1729
23.2037 47.9094
23.3859 48.9495
23.5682 56.9339
23.7505 46.9936
23.9329 44.3918
24.1154 43.3169
24.2979 42.6039
24.4805 42.1051
24.6631 42.0171
24.8458 41.5026
25.0286 42.0895
25.2114 43.9291
25.3943 43.753
25.5773 40.1277
25.7605 39.7465
25.9436 40.1088
26.1268 41.0408
26.31 39.4666
26.4933 39.9695
26.6767 41.468
26.8601 39.6005
27.0437 38.2212
27.2272 37.7843
27.4109 37.7761
27.5946 37.6281
27.7784 37.2053
27.9623 37.905
28.1462 38.1596
28.3304 36.4401
28.5145 35.2735
28.6987 34.9719
28.8829 34.7074
29.0673 33.9432
29.2517 33.7272
29.4361 33.6686
29.6207 32.5732
29.8053 32.2654
29.99 32.0277
30.1748 31.7335
30.3597 31.7078
30.5447 31.63
30.7297 31.6614
30.915 31.0287
31.1002 30.5662
31.2855 30.3077
31.4708 30.2307
31.6563 29.9167
31.8418 29.6501
32.0275 29.3781
32.2132 28.8528
32.399 28.4596
32.5848 27.9711
32.7708 27.6745
32.9569 27.5277
33.143 27.3252
33.3293 26.9457
33.5158 26.5649
33.7022 26.0794
33.8887 25.8854
34.0753 25.5759
34.262 25.149
34.4488 24.8744
34.6357 24.5731
34.8227 24.2364
35.0098 23.9806
35.1969 23.8377
35.3842 23.5691
35.5716 23.3673
35.759 23.0036
35.9468 22.7441
36.1345 22.4829
36.3222 22.3202
36.5101 21.9861
36.6981 21.7348
36.8861 21.4065
37.0743 21.0747
37.2626 20.9289
37.451 20.6015
37.6395 20.4713
37.8281 20.1065
38.0168 19.8482
38.2056 19.6022
38.3945 19.3827
38.5837 19.098
38.7728 18.9206
38.9621 18.6388
39.1514 18.3537
39.3409 18.1788
39.5304 17.965
39.7201 17.8285
39.9099 17.5227
40.0999 17.324
40.2899 17.097
40.48 16.8776
40.6703 16.5968
40.8607 16.428
41.0512 16.2219
41.242 15.9971
41.4327 15.7884
41.6236 15.6019
41.8146 15.4037
42.0057 15.1711
42.1969 15.0214
42.3882 14.8032
42.5797 14.5702
42.7713 14.3912
42.963 14.1147
43.1549 13.9785
43.3468 13.7312
43.5389 13.5859
43.7312 13.3883
43.9237 13.2265
44.1162 13.0479
44.3088 12.8433
44.5016 12.6734
44.6945 12.5072
44.8875 12.2997
45.0806 12.1651
45.2739 12.0201
45.4673 11.8484
45.6609 11.6592
45.8546 11.4755
46.0484 11.305
46.2424 11.1537
46.4365 11.0367
46.631 10.8517
46.8254 10.6554
47.0199 10.5033
47.2146 10.3677
47.4095 10.2078
47.6044 10.0642
47.7996 9.90312
47.9948 9.70766
48.1902 9.62607
48.3858 9.51075
48.5815 9.39463
48.7774 9.22348
48.9734 9.11781
49.1696 8.93635
49.3661 8.77347
49.5626 8.64814
49.7592 8.52242
49.956 8.45371
50.153 8.28074
50.3501 8.16119
50.5474 8.05985
50.7448 7.91738
50.9424 7.79983
51.1402 7.7011
51.3381 7.54799
51.5362 7.42287
51.7344 7.30087
51.9328 7.18997
52.1316 7.05371
52.3304 6.9293
52.5293 6.79586
52.7284 6.69689
52.9276 6.60509
53.1271 6.5225
53.3267 6.38255
53.5265 6.26463
53.7264 6.1703
53.9266 6.0853
54.1269 5.94179
54.3274 5.83004
54.528 5.69044
54.7289 5.52423
54.9301 5.35119
55.1314 5.27409
55.3328 5.09513
55.5344 4.89459
55.7361 4.75248