File: XRD/Ni3Fe_FD0041.xy
TT I
1.27165 32.7432
1.45013 27.2717
1.62863 23.8101
1.80712 21.726
1.98562 21.5328
2.16411 21.6351
2.34263 22.3128
2.52115 22.7591
2.69965 26.3221
2.87818 36.9527
3.05672 64.1529
3.23527 69.5698
3.4138 35.5455
3.59237 29.2037
3.77094 28.0484
3.9495 27.4506
4.12809 31.368
4.30669 48.2102
4.4853 40.2621
4.6639 41.3627
4.84253 52.7115
5.02118 90.4707
5.19981 297.804
5.37848 3485.79
5.55716 153.334
5.73586 101.888
5.91455 115.718
6.09328 529.643
6.27201 251.667
6.45075 65.4642
6.62952 48.0857
6.8083 43.7385
6.98711 39.4911
7.16591 40.8714
7.34475 47.9988
7.5236 52.8397
7.70247 43.385
7.88135 37.2963
8.06026 39.414
8.23919 44.4905
8.41812 57.0296
8.59709 178.693
8.77609 473.143
8.9551 75.71
9.13412 62.2401
9.31318 328.184
9.49226 56.8005
9.67134 55.52
9.85047 61.4453
10.0296 110.568
10.2088 628.591
10.388 109.159
10.5672 95.9406
10.7465 228.305
10.9257 49.7354
11.105 43.3533
11.2844 40.9137
11.4637 38.6099
11.6431 37.9105
11.8225 37.9989
12.002 103.546
12.1814 48.956
12.3609 91.9567
12.5405 42.4112
12.72 39.7011
12.8996 40.005
13.0792 45.0621
13.2589 67.8892
13.4386 179.719
13.6183 84.6011
13.7981 184.459
13.9779 56.2551
14.1577 55.7975
14.3376 46.5304
14.5175 40.0061
14.6974 40.1789
14.8774 46.5809
15.0574 69.4959
15.2374 69.3046
15.4175 41.3868
15.5976 39.4668
15.7778 44.0415
15.958 59.8455
16.1382 92.7248
16.3185 38.3091
16.4988 34.0369
16.6792 32.9282
16.8596 32.9489
17.04 42.8674
17.2205 34.9134
17.401 38.9384
17.5815 41.5075
17.7622 36.6502
17.9428 40.6198
18.1237 44.661
18.3044 90.7348
18.4852 55.1928
18.666 53.3725
18.8469 36.6247
19.0278 34.6403
19.2088 34.9552
19.3898 45.0432
19.5709 46.2461
19.752 34.3665
19.9332 32.741
20.1144 33.6497
20.2957 43.9763
20.477 39.0267
20.6586 34.2191
20.84 33.8826
21.0215 29.9792
21.203 29.6319
21.3846 30.4569
21.5662 31.7033
21.7479 30.6172
21.9297 31.8925
22.1115 42.1242
22.2933 39.2698
22.4753 32.5609
22.6572 30.3917
22.8393 31.562
23.0214 31.6301
23.2037 38.9959
23.3859 32.1694
23.5682 34.506
23.7505 35.4009
23.9329 34.0418
24.1154 29.4152
24.2979 27.7818
24.4805 26.927
24.6631 27.1887
24.8458 27.6261
25.0286 26.5254
25.2114 26.7947
25.3943 28.9829
25.5773 29.7379
25.7605 26.9901
25.9436 26.9718
26.1268 25.7492
26.31 26.9477
26.4933 26.4897
26.6767 25.8068
26.8601 27.6225
27.0437 28.3644
27.2272 25.7536
27.4109 24.8767
27.5946 24.8265
27.7784 25.2138
27.9623 24.6869
28.1462 25.6892
28.3304 26.4762
28.5145 25.5084
28.6987 24.1159
28.8829 23.0909
29.0673 22.6448
29.2517 22.908
29.4361 22.16
29.6207 22.2161
29.8053 21.8851
29.99 21.3088
30.1748 21.5493
30.3597 21.0425
30.5447 21.2876
30.7297 20.8776
30.915 21.2086
31.1002 21.6603
31.2855 20.845
31.4708 20.3727
31.6563 20.5293
31.8418 20.6944
32.0275 20.0105
32.2132 20.1088
32.399 19.8758
32.5848 19.2914
32.7708 18.8317
32.9569 18.8223
33.143 18.6781
33.3293 18.3536
33.5158 18.5568
33.7022 18.2624
33.8887 17.7165
34.0753 17.5933
34.262 17.3499
34.4488 17.0615
34.6357 16.8939
34.8227 16.6641
35.0098 16.3532
35.1969 16.3224
35.3842 16.2281
35.5716 16.0859
35.759 16.1839
35.9468 15.8767
36.1345 15.6659
36.3222 15.4949
36.5101 15.3604
36.6981 15.1385
36.8861 14.9428
37.0743 14.7722
37.2626 14.51
37.451 14.303
37.6395 14.2804
37.8281 14.0333
38.0168 13.86
38.2056 13.6331
38.3945 13.4287
38.5837 13.3485
38.7728 13.1711
38.9621 13.0155
39.1514 12.872
39.3409 12.688
39.5304 12.4859
39.7201 12.4141
39.9099 12.1993
40.0999 12.1486
40.2899 12.0044
40.48 11.8188
40.6703 11.7344
40.8607 11.5978
41.0512 11.4522
41.242 11.2443
41.4327 11.1944
41.6236 10.9896
41.8146 10.8729
42.0057 10.7359
42.1969 10.5798
42.3882 10.4815
42.5797 10.317
42.7713 10.163
42.963 10.0272
43.1549 9.86133
43.3468 9.74156
43.5389 9.65201
43.7312 9.50018
43.9237 9.36301
44.1162 9.29204
44.3088 9.12034
44.5016 9.03121
44.6945 8.93979
44.8875 8.7741
45.0806 8.68161
45.2739 8.53826
45.4673 8.42944
45.6609 8.31186
45.8546 8.19955
46.0484 8.1102
46.2424 7.99998
46.4365 7.86651
46.631 7.78886
46.8254 7.65211
47.0199 7.56256
47.2146 7.44515
47.4095 7.3633
47.6044 7.21154
47.7996 7.1071
47.9948 7.02234
48.1902 6.90894
48.3858 6.84449
48.5815 6.74258
48.7774 6.68172
48.9734 6.55064
49.1696 6.46141
49.3661 6.3525
49.5626 6.25365
49.7592 6.19815
49.956 6.11635
50.153 6.00284
50.3501 5.92239
50.5474 5.83872
50.7448 5.74693
50.9424 5.65497
51.1402 5.5892
51.3381 5.51739
51.5362 5.4286
51.7344 5.33076
51.9328 5.25152
52.1316 5.16658
52.3304 5.11296
52.5293 5.00961
52.7284 4.93524
52.9276 4.84154
53.1271 4.80254
53.3267 4.72282
53.5265 4.60581
53.7264 4.54547
53.9266 4.49303
54.1269 4.32532
54.3274 4.26154
54.528 4.13324
54.7289 4.00752
54.9301 3.90768
55.1314 3.76844
55.3328 3.64755
55.5344 3.51858
55.7361 3.43053