File: XRD/Ni3Fe_FD0179.xy
TT I
1.27165 8.05462
1.45013 6.90321
1.62863 5.58378
1.80712 4.74931
1.98562 5.03242
2.16411 4.92089
2.34263 3.8318
2.52115 4.19529
2.69965 6.05984
2.87818 7.77441
3.05672 11.2776
3.23527 15.2117
3.4138 18.9079
3.59237 22.075
3.77094 24.9211
3.9495 28.5416
4.12809 33.0459
4.30669 37.9711
4.4853 45.4422
4.6639 54.4713
4.84253 66.6621
5.02118 91.1314
5.19981 523.502
5.37848 406.203
5.55716 107.607
5.73586 95.5667
5.91455 104.842
6.09328 2877.34
6.27201 88.2367
6.45075 66.8104
6.62952 60.1329
6.8083 56.2442
6.98711 53.886
7.16591 52.8741
7.34475 52.3365
7.5236 55.5989
7.70247 54.4661
7.88135 56.668
8.06026 61.036
8.23919 68.1709
8.41812 84.2956
8.59709 922.322
8.77609 115.658
8.9551 85.9759
9.13412 81.7611
9.31318 85.9894
9.49226 84.0951
9.67134 89.1665
9.85047 99.4986
10.0296 535.717
10.2088 936.781
10.388 104.816
10.5672 347.02
10.7465 90.7738
10.9257 76.3601
11.105 70.7554
11.2844 66.438
11.4637 64.0985
11.6431 62.6167
11.8225 61.4641
12.002 65.3326
12.1814 121.475
12.3609 73.3614
12.5405 63.5555
12.72 65.8491
12.8996 70.3568
13.0792 79.7001
13.2589 210.205
13.4386 200.619
13.6183 199.618
13.7981 148.39
13.9779 76.5869
14.1577 74.3865
14.3376 69.5342
14.5175 68.8105
14.6974 70.3272
14.8774 121.742
15.0574 205.029
15.2374 69.5503
15.4175 66.7885
15.5976 66.3114
15.7778 107.491
15.958 187.191
16.1382 62.2046
16.3185 57.8079
16.4988 55.2805
16.6792 54.264
16.8596 54.6726
17.04 55.7501
17.2205 66.0091
17.401 81.4668
17.5815 59.4157
17.7622 61.822
17.9428 83.8624
18.1237 118.615
18.3044 89.4061
18.4852 94.5155
18.666 61.5032
18.8469 58.6876
19.0278 57.0607
19.2088 62.1386
19.3898 70.4628
19.5709 56.5115
19.752 53.7688
19.9332 58.6216
20.1144 68.0881
20.2957 62.0129
20.477 58.9826
20.6586 50.1211
20.84 49.2845
21.0215 49.6965
21.203 50.2213
21.3846 50.7892
21.5662 49.3698
21.7479 54.5469
21.9297 63.185
22.1115 56.7881
22.2933 52.6223
22.4753 49.2823
22.6572 49.6463
22.8393 52.551
23.0214 57.9375
23.2037 50.2348
23.3859 52.1077
23.5682 54.5074
23.7505 53.2244
23.9329 46.1388
24.1154 44.7893
24.2979 44.1672
24.4805 43.5277
24.6631 43.5807
24.8458 42.9247
25.0286 43.4705
25.2114 45.1707
25.3943 45.3448
25.5773 42.0139
25.7605 41.0493
25.9436 41.4803
26.1268 42.0423
26.31 41.2931
26.4933 41.4328
26.6767 42.5331
26.8601 41.6442
27.0437 39.8857
27.2272 39.2684
27.4109 38.9707
27.5946 39.1241
27.7784 38.9319
27.9623 38.9417
28.1462 39.8967
28.3304 38.4163
28.5145 36.6974
28.6987 36.2857
28.8829 35.7511
29.0673 35.5457
29.2517 34.8421
29.4361 34.6298
29.6207 33.8848
29.8053 33.4096
29.99 33.1051
30.1748 32.8214
30.3597 33.0185
30.5447 32.7433
30.7297 32.721
30.915 32.4162
31.1002 31.8166
31.2855 31.4572
31.4708 31.3442
31.6563 31.1487
31.8418 30.6778
32.0275 30.4824
32.2132 30.0781
32.399 29.419
32.5848 28.8454
32.7708 28.6727
32.9569 28.5536
33.143 28.2089
33.3293 27.9432
33.5158 27.6498
33.7022 27.0863
33.8887 26.7198
34.0753 26.455
34.262 26.0582
34.4488 25.6886
34.6357 25.4482
34.8227 25.1018
35.0098 24.8274
35.1969 24.646
35.3842 24.3474
35.5716 24.2275
35.759 23.9594
35.9468 23.5326
36.1345 23.2393
36.3222 23.0832
36.5101 22.8402
36.6981 22.5624
36.8861 22.1676
37.0743 21.8985
37.2626 21.5288
37.451 21.3209
37.6395 21.2657
37.8281 20.7984
38.0168 20.5457
38.2056 20.3408
38.3945 19.9506
38.5837 19.7529
38.7728 19.5009
38.9621 19.2653
39.1514 19.0227
39.3409 18.7829
39.5304 18.6181
39.7201 18.3054
39.9099 18.1725
40.0999 17.9213
40.2899 17.6332
40.48 17.4156
40.6703 17.2474
40.8607 17.0414
41.0512 16.7574
41.242 16.5267
41.4327 16.3087
41.6236 16.0907
41.8146 15.9131
42.0057 15.6823
42.1969 15.5141
42.3882 15.2832
42.5797 15.0815
42.7713 14.8235
42.963 14.6569
43.1549 14.5052
43.3468 14.21
43.5389 14.0396
43.7312 13.8501
43.9237 13.6921
44.1162 13.5597
44.3088 13.3049
44.5016 13.1041
44.6945 12.9836
44.8875 12.8126
45.0806 12.5474
45.2739 12.3913
45.4673 12.2621
45.6609 12.0559
45.8546 11.8889
46.0484 11.7079
46.2424 11.5295
46.4365 11.384
46.631 11.178
46.8254 11.0425
47.0199 10.8651
47.2146 10.7507
47.4095 10.5855
47.6044 10.3734
47.7996 10.2323
47.9948 10.0855
48.1902 9.96645
48.3858 9.82299
48.5815 9.72761
48.7774 9.51841
48.9734 9.40311
49.1696 9.26495
49.3661 9.13929
49.5626 8.96452
49.7592 8.86707
49.956 8.70983
50.153 8.58279
50.3501 8.44145
50.5474 8.31351
50.7448 8.17593
50.9424 8.07006
51.1402 7.95705
51.3381 7.80437
51.5362 7.68089
51.7344 7.54722
51.9328 7.40384
52.1316 7.25549
52.3304 7.18684
52.5293 7.05888
52.7284 6.92785
52.9276 6.8451
53.1271 6.75291
53.3267 6.59892
53.5265 6.47314
53.7264 6.39456
53.9266 6.25724
54.1269 6.11924
54.3274 5.99296
54.528 5.87768
54.7289 5.68663
54.9301 5.50592
55.1314 5.36309
55.3328 5.12224
55.5344 4.93389
55.7361 4.86014