File: XRD/Ni3Fe_FD1021.xy
TT I
1.27165 7.14467
1.45013 5.79842
1.62863 5.47516
1.80712 3.94204
1.98562 3.75087
2.16411 4.12563
2.34263 5.59664
2.52115 7.04485
2.69965 8.75138
2.87818 9.04391
3.05672 10.9155
3.23527 14.9773
3.4138 18.717
3.59237 21.2641
3.77094 24.5559
3.9495 28.3128
4.12809 31.9916
4.30669 57.441
4.4853 46.0877
4.6639 52.2292
4.84253 63.3902
5.02118 82.5093
5.19981 226.657
5.37848 232.942
5.55716 96.8534
5.73586 86.9175
5.91455 88.3454
6.09328 4345.79
6.27201 75.5373
6.45075 62.7811
6.62952 57.7851
6.8083 54.146
6.98711 52.0903
7.16591 51.229
7.34475 56.228
7.5236 61.3585
7.70247 52.9329
7.88135 54.485
8.06026 58.3077
8.23919 64.8776
8.41812 76.7604
8.59709 1055.76
8.77609 94.7077
8.9551 81.5396
9.13412 78.6004
9.31318 93.7107
9.49226 80.1617
9.67134 85.4496
9.85047 92.8024
10.0296 323.446
10.2088 451.952
10.388 96.5887
10.5672 490.928
10.7465 87.3333
10.9257 72.8171
11.105 67.5317
11.2844 64.0664
11.4637 61.4245
11.6431 60.2547
11.8225 59.2351
12.002 68.676
12.1814 143.241
12.3609 63.9076
12.5405 60.6716
12.72 63.3152
12.8996 67.0249
13.0792 76.3223
13.2589 219.922
13.4386 126.7
13.6183 229.765
13.7981 99.5421
13.9779 72.7407
14.1577 77.3193
14.3376 66.7604
14.5175 65.5765
14.6974 66.6133
14.8774 105.792
15.0574 158.055
15.2374 65.934
15.4175 63.3399
15.5976 62.5446
15.7778 90.7608
15.958 168.022
16.1382 59.7108
16.3185 55.0196
16.4988 53.1034
16.6792 51.8416
16.8596 52.3145
17.04 53.2253
17.2205 63.5909
17.401 71.0338
17.5815 56.8983
17.7622 59.5197
17.9428 71.3272
18.1237 140.749
18.3044 87.3552
18.4852 78.3258
18.666 58.4219
18.8469 55.7534
19.0278 54.5926
19.2088 57.0338
19.3898 75.6129
19.5709 52.4032
19.752 51.319
19.9332 54.2997
20.1144 69.7805
20.2957 62.7632
20.477 52.5745
20.6586 47.7025
20.84 47.3731
21.0215 46.7968
21.203 48.9601
21.3846 47.4467
21.5662 47.0179
21.7479 50.7571
21.9297 64.7017
22.1115 55.4886
22.2933 48.6529
22.4753 46.9663
22.6572 47.1011
22.8393 50.4915
23.0214 57.1171
23.2037 47.3269
23.3859 48.6749
23.5682 56.6721
23.7505 47.8512
23.9329 43.8379
24.1154 42.6903
24.2979 41.8539
24.4805 41.6487
24.6631 41.6716
24.8458 40.8482
25.0286 41.522
25.2114 43.7364
25.3943 43.9612
25.5773 39.7217
25.7605 39.268
25.9436 39.6956
26.1268 40.8518
26.31 38.9552
26.4933 39.6485
26.6767 41.4728
26.8601 39.6513
27.0437 37.8823
27.2272 37.454
27.4109 37.353
27.5946 37.608
27.7784 36.8977
27.9623 37.5902
28.1462 38.2464
28.3304 36.2866
28.5145 34.9613
28.6987 34.6579
28.8829 34.4444
29.0673 33.7597
29.2517 33.3176
29.4361 33.308
29.6207 32.2454
29.8053 31.8987
29.99 31.6919
30.1748 31.6366
30.3597 31.4397
30.5447 31.3952
30.7297 31.4475
30.915 30.8731
31.1002 30.4728
31.2855 30.0921
31.4708 30.1114
31.6563 29.6548
31.8418 29.3915
32.0275 29.305
32.2132 28.6841
32.399 28.1949
32.5848 27.8366
32.7708 27.5391
32.9569 27.2146
33.143 27.1401
33.3293 26.8604
33.5158 26.42
33.7022 25.9407
33.8887 25.7179
34.0753 25.3013
34.262 25.0054
34.4488 24.7402
34.6357 24.3337
34.8227 24.0345
35.0098 23.8096
35.1969 23.6603
35.3842 23.4747
35.5716 23.2344
35.759 22.9422
35.9468 22.5567
36.1345 22.4006
36.3222 22.1289
36.5101 21.8859
36.6981 21.5778
36.8861 21.2954
37.0743 20.9869
37.2626 20.751
37.451 20.4613
37.6395 20.2449
37.8281 19.995
38.0168 19.6829
38.2056 19.46
38.3945 19.1485
38.5837 19.0301
38.7728 18.686
38.9621 18.4521
39.1514 18.2219
39.3409 17.9758
39.5304 17.7594
39.7201 17.6367
39.9099 17.3974
40.0999 17.1626
40.2899 16.9446
40.48 16.6508
40.6703 16.4957
40.8607 16.3684
41.0512 16.1022
41.242 15.87
41.4327 15.7226
41.6236 15.4577
41.8146 15.3095
42.0057 15.0599
42.1969 14.8306
42.3882 14.69
42.5797 14.4192
42.7713 14.2533
42.963 14.0395
43.1549 13.8343
43.3468 13.693
43.5389 13.5355
43.7312 13.2662
43.9237 13.1414
44.1162 12.9354
44.3088 12.7022
44.5016 12.5954
44.6945 12.429
44.8875 12.2237
45.0806 12.0629
45.2739 11.8707
45.4673 11.7412
45.6609 11.5627
45.8546 11.428
46.0484 11.2624
46.2424 11.0893
46.4365 10.9466
46.631 10.7432
46.8254 10.5846
47.0199 10.4459
47.2146 10.2813
47.4095 10.1283
47.6044 9.94109
47.7996 9.82123
47.9948 9.70128
48.1902 9.55249
48.3858 9.44083
48.5815 9.30981
48.7774 9.11368
48.9734 9.04094
49.1696 8.89728
49.3661 8.75841
49.5626 8.6029
49.7592 8.49034
49.956 8.35493
50.153 8.23008
50.3501 8.11973
50.5474 7.98231
50.7448 7.86765
50.9424 7.75213
51.1402 7.63961
51.3381 7.46969
51.5362 7.38621
51.7344 7.25362
51.9328 7.12747
52.1316 7.02225
52.3304 6.9372
52.5293 6.80655
52.7284 6.6635
52.9276 6.53522
53.1271 6.45943
53.3267 6.31826
53.5265 6.23598
53.7264 6.14329
53.9266 6.00128
54.1269 5.88099
54.3274 5.79939
54.528 5.65467
54.7289 5.54382
54.9301 5.35514
55.1314 5.21172
55.3328 5.00662
55.5344 4.86805
55.7361 4.72582