File: XRD/Ni3Fe_FD0603.xy
TT I
1.27165 7.33434
1.45013 6.19972
1.62863 5.5899
1.80712 5.491
1.98562 5.18644
2.16411 4.40684
2.34263 5.18733
2.52115 5.69813
2.69965 8.0658
2.87818 7.99794
3.05672 11.1158
3.23527 14.7144
3.4138 19.0108
3.59237 23.6745
3.77094 26.121
3.9495 30.0602
4.12809 34.8863
4.30669 141.188
4.4853 58.4504
4.6639 56.0679
4.84253 68.3904
5.02118 88.5802
5.19981 410.114
5.37848 201.139
5.55716 103.587
5.73586 93.6487
5.91455 96.8361
6.09328 4232.43
6.27201 82.9412
6.45075 68.5856
6.62952 63.0077
6.8083 59.0435
6.98711 55.7601
7.16591 55.6403
7.34475 75.881
7.5236 55.0998
7.70247 56.571
7.88135 58.2301
8.06026 62.6971
8.23919 69.7112
8.41812 85.6412
8.59709 1236.73
8.77609 100.973
8.9551 90.2739
9.13412 82.8694
9.31318 83.8304
9.49226 85.6894
9.67134 96.5165
9.85047 101.383
10.0296 370.854
10.2088 423.174
10.388 106.019
10.5672 501.276
10.7465 87.3564
10.9257 78.4737
11.105 72.2877
11.2844 69.7539
11.4637 65.1791
11.6431 64.0697
11.8225 63.0229
12.002 64.4716
12.1814 155.585
12.3609 69.4439
12.5405 65.1251
12.72 69.036
12.8996 71.6479
13.0792 80.1042
13.2589 250.874
13.4386 129.247
13.6183 251.742
13.7981 101.412
13.9779 76.8655
14.1577 72.6707
14.3376 71.179
14.5175 69.3499
14.6974 71.1998
14.8774 115.461
15.0574 151.73
15.2374 70.694
15.4175 67.0517
15.5976 66.3346
15.7778 98.637
15.958 154.374
16.1382 62.3263
16.3185 58.6255
16.4988 55.7874
16.6792 54.9672
16.8596 55.6217
17.04 56.2183
17.2205 67.7788
17.401 72.538
17.5815 59.8784
17.7622 61.5952
17.9428 75.2138
18.1237 137.749
18.3044 92.3289
18.4852 79.4743
18.666 61.0654
18.8469 58.5659
19.0278 57.397
19.2088 60.0423
19.3898 75.5589
19.5709 54.8298
19.752 53.6249
19.9332 56.8559
20.1144 69.5342
20.2957 64.1258
20.477 54.1958
20.6586 50.0468
20.84 49.285
21.0215 48.9403
21.203 51.211
21.3846 49.2744
21.5662 49.2664
21.7479 53.4219
21.9297 64.5324
22.1115 56.0235
22.2933 50.3145
22.4753 48.9802
22.6572 49.1766
22.8393 52.6906
23.0214 57.4024
23.2037 49.27
23.3859 50.4441
23.5682 56.8072
23.7505 48.8786
23.9329 45.6034
24.1154 44.3936
24.2979 43.7605
24.4805 43.2134
24.6631 43.0793
24.8458 42.5689
25.0286 43.2899
25.2114 44.9771
25.3943 44.7924
25.5773 41.3218
25.7605 40.7416
25.9436 41.237
26.1268 42.0005
26.31 40.5261
26.4933 41.1972
26.6767 42.3608
26.8601 40.7554
27.0437 39.1853
27.2272 38.7956
27.4109 38.7559
27.5946 38.6612
27.7784 38.1097
27.9623 38.7077
28.1462 39.021
28.3304 37.4728
28.5145 36.1538
28.6987 35.8239
28.8829 35.6827
29.0673 35.0586
29.2517 34.546
29.4361 34.4105
29.6207 33.3464
29.8053 33.05
29.99 32.8368
30.1748 32.7006
30.3597 32.4655
30.5447 32.4255
30.7297 32.3233
30.915 31.8815
31.1002 31.4093
31.2855 31.1147
31.4708 30.9904
31.6563 30.6268
31.8418 30.4121
32.0275 30.0789
32.2132 29.636
32.399 29.1414
32.5848 28.6984
32.7708 28.4489
32.9569 28.1954
33.143 27.9639
33.3293 27.542
33.5158 27.2169
33.7022 26.8296
33.8887 26.5558
34.0753 26.2188
34.262 25.8564
34.4488 25.4632
34.6357 25.2103
34.8227 24.8887
35.0098 24.7164
35.1969 24.2883
35.3842 24.148
35.5716 24.007
35.759 23.7
35.9468 23.256
36.1345 23.0349
36.3222 22.9009
36.5101 22.6301
36.6981 22.2683
36.8861 21.9244
37.0743 21.5866
37.2626 21.4483
37.451 21.0919
37.6395 21.0047
37.8281 20.5967
38.0168 20.3019
38.2056 20.1515
38.3945 19.8455
38.5837 19.5201
38.7728 19.3964
38.9621 19.0987
39.1514 18.8587
39.3409 18.6029
39.5304 18.4318
39.7201 18.247
39.9099 17.9793
40.0999 17.7239
40.2899 17.5227
40.48 17.2458
40.6703 17.0463
40.8607 16.8384
41.0512 16.6442
41.242 16.3448
41.4327 16.1964
41.6236 15.9878
41.8146 15.769
42.0057 15.5588
42.1969 15.2844
42.3882 15.1417
42.5797 14.9154
42.7713 14.7159
42.963 14.5118
43.1549 14.3286
43.3468 14.0993
43.5389 13.9569
43.7312 13.6911
43.9237 13.5363
44.1162 13.3338
44.3088 13.1859
44.5016 12.9552
44.6945 12.7962
44.8875 12.6208
45.0806 12.4565
45.2739 12.2797
45.4673 12.1008
45.6609 11.9311
45.8546 11.7656
46.0484 11.6126
46.2424 11.4424
46.4365 11.2873
46.631 11.0959
46.8254 10.9448
47.0199 10.7984
47.2146 10.6481
47.4095 10.4547
47.6044 10.2971
47.7996 10.1187
47.9948 10.0053
48.1902 9.8899
48.3858 9.71635
48.5815 9.5661
48.7774 9.46622
48.9734 9.2943
49.1696 9.17181
49.3661 8.99831
49.5626 8.88592
49.7592 8.72283
49.956 8.61067
50.153 8.49112
50.3501 8.3636
50.5474 8.21732
50.7448 8.13595
50.9424 7.97861
51.1402 7.86011
51.3381 7.70413
51.5362 7.62264
51.7344 7.42239
51.9328 7.33916
52.1316 7.22198
52.3304 7.0962
52.5293 6.98565
52.7284 6.84472
52.9276 6.78253
53.1271 6.67679
53.3267 6.53263
53.5265 6.39199
53.7264 6.32385
53.9266 6.21763
54.1269 6.09489
54.3274 5.97358
54.528 5.8486
54.7289 5.68611
54.9301 5.49217
55.1314 5.38638
55.3328 5.16689
55.5344 5.01579
55.7361 4.79098