File: XRD/Ni3Fe_FD0096.xy
TT I
1.27165 9.06236
1.45013 7.59018
1.62863 6.16301
1.80712 6.00335
1.98562 5.57395
2.16411 4.67642
2.34263 4.48554
2.52115 3.87635
2.69965 5.45301
2.87818 8.14809
3.05672 11.0329
3.23527 14.4997
3.4138 18.4267
3.59237 21.88
3.77094 24.6135
3.9495 28.0007
4.12809 32.5151
4.30669 37.0928
4.4853 44.4749
4.6639 53.6816
4.84253 65.996
5.02118 94.2795
5.19981 691.566
5.37848 749.425
5.55716 112.829
5.73586 98.9408
5.91455 113.505
6.09328 2063.85
6.27201 98.3422
6.45075 66.6882
6.62952 59.7803
6.8083 54.8875
6.98711 52.5825
7.16591 51.5901
7.34475 51.3898
7.5236 60.161
7.70247 53.4374
7.88135 55.4888
8.06026 60.0766
8.23919 67.2037
8.41812 84.7422
8.59709 734.68
8.77609 132.975
8.9551 85.2355
9.13412 80.8752
9.31318 98.2604
9.49226 82.7351
9.67134 87.8492
9.85047 98.4422
10.0296 598.98
10.2088 1221.49
10.388 105.613
10.5672 250.743
10.7465 96.5214
10.9257 74.9429
11.105 69.188
11.2844 65.2265
11.4637 62.369
11.6431 61.2198
11.8225 60.3763
12.002 70.4899
12.1814 101.873
12.3609 83.196
12.5405 61.914
12.72 64.2579
12.8996 68.4413
13.0792 78.6079
13.2589 180.958
13.4386 264.17
13.6183 163.949
13.7981 191.789
13.9779 75.2937
14.1577 77.6915
14.3376 67.9509
14.5175 67.2854
14.6974 68.6643
14.8774 119.694
15.0574 207.894
15.2374 68.5403
15.4175 65.1109
15.5976 64.7191
15.7778 108.096
15.958 172.783
16.1382 62.3434
16.3185 56.35
16.4988 54.1171
16.6792 53.1781
16.8596 53.4236
17.04 54.3708
17.2205 62.4996
17.401 81.0748
17.5815 57.9076
17.7622 60.544
17.9428 85.1612
18.1237 97.5068
18.3044 87.9418
18.4852 100.593
18.666 60.0054
18.8469 57.1794
19.0278 55.7971
19.2088 61.2547
19.3898 64.3039
19.5709 57.1523
19.752 52.4268
19.9332 57.6159
20.1144 62.7631
20.2957 59.2328
20.477 61.2089
20.6586 49.0444
20.84 48.4822
21.0215 48.254
21.203 48.1794
21.3846 50.1443
21.5662 48.221
21.7479 53.2775
21.9297 57.9678
22.1115 56.0915
22.2933 53.0852
22.4753 47.9869
22.6572 48.2815
22.8393 50.7854
23.0214 54.121
23.2037 49.8364
23.3859 51.426
23.5682 50.6578
23.7505 54.9542
23.9329 45.0351
24.1154 43.6312
24.2979 42.94
24.4805 42.1907
24.6631 42.3226
24.8458 41.8907
25.0286 42.2776
25.2114 43.1616
25.3943 43.5575
25.5773 41.6031
25.7605 40.1777
25.9436 40.1254
26.1268 40.4268
26.31 40.5356
26.4933 40.1677
26.6767 40.6331
26.8601 40.7337
27.0437 38.9608
27.2272 38.2766
27.4109 37.8172
27.5946 37.8331
27.7784 38.0321
27.9623 37.7785
28.1462 38.2655
28.3304 37.4229
28.5145 35.7141
28.6987 35.2558
28.8829 34.6942
29.0673 34.6189
29.2517 33.7482
29.4361 33.5072
29.6207 33.0692
29.8053 32.5419
29.99 32.1504
30.1748 31.9933
30.3597 31.9786
30.5447 31.7271
30.7297 31.6033
30.915 31.5324
31.1002 30.9169
31.2855 30.4516
31.4708 30.2625
31.6563 30.405
31.8418 29.7744
32.0275 29.4482
32.2132 29.1456
32.399 28.6312
32.5848 28.205
32.7708 27.8672
32.9569 27.7171
33.143 27.3761
33.3293 27.0293
33.5158 26.8514
33.7022 26.2894
33.8887 25.9726
34.0753 25.7429
34.262 25.3224
34.4488 25.0012
34.6357 24.7061
34.8227 24.4113
35.0098 24.1117
35.1969 23.9185
35.3842 23.6296
35.5716 23.4014
35.759 23.1715
35.9468 22.8075
36.1345 22.6602
36.3222 22.4029
36.5101 22.1103
36.6981 21.8408
36.8861 21.5475
37.0743 21.2441
37.2626 20.9301
37.451 20.7609
37.6395 20.5222
37.8281 20.2349
38.0168 19.9854
38.2056 19.7036
38.3945 19.4158
38.5837 19.1744
38.7728 18.9757
38.9621 18.7375
39.1514 18.5125
39.3409 18.1644
39.5304 18.0444
39.7201 17.8201
39.9099 17.5803
40.0999 17.3566
40.2899 17.0969
40.48 16.9028
40.6703 16.7421
40.8607 16.5346
41.0512 16.3175
41.242 16.0975
41.4327 15.9072
41.6236 15.6464
41.8146 15.4412
42.0057 15.2428
42.1969 14.9843
42.3882 14.8686
42.5797 14.6283
42.7713 14.4499
42.963 14.2603
43.1549 14.0768
43.3468 13.8296
43.5389 13.6463
43.7312 13.4797
43.9237 13.329
44.1162 13.0918
44.3088 12.9475
44.5016 12.7758
44.6945 12.5781
44.8875 12.387
45.0806 12.2447
45.2739 12.0258
45.4673 11.8906
45.6609 11.7458
45.8546 11.584
46.0484 11.3927
46.2424 11.2386
46.4365 11.0689
46.631 10.8528
46.8254 10.7214
47.0199 10.5922
47.2146 10.4375
47.4095 10.2782
47.6044 10.1212
47.7996 9.97075
47.9948 9.8527
48.1902 9.66391
48.3858 9.59407
48.5815 9.4108
48.7774 9.30213
48.9734 9.16794
49.1696 9.00961
49.3661 8.87992
49.5626 8.73509
49.7592 8.60449
49.956 8.4723
50.153 8.37588
50.3501 8.22879
50.5474 8.10109
50.7448 7.98953
50.9424 7.87563
51.1402 7.72914
51.3381 7.58382
51.5362 7.48298
51.7344 7.37386
51.9328 7.21386
52.1316 7.07633
52.3304 7.01139
52.5293 6.86713
52.7284 6.76413
52.9276 6.61803
53.1271 6.53826
53.3267 6.42202
53.5265 6.29354
53.7264 6.22644
53.9266 6.09359
54.1269 5.95782
54.3274 5.82982
54.528 5.68652
54.7289 5.49656
54.9301 5.37635
55.1314 5.24499
55.3328 4.95933
55.5344 4.77192
55.7361 4.64