File: XRD/Ni3Fe_FD0034.xy
TT I
1.27165 32.6375
1.45013 27.673
1.62863 24.4018
1.80712 21.6401
1.98562 22.1484
2.16411 23.7315
2.34263 24.5587
2.52115 23.7779
2.69965 27.3768
2.87818 36.7311
3.05672 64.0869
3.23527 71.9489
3.4138 38.2395
3.59237 35.4906
3.77094 34.3843
3.9495 32.2124
4.12809 41.6114
4.30669 78.4704
4.4853 53.2491
4.6639 44.4297
4.84253 52.5465
5.02118 89.2774
5.19981 299.158
5.37848 3494.07
5.55716 154.386
5.73586 101.289
5.91455 114.765
6.09328 506.107
6.27201 275.567
6.45075 69.571
6.62952 53.6065
6.8083 51.5748
6.98711 41.6962
7.16591 44.8116
7.34475 69.1008
7.5236 53.8837
7.70247 43.6874
7.88135 37.5005
8.06026 39.5025
8.23919 44.9896
8.41812 57.6834
8.59709 176.776
8.77609 546.392
8.9551 77.0693
9.13412 60.8599
9.31318 267.947
9.49226 54.9376
9.67134 55.2082
9.85047 62.4099
10.0296 108.648
10.2088 577.889
10.388 118.12
10.5672 95.4006
10.7465 236.82
10.9257 49.8248
11.105 43.8695
11.2844 42.7006
11.4637 38.811
11.6431 38.3869
11.8225 37.7711
12.002 82.2788
12.1814 48.6765
12.3609 95.1822
12.5405 43.6814
12.72 41.9734
12.8996 40.2641
13.0792 44.1054
13.2589 67.521
13.4386 170.284
13.6183 87.7924
13.7981 177.797
13.9779 58.0206
14.1577 51.343
14.3376 46.5302
14.5175 39.6988
14.6974 39.6873
14.8774 45.4981
15.0574 65.8482
15.2374 76.0472
15.4175 41.6039
15.5976 39.3935
15.7778 43.1167
15.958 57.7438
16.1382 98.8709
16.3185 39.1294
16.4988 34.2211
16.6792 32.7319
16.8596 32.7031
17.04 40.8737
17.2205 34.6005
17.401 38.0331
17.5815 43.6829
17.7622 36.2215
17.9428 40.3995
18.1237 44.3898
18.3044 93.1526
18.4852 55.0596
18.666 56.1783
18.8469 36.5198
19.0278 34.3429
19.2088 34.7015
19.3898 42.0394
19.5709 47.009
19.752 34.7612
19.9332 32.5307
20.1144 33.3515
20.2957 44.1828
20.477 38.8902
20.6586 35.8105
20.84 32.7205
21.0215 29.9214
21.203 29.3926
21.3846 30.1841
21.5662 31.6596
21.7479 30.3588
21.9297 31.7305
22.1115 42.0865
22.2933 39.8044
22.4753 33.5793
22.6572 30.3747
22.8393 31.2065
23.0214 31.6074
23.2037 39.7204
23.3859 32.6991
23.5682 34.0957
23.7505 34.9853
23.9329 36.3314
24.1154 29.2054
24.2979 27.693
24.4805 26.9377
24.6631 26.8655
24.8458 27.7596
25.0286 26.5541
25.2114 26.7464
25.3943 29.1092
25.5773 30.0525
25.7605 27.3918
25.9436 26.7907
26.1268 25.7267
26.31 26.9441
26.4933 26.9565
26.6767 26.0338
26.8601 27.7386
27.0437 28.9089
27.2272 26.1612
27.4109 24.9738
27.5946 24.8851
27.7784 25.0629
27.9623 24.8508
28.1462 25.582
28.3304 26.7795
28.5145 26.0771
28.6987 24.3563
28.8829 23.1458
29.0673 22.7176
29.2517 23.2805
29.4361 22.198
29.6207 22.1934
29.8053 22.3105
29.99 21.3448
30.1748 21.4631
30.3597 21.1625
30.5447 21.5119
30.7297 21.014
30.915 21.2736
31.1002 22.0751
31.2855 21.1966
31.4708 20.5101
31.6563 20.675
31.8418 20.9785
32.0275 20.2596
32.2132 20.3181
32.399 20.1424
32.5848 19.4027
32.7708 18.92
32.9569 18.8709
33.143 18.7663
33.3293 18.4292
33.5158 18.6968
33.7022 18.5585
33.8887 17.8792
34.0753 17.6324
34.262 17.5317
34.4488 17.1569
34.6357 17.0631
34.8227 16.7821
35.0098 16.5286
35.1969 16.341
35.3842 16.2539
35.5716 16.1863
35.759 16.3696
35.9468 16.1449
36.1345 15.806
36.3222 15.599
36.5101 15.5053
36.6981 15.2237
36.8861 15.0838
37.0743 14.9132
37.2626 14.6827
37.451 14.4479
37.6395 14.3922
37.8281 14.1175
38.0168 13.9971
38.2056 13.8804
38.3945 13.5404
38.5837 13.4783
38.7728 13.3339
38.9621 13.1366
39.1514 13.0333
39.3409 12.7791
39.5304 12.6662
39.7201 12.5003
39.9099 12.3051
40.0999 12.2446
40.2899 12.1798
40.48 11.917
40.6703 11.795
40.8607 11.6962
41.0512 11.5704
41.242 11.434
41.4327 11.2547
41.6236 11.0737
41.8146 10.9641
42.0057 10.8387
42.1969 10.7319
42.3882 10.5662
42.5797 10.4481
42.7713 10.2448
42.963 10.1107
43.1549 10.024
43.3468 9.80869
43.5389 9.7383
43.7312 9.59134
43.9237 9.51904
44.1162 9.35409
44.3088 9.2239
44.5016 9.07445
44.6945 9.01269
44.8875 8.90985
45.0806 8.71493
45.2739 8.64836
45.4673 8.54194
45.6609 8.43778
45.8546 8.29714
46.0484 8.2071
46.2424 8.06634
46.4365 7.97575
46.631 7.84155
46.8254 7.75349
47.0199 7.6427
47.2146 7.53475
47.4095 7.38108
47.6044 7.28833
47.7996 7.18334
47.9948 7.08443
48.1902 6.99484
48.3858 6.91674
48.5815 6.81003
48.7774 6.71089
48.9734 6.66011
49.1696 6.53144
49.3661 6.40964
49.5626 6.33746
49.7592 6.2371
49.956 6.17164
50.153 6.09363
50.3501 6.01076
50.5474 5.9252
50.7448 5.81299
50.9424 5.7646
51.1402 5.65131
51.3381 5.58011
51.5362 5.50867
51.7344 5.39361
51.9328 5.34052
52.1316 5.20651
52.3304 5.12426
52.5293 5.07835
52.7284 4.97846
52.9276 4.89828
53.1271 4.83909
53.3267 4.76575
53.5265 4.70782
53.7264 4.57316
53.9266 4.4954
54.1269 4.40386
54.3274 4.33532
54.528 4.14342
54.7289 4.07173
54.9301 3.9101
55.1314 3.85119
55.3328 3.64145
55.5344 3.55789
55.7361 3.46823