File: XRD/Ni3Fe_FD0196.xy
TT I
1.27165 7.87027
1.45013 6.8183
1.62863 5.38149
1.80712 5.30939
1.98562 5.21287
2.16411 5.0229
2.34263 4.36996
2.52115 5.13385
2.69965 5.84891
2.87818 7.63269
3.05672 11.3878
3.23527 15.1802
3.4138 19.3995
3.59237 22.5482
3.77094 25.9185
3.9495 30.2816
4.12809 34.8836
4.30669 40.7533
4.4853 48.6368
4.6639 58.3024
4.84253 71.4771
5.02118 96.8939
5.19981 777.744
5.37848 324.383
5.55716 112.674
5.73586 101.823
5.91455 110.995
6.09328 3364.53
6.27201 90.6516
6.45075 70.453
6.62952 64.2186
6.8083 60.1012
6.98711 57.4723
7.16591 56.2257
7.34475 55.8663
7.5236 58.5966
7.70247 57.6818
7.88135 60.027
8.06026 64.9833
8.23919 73.1146
8.41812 90.165
8.59709 1012.65
8.77609 113.381
8.9551 90.4852
9.13412 87.1764
9.31318 89.1515
9.49226 89.4332
9.67134 94.8988
9.85047 106.471
10.0296 553.436
10.2088 669.622
10.388 111.779
10.5672 407.404
10.7465 93.6622
10.9257 80.7895
11.105 74.6318
11.2844 70.6811
11.4637 67.5256
11.6431 66.1729
11.8225 65.1389
12.002 68.7219
12.1814 134.184
12.3609 71.9271
12.5405 67.2658
12.72 69.6727
12.8996 74.4762
13.0792 85.1956
13.2589 220.577
13.4386 161.405
13.6183 215.244
13.7981 120.404
13.9779 80.1263
14.1577 76.8721
14.3376 73.2764
14.5175 72.5732
14.6974 74.0284
14.8774 120.131
15.0574 182.635
15.2374 72.5497
15.4175 69.9493
15.5976 69.6957
15.7778 104.936
15.958 178.111
16.1382 64.4514
16.3185 60.1745
16.4988 58.2478
16.6792 56.9946
16.8596 57.5779
17.04 58.6208
17.2205 68.3663
17.401 79.2095
17.5815 61.9568
17.7622 64.6596
17.9428 84.8085
18.1237 132.173
18.3044 89.6121
18.4852 87.7014
18.666 63.416
18.8469 61.123
19.0278 59.3089
19.2088 63.5524
19.3898 74.5707
19.5709 57.4661
19.752 55.9273
19.9332 59.7945
20.1144 71.793
20.2957 63.8153
20.477 57.8041
20.6586 52.1086
20.84 51.388
21.0215 51.3334
21.203 52.3396
21.3846 51.7413
21.5662 51.375
21.7479 55.2487
21.9297 65.4155
22.1115 57.3117
22.2933 52.8999
22.4753 50.9148
22.6572 51.7054
22.8393 53.9046
23.0214 59.534
23.2037 51.4002
23.3859 52.8524
23.5682 56.7783
23.7505 52.0655
23.9329 47.4829
24.1154 46.2232
24.2979 45.4438
24.4805 44.9481
24.6631 44.8353
24.8458 44.4752
25.0286 45.0726
25.2114 46.4422
25.3943 46.5012
25.5773 43.0042
25.7605 42.5209
25.9436 42.6468
26.1268 43.303
26.31 42.2153
26.4933 42.4911
26.6767 43.8389
26.8601 42.5098
27.0437 40.7763
27.2272 40.3936
27.4109 39.9366
27.5946 40.2343
27.7784 39.724
27.9623 39.892
28.1462 40.6491
28.3304 39.0028
28.5145 37.6529
28.6987 37.1684
28.8829 36.8656
29.0673 36.3632
29.2517 35.8195
29.4361 35.6178
29.6207 34.7874
29.8053 34.3873
29.99 34.0913
30.1748 33.8491
30.3597 33.8421
30.5447 33.6301
30.7297 33.5308
30.915 33.0943
31.1002 32.6034
31.2855 32.2482
31.4708 32.075
31.6563 31.8145
31.8418 31.5059
32.0275 31.2643
32.2132 30.7465
32.399 30.2664
32.5848 29.8145
32.7708 29.4802
32.9569 29.3055
33.143 29.0419
33.3293 28.6551
33.5158 28.1721
33.7022 27.8003
33.8887 27.5777
34.0753 27.2759
34.262 26.8161
34.4488 26.4071
34.6357 26.0375
34.8227 25.8459
35.0098 25.6277
35.1969 25.2627
35.3842 25.0048
35.5716 24.8495
35.759 24.4947
35.9468 24.1227
36.1345 23.9294
36.3222 23.6374
36.5101 23.3837
36.6981 23.1775
36.8861 22.8218
37.0743 22.4411
37.2626 22.1541
37.451 21.8989
37.6395 21.7375
37.8281 21.4194
38.0168 21.1196
38.2056 20.8609
38.3945 20.5656
38.5837 20.3303
38.7728 20.0861
38.9621 19.7638
39.1514 19.5177
39.3409 19.2632
39.5304 19.0503
39.7201 18.8473
39.9099 18.619
40.0999 18.3797
40.2899 18.1143
40.48 17.8994
40.6703 17.7187
40.8607 17.4585
41.0512 17.1962
41.242 17.0221
41.4327 16.7624
41.6236 16.5692
41.8146 16.3241
42.0057 16.1353
42.1969 15.8768
42.3882 15.6917
42.5797 15.4643
42.7713 15.2729
42.963 14.9884
43.1549 14.8394
43.3468 14.6122
43.5389 14.4416
43.7312 14.2259
43.9237 14.0552
44.1162 13.7999
44.3088 13.6535
44.5016 13.4732
44.6945 13.2972
44.8875 13.0783
45.0806 12.9066
45.2739 12.6885
45.4673 12.5689
45.6609 12.3702
45.8546 12.2568
46.0484 12.0531
46.2424 11.8523
46.4365 11.6713
46.631 11.5058
46.8254 11.322
47.0199 11.1761
47.2146 11.0183
47.4095 10.8504
47.6044 10.6743
47.7996 10.4979
47.9948 10.3523
48.1902 10.2089
48.3858 10.0404
48.5815 9.93688
48.7774 9.78116
48.9734 9.63876
49.1696 9.47893
49.3661 9.35653
49.5626 9.23578
49.7592 9.0756
49.956 8.95521
50.153 8.82097
50.3501 8.65694
50.5474 8.53824
50.7448 8.42108
50.9424 8.27325
51.1402 8.14174
51.3381 8.00567
51.5362 7.88732
51.7344 7.7403
51.9328 7.61211
52.1316 7.47405
52.3304 7.37509
52.5293 7.27161
52.7284 7.12282
52.9276 7.01556
53.1271 6.86975
53.3267 6.77099
53.5265 6.62509
53.7264 6.54241
53.9266 6.4359
54.1269 6.28199
54.3274 6.18352
54.528 6.01168
54.7289 5.85102
54.9301 5.68133
55.1314 5.53079
55.3328 5.28325
55.5344 5.05108
55.7361 4.99658