File: XRD/Ni3Fe_FD0035.xy
TT I
1.27165 32.3678
1.45013 27.7727
1.62863 24.3761
1.80712 22.75
1.98562 22.3412
2.16411 23.5636
2.34263 23.8601
2.52115 23.4482
2.69965 26.8132
2.87818 37.602
3.05672 64.6022
3.23527 72.1272
3.4138 37.7612
3.59237 34.7095
3.77094 33.4594
3.9495 31.4124
4.12809 39.6066
4.30669 73.8938
4.4853 50.3022
4.6639 43.7277
4.84253 52.4957
5.02118 88.9987
5.19981 299.143
5.37848 3503.01
5.55716 154.599
5.73586 100.844
5.91455 114.827
6.09328 510.211
6.27201 271.504
6.45075 68.3303
6.62952 52.5234
6.8083 49.8654
6.98711 41.6187
7.16591 43.879
7.34475 65.4913
7.5236 53.4446
7.70247 44.0474
7.88135 37.5118
8.06026 39.4554
8.23919 44.9828
8.41812 57.5728
8.59709 177.514
8.77609 536.412
8.9551 77.2199
9.13412 61.2081
9.31318 278.895
9.49226 55.2255
9.67134 55.061
9.85047 61.9372
10.0296 108.829
10.2088 584.129
10.388 116.933
10.5672 95.5965
10.7465 235.851
10.9257 49.6865
11.105 43.6216
11.2844 42.132
11.4637 38.7909
11.6431 38.1878
11.8225 37.7507
12.002 85.5123
12.1814 48.8226
12.3609 94.6421
12.5405 43.5747
12.72 41.608
12.8996 40.0144
13.0792 44.1831
13.2589 67.3248
13.4386 171.461
13.6183 87.8867
13.7981 178.794
13.9779 57.8196
14.1577 51.8939
14.3376 46.4996
14.5175 39.8266
14.6974 39.7169
14.8774 45.7823
15.0574 66.1431
15.2374 75.3661
15.4175 41.5859
15.5976 39.4637
15.7778 43.5169
15.958 57.895
16.1382 98.18
16.3185 38.9133
16.4988 34.3718
16.6792 32.6927
16.8596 32.9255
17.04 41.1456
17.2205 34.6696
17.401 38.2533
17.5815 43.3772
17.7622 36.3867
17.9428 40.4416
18.1237 44.3368
18.3044 92.9737
18.4852 55.1829
18.666 55.8376
18.8469 36.5549
19.0278 34.4763
19.2088 34.6511
19.3898 42.3538
19.5709 47.0064
19.752 34.7142
19.9332 32.7354
20.1144 33.3511
20.2957 44.1736
20.477 38.9074
20.6586 35.4901
20.84 32.7774
21.0215 29.9329
21.203 29.4159
21.3846 30.0442
21.5662 31.7153
21.7479 30.4986
21.9297 31.7907
22.1115 42.0218
22.2933 39.8412
22.4753 33.4172
22.6572 30.3315
22.8393 31.2704
23.0214 31.4116
23.2037 39.4866
23.3859 32.4817
23.5682 34.1352
23.7505 35.1016
23.9329 36.0914
24.1154 29.232
24.2979 27.71
24.4805 27.0299
24.6631 27.0465
24.8458 27.6998
25.0286 26.5711
25.2114 26.7195
25.3943 29.0885
25.5773 30.1079
25.7605 27.4014
25.9436 26.9528
26.1268 25.7929
26.31 26.9578
26.4933 27.02
26.6767 25.9231
26.8601 27.6768
27.0437 28.8444
27.2272 26.0095
27.4109 24.7733
27.5946 24.8902
27.7784 25.2236
27.9623 24.8161
28.1462 25.6084
28.3304 26.9014
28.5145 25.9213
28.6987 24.2499
28.8829 23.0156
29.0673 22.7125
29.2517 23.2034
29.4361 22.2084
29.6207 22.1446
29.8053 22.1791
29.99 21.3831
30.1748 21.5503
30.3597 21.1019
30.5447 21.4216
30.7297 21.0524
30.915 21.2328
31.1002 22.0677
31.2855 21.1434
31.4708 20.4943
31.6563 20.5241
31.8418 20.9095
32.0275 20.086
32.2132 20.328
32.399 20.1453
32.5848 19.4314
32.7708 18.9648
32.9569 18.8216
33.143 18.7226
33.3293 18.452
33.5158 18.6504
33.7022 18.4488
33.8887 17.9003
34.0753 17.6696
34.262 17.5137
34.4488 17.1807
34.6357 17.0203
34.8227 16.8404
35.0098 16.5411
35.1969 16.3876
35.3842 16.2218
35.5716 16.1538
35.759 16.2808
35.9468 16.193
36.1345 15.776
36.3222 15.5843
36.5101 15.4978
36.6981 15.1997
36.8861 15.0891
37.0743 14.9398
37.2626 14.6105
37.451 14.4727
37.6395 14.3305
37.8281 14.0822
38.0168 13.9349
38.2056 13.7694
38.3945 13.5344
38.5837 13.389
38.7728 13.2627
38.9621 13.1355
39.1514 12.9654
39.3409 12.7409
39.5304 12.5938
39.7201 12.476
39.9099 12.3447
40.0999 12.2073
40.2899 12.107
40.48 11.8824
40.6703 11.8037
40.8607 11.6766
41.0512 11.5836
41.242 11.3885
41.4327 11.1889
41.6236 11.0862
41.8146 10.9662
42.0057 10.814
42.1969 10.7035
42.3882 10.5336
42.5797 10.4028
42.7713 10.2768
42.963 10.0933
43.1549 10.0033
43.3468 9.81429
43.5389 9.68859
43.7312 9.55284
43.9237 9.45796
44.1162 9.35144
44.3088 9.2157
44.5016 9.08953
44.6945 8.95955
44.8875 8.89656
45.0806 8.77689
45.2739 8.62383
45.4673 8.49786
45.6609 8.40655
45.8546 8.32074
46.0484 8.24559
46.2424 8.09181
46.4365 7.95122
46.631 7.83837
46.8254 7.71037
47.0199 7.61942
47.2146 7.5153
47.4095 7.41789
47.6044 7.28377
47.7996 7.19711
47.9948 7.06124
48.1902 6.99708
48.3858 6.88305
48.5815 6.81666
48.7774 6.72361
48.9734 6.62194
49.1696 6.52046
49.3661 6.40245
49.5626 6.33422
49.7592 6.2521
49.956 6.15342
50.153 6.06951
50.3501 5.9877
50.5474 5.88546
50.7448 5.82024
50.9424 5.73628
51.1402 5.62714
51.3381 5.54949
51.5362 5.48858
51.7344 5.37589
51.9328 5.3099
52.1316 5.19937
52.3304 5.13818
52.5293 5.04617
52.7284 4.99264
52.9276 4.93611
53.1271 4.83728
53.3267 4.76481
53.5265 4.6559
53.7264 4.62229
53.9266 4.53831
54.1269 4.42103
54.3274 4.31224
54.528 4.19533
54.7289 4.01529
54.9301 3.92364
55.1314 3.84307
55.3328 3.64613
55.5344 3.53503
55.7361 3.43678