File: XRD/Ni3Fe_FD0493.xy
TT I
1.27165 7.39594
1.45013 5.81073
1.62863 5.39798
1.80712 5.03076
1.98562 4.69283
2.16411 4.89618
2.34263 5.5992
2.52115 6.21266
2.69965 7.21917
2.87818 8.18171
3.05672 10.8608
3.23527 14.9128
3.4138 18.8238
3.59237 23.859
3.77094 26.422
3.9495 30.1242
4.12809 35.3453
4.30669 178.244
4.4853 62.5402
4.6639 56.1626
4.84253 68.1699
5.02118 89.1837
5.19981 423.216
5.37848 206.23
5.55716 104.565
5.73586 94.1662
5.91455 97.3858
6.09328 4208.93
6.27201 84.4611
6.45075 68.4373
6.62952 63.5962
6.8083 59.3453
6.98711 56.4999
7.16591 55.9157
7.34475 84.5872
7.5236 55.327
7.70247 56.8564
7.88135 58.5702
8.06026 63.1424
8.23919 70.3088
8.41812 86.4397
8.59709 1208.97
8.77609 102.314
8.9551 91.856
9.13412 83.0564
9.31318 83.7794
9.49226 85.9118
9.67134 98.3979
9.85047 101.516
10.0296 376.13
10.2088 461.443
10.388 106.229
10.5672 504.952
10.7465 88.0893
10.9257 79.5549
11.105 73.2406
11.2844 70.8559
11.4637 65.9222
11.6431 64.2495
11.8225 63.2381
12.002 64.7854
12.1814 155.657
12.3609 71.0394
12.5405 65.7388
12.72 70.2724
12.8996 72.1555
13.0792 80.1257
13.2589 244.935
13.4386 131.492
13.6183 250.125
13.7981 103.364
13.9779 76.8934
14.1577 73.4002
14.3376 72.2526
14.5175 69.8171
14.6974 71.6855
14.8774 114.333
15.0574 156.737
15.2374 71.9653
15.4175 67.5979
15.5976 66.8238
15.7778 98.5113
15.958 158.984
16.1382 63.1919
16.3185 59.3022
16.4988 56.088
16.6792 55.1513
16.8596 56.075
17.04 56.4837
17.2205 68.1248
17.401 72.799
17.5815 60.4347
17.7622 62.1994
17.9428 75.7996
18.1237 136.235
18.3044 91.8232
18.4852 80.7524
18.666 61.3278
18.8469 58.8125
19.0278 57.7279
19.2088 60.6327
19.3898 75.5714
19.5709 55.2173
19.752 53.9243
19.9332 57.2548
20.1144 69.9467
20.2957 64.4055
20.477 54.9237
20.6586 50.3097
20.84 49.5869
21.0215 49.3058
21.203 51.4418
21.3846 49.722
21.5662 49.529
21.7479 53.4849
21.9297 64.7912
22.1115 56.6398
22.2933 50.818
22.4753 49.5973
22.6572 49.6615
22.8393 52.8507
23.0214 57.7679
23.2037 49.5861
23.3859 50.5632
23.5682 56.9988
23.7505 49.448
23.9329 45.8501
24.1154 44.801
24.2979 44.1455
24.4805 43.6013
24.6631 43.4604
24.8458 42.9504
25.0286 43.53
25.2114 45.2986
25.3943 45.0957
25.5773 41.5411
25.7605 40.9903
25.9436 41.4468
26.1268 42.2172
26.31 40.7842
26.4933 41.4226
26.6767 42.7582
26.8601 40.9677
27.0437 39.5586
27.2272 39.1985
27.4109 38.9144
27.5946 38.9126
27.7784 38.4876
27.9623 39.0198
28.1462 39.423
28.3304 37.7376
28.5145 36.5742
28.6987 36.1795
28.8829 35.9327
29.0673 35.2327
29.2517 34.8407
29.4361 34.6722
29.6207 33.566
29.8053 33.3757
29.99 33.1876
30.1748 33.0056
30.3597 32.7802
30.5447 32.7451
30.7297 32.6403
30.915 32.1519
31.1002 31.5015
31.2855 31.4009
31.4708 31.2564
31.6563 30.9097
31.8418 30.6106
32.0275 30.3583
32.2132 29.8493
32.399 29.3867
32.5848 28.9117
32.7708 28.5442
32.9569 28.4218
33.143 28.2425
33.3293 27.8198
33.5158 27.3997
33.7022 27.0975
33.8887 26.5904
34.0753 26.3192
34.262 25.9709
34.4488 25.7081
34.6357 25.2749
34.8227 25.0347
35.0098 24.8605
35.1969 24.4789
35.3842 24.2405
35.5716 24.1578
35.759 23.8262
35.9468 23.5067
36.1345 23.2259
36.3222 23.0195
36.5101 22.7444
36.6981 22.4321
36.8861 22.1017
37.0743 21.8524
37.2626 21.583
37.451 21.2361
37.6395 21.089
37.8281 20.8441
38.0168 20.5239
38.2056 20.2989
38.3945 19.9203
38.5837 19.7495
38.7728 19.4959
38.9621 19.2118
39.1514 18.9872
39.3409 18.7417
39.5304 18.5267
39.7201 18.3013
39.9099 18.0561
40.0999 17.8831
40.2899 17.627
40.48 17.456
40.6703 17.1995
40.8607 17.0252
41.0512 16.7492
41.242 16.4646
41.4327 16.254
41.6236 16.0597
41.8146 15.9099
42.0057 15.6743
42.1969 15.4554
42.3882 15.2677
42.5797 15.0481
42.7713 14.8723
42.963 14.5787
43.1549 14.4516
43.3468 14.2486
43.5389 14.044
43.7312 13.8349
43.9237 13.6582
44.1162 13.4551
44.3088 13.2715
44.5016 13.0856
44.6945 12.8853
44.8875 12.7324
45.0806 12.5478
45.2739 12.3886
45.4673 12.2148
45.6609 11.9869
45.8546 11.8572
46.0484 11.7402
46.2424 11.5427
46.4365 11.3965
46.631 11.1616
46.8254 10.9537
47.0199 10.867
47.2146 10.7265
47.4095 10.533
47.6044 10.3892
47.7996 10.2294
47.9948 10.0572
48.1902 9.93422
48.3858 9.82422
48.5815 9.6669
48.7774 9.52246
48.9734 9.39429
49.1696 9.21798
49.3661 9.08252
49.5626 8.95562
49.7592 8.8225
49.956 8.70923
50.153 8.52656
50.3501 8.41692
50.5474 8.31147
50.7448 8.14355
50.9424 8.01342
51.1402 7.9144
51.3381 7.81198
51.5362 7.65535
51.7344 7.52474
51.9328 7.36348
52.1316 7.27916
52.3304 7.17314
52.5293 7.05397
52.7284 6.9724
52.9276 6.85734
53.1271 6.72358
53.3267 6.59178
53.5265 6.46719
53.7264 6.38821
53.9266 6.22471
54.1269 6.12886
54.3274 6.0653
54.528 5.90382
54.7289 5.69909
54.9301 5.52236
55.1314 5.47322
55.3328 5.21476
55.5344 5.02223
55.7361 4.86121