File: XRD/Ni3Fe_FD0097.xy
TT I
1.27165 8.98674
1.45013 7.1771
1.62863 6.46379
1.80712 5.95109
1.98562 5.28569
2.16411 5.054
2.34263 4.25495
2.52115 3.63457
2.69965 4.44378
2.87818 7.60199
3.05672 11.01
3.23527 14.9945
3.4138 17.9578
3.59237 21.3795
3.77094 24.7129
3.9495 28.072
4.12809 32.2794
4.30669 37.3315
4.4853 44.2897
4.6639 52.9118
4.84253 65.5018
5.02118 93.9814
5.19981 681.593
5.37848 726.82
5.55716 112.359
5.73586 97.8418
5.91455 112.344
6.09328 2091.33
6.27201 97.1327
6.45075 66.677
6.62952 59.1802
6.8083 55.1875
6.98711 52.7934
7.16591 51.6858
7.34475 51.5367
7.5236 59.324
7.70247 53.3243
7.88135 55.2765
8.06026 60.025
8.23919 67.2309
8.41812 84.3283
8.59709 740.626
8.77609 131.636
8.9551 85.1586
9.13412 80.7518
9.31318 96.9882
9.49226 82.4907
9.67134 87.1401
9.85047 98.3389
10.0296 596.118
10.2088 1225.18
10.388 105.604
10.5672 252.936
10.7465 96.3282
10.9257 74.8579
11.105 69.1599
11.2844 65.0119
11.4637 62.5167
11.6431 61.1529
11.8225 60.1941
12.002 70.2708
12.1814 102.236
12.3609 82.2365
12.5405 61.9601
12.72 64.2157
12.8996 68.4279
13.0792 78.5931
13.2589 182.103
13.4386 263.51
13.6183 165.34
13.7981 190.479
13.9779 75.2642
14.1577 77.3688
14.3376 67.8617
14.5175 67.309
14.6974 68.5051
14.8774 120.155
15.0574 208.197
15.2374 68.447
15.4175 64.8482
15.5976 64.567
15.7778 108.269
15.958 173.085
16.1382 62.4341
16.3185 56.5629
16.4988 53.9867
16.6792 52.925
16.8596 53.3036
17.04 54.637
17.2205 62.9568
17.401 80.6938
17.5815 58.0866
17.7622 60.5625
17.9428 85.0098
18.1237 98.1932
18.3044 87.7177
18.4852 100.163
18.666 60.1277
18.8469 57.3273
19.0278 55.8504
19.2088 61.4266
19.3898 64.473
19.5709 57.1842
19.752 52.5465
19.9332 57.6404
20.1144 62.7757
20.2957 59.3267
20.477 61.0437
20.6586 49.0803
20.84 48.3744
21.0215 48.1852
21.203 48.2826
21.3846 50.3071
21.5662 48.111
21.7479 53.224
21.9297 57.9019
22.1115 56.0844
22.2933 52.9986
22.4753 48.0221
22.6572 48.341
22.8393 50.8571
23.0214 54.2592
23.2037 49.8058
23.3859 51.2291
23.5682 50.7364
23.7505 54.8896
23.9329 44.9565
24.1154 43.5859
24.2979 42.8934
24.4805 42.2265
24.6631 42.3742
24.8458 41.9089
25.0286 42.222
25.2114 43.1246
25.3943 43.4878
25.5773 41.4549
25.7605 39.9801
25.9436 40.259
26.1268 40.4077
26.31 40.6088
26.4933 40.1244
26.6767 40.6644
26.8601 40.8332
27.0437 39.1509
27.2272 38.333
27.4109 37.786
27.5946 37.8104
27.7784 38.0352
27.9623 37.6405
28.1462 38.3356
28.3304 37.528
28.5145 35.8831
28.6987 35.4226
28.8829 34.8046
29.0673 34.7123
29.2517 33.8884
29.4361 33.5709
29.6207 33.1282
29.8053 32.5845
29.99 32.2749
30.1748 31.9652
30.3597 32.0774
30.5447 31.6824
30.7297 31.5774
30.915 31.5947
31.1002 31.0987
31.2855 30.4879
31.4708 30.3391
31.6563 30.4207
31.8418 29.784
32.0275 29.6132
32.2132 29.2164
32.399 28.6976
32.5848 28.2263
32.7708 27.868
32.9569 27.7142
33.143 27.3334
33.3293 27.1457
33.5158 26.874
33.7022 26.3303
33.8887 26.0375
34.0753 25.8221
34.262 25.2895
34.4488 24.9522
34.6357 24.6897
34.8227 24.4473
35.0098 24.22
35.1969 23.8775
35.3842 23.7246
35.5716 23.522
35.759 23.2138
35.9468 22.8198
36.1345 22.6523
36.3222 22.3379
36.5101 22.1174
36.6981 21.8217
36.8861 21.572
37.0743 21.2716
37.2626 21.0117
37.451 20.6792
37.6395 20.5544
37.8281 20.2337
38.0168 19.9719
38.2056 19.6563
38.3945 19.507
38.5837 19.2038
38.7728 18.9672
38.9621 18.7725
39.1514 18.494
39.3409 18.2346
39.5304 18.0058
39.7201 17.8315
39.9099 17.6408
40.0999 17.3668
40.2899 17.1799
40.48 16.9292
40.6703 16.6901
40.8607 16.5354
41.0512 16.3072
41.242 16.0416
41.4327 15.8891
41.6236 15.6707
41.8146 15.4746
42.0057 15.2771
42.1969 15.0155
42.3882 14.8219
42.5797 14.6004
42.7713 14.4515
42.963 14.2664
43.1549 14.1026
43.3468 13.8388
43.5389 13.645
43.7312 13.4719
43.9237 13.2859
44.1162 13.1111
44.3088 12.9145
44.5016 12.7495
44.6945 12.5746
44.8875 12.4173
45.0806 12.2129
45.2739 12.0531
45.4673 11.9036
45.6609 11.7508
45.8546 11.5454
46.0484 11.3808
46.2424 11.236
46.4365 11.0852
46.631 10.8593
46.8254 10.7354
47.0199 10.6086
47.2146 10.438
47.4095 10.3048
47.6044 10.1092
47.7996 9.97194
47.9948 9.82588
48.1902 9.70784
48.3858 9.55873
48.5815 9.43267
48.7774 9.28032
48.9734 9.16669
49.1696 9.02288
49.3661 8.85435
49.5626 8.73167
49.7592 8.57245
49.956 8.50387
50.153 8.36838
50.3501 8.22145
50.5474 8.11247
50.7448 7.9658
50.9424 7.86997
51.1402 7.7497
51.3381 7.60998
51.5362 7.51927
51.7344 7.3828
51.9328 7.22116
52.1316 7.09978
52.3304 7.02911
52.5293 6.88092
52.7284 6.74807
52.9276 6.67414
53.1271 6.5636
53.3267 6.41187
53.5265 6.3167
53.7264 6.20999
53.9266 6.08867
54.1269 5.98531
54.3274 5.88631
54.528 5.70374
54.7289 5.55125
54.9301 5.34669
55.1314 5.15714
55.3328 4.95419
55.5344 4.76206
55.7361 4.70832