File: XRD/Ni3Fe_FD0372.xy
TT I
1.27165 7.90152
1.45013 6.64751
1.62863 5.08518
1.80712 5.07184
1.98562 4.77101
2.16411 4.45993
2.34263 5.85565
2.52115 6.6081
2.69965 7.36227
2.87818 8.36379
3.05672 11.094
3.23527 14.8661
3.4138 19.0155
3.59237 23.6632
3.77094 26.5723
3.9495 30.254
4.12809 35.2125
4.30669 147.475
4.4853 59.8139
4.6639 57.0927
4.84253 69.2934
5.02118 91.2868
5.19981 527.787
5.37848 228.71
5.55716 106.785
5.73586 96.6184
5.91455 100.865
6.09328 4054.61
6.27201 86.3682
6.45075 69.6574
6.62952 64.0662
6.8083 60.0523
6.98711 57.295
7.16591 56.3891
7.34475 78.2604
7.5236 56.0884
7.70247 57.481
7.88135 59.2805
8.06026 63.9741
8.23919 71.5077
8.41812 87.8484
8.59709 1192.37
8.77609 105.437
8.9551 92.3024
9.13412 84.8421
9.31318 86.019
9.49226 87.2998
9.67134 97.9601
9.85047 103.359
10.0296 422.195
10.2088 523.872
10.388 109.238
10.5672 474.672
10.7465 89.6854
10.9257 80.2297
11.105 73.9568
11.2844 71.1023
11.4637 66.7283
11.6431 65.4768
11.8225 63.8791
12.002 65.7883
12.1814 149.996
12.3609 71.3044
12.5405 66.145
12.72 70.939
12.8996 73.2141
13.0792 82.0421
13.2589 247.181
13.4386 139.86
13.6183 245.554
13.7981 107.674
13.9779 78.2316
14.1577 74.0935
14.3376 72.8015
14.5175 70.9762
14.6974 72.7837
14.8774 119.408
15.0574 160.965
15.2374 72.5654
15.4175 68.3576
15.5976 68.0227
15.7778 102.424
15.958 166.463
16.1382 63.9576
16.3185 59.86
16.4988 56.8719
16.6792 56.0705
16.8596 56.6744
17.04 57.745
17.2205 69.3327
17.401 74.4918
17.5815 61.0337
17.7622 63.2703
17.9428 78.223
18.1237 134.94
18.3044 92.6332
18.4852 81.9323
18.666 62.086
18.8469 59.8558
19.0278 58.4357
19.2088 61.6922
19.3898 75.4589
19.5709 55.9566
19.752 55.0584
19.9332 58.436
20.1144 70.3346
20.2957 64.3059
20.477 55.8976
20.6586 51.0259
20.84 50.3612
21.0215 50.0461
21.203 51.8476
21.3846 50.501
21.5662 50.5347
21.7479 54.5413
21.9297 65.1249
22.1115 56.9441
22.2933 51.3089
22.4753 50.177
22.6572 50.5532
22.8393 53.8508
23.0214 58.6087
23.2037 50.2168
23.3859 51.5403
23.5682 57.3218
23.7505 50.4081
23.9329 46.7144
24.1154 45.391
24.2979 44.6198
24.4805 44.1634
24.6631 44.0114
24.8458 43.3986
25.0286 44.1134
25.2114 45.9765
25.3943 45.8549
25.5773 42.1098
25.7605 41.6449
25.9436 42.0478
26.1268 42.8138
26.31 41.3238
26.4933 41.9725
26.6767 43.1778
26.8601 41.6303
27.0437 40.0463
27.2272 39.6452
27.4109 39.5001
27.5946 39.5303
27.7784 38.995
27.9623 39.3939
28.1462 39.9806
28.3304 38.3027
28.5145 36.9788
28.6987 36.7032
28.8829 36.3778
29.0673 35.613
29.2517 35.3469
29.4361 35.1532
29.6207 34.2352
29.8053 33.8241
29.99 33.5219
30.1748 33.2672
30.3597 33.2073
30.5447 33.1069
30.7297 33.0868
30.915 32.5535
31.1002 31.9852
31.2855 31.8427
31.4708 31.5853
31.6563 31.2205
31.8418 31.1206
32.0275 30.7365
32.2132 30.3209
32.399 29.7522
32.5848 29.3028
32.7708 28.9523
32.9569 28.6888
33.143 28.5301
33.3293 28.1394
33.5158 27.7964
33.7022 27.344
33.8887 27.0168
34.0753 26.6703
34.262 26.3386
34.4488 25.9315
34.6357 25.7112
34.8227 25.4279
35.0098 25.1442
35.1969 24.7881
35.3842 24.6761
35.5716 24.3096
35.759 24.1435
35.9468 23.854
36.1345 23.4451
36.3222 23.3003
36.5101 22.9931
36.6981 22.6984
36.8861 22.3572
37.0743 22.0628
37.2626 21.83
37.451 21.5346
37.6395 21.4017
37.8281 21.0117
38.0168 20.7865
38.2056 20.5377
38.3945 20.2209
38.5837 20.0353
38.7728 19.8114
38.9621 19.5068
39.1514 19.2669
39.3409 19.0441
39.5304 18.7477
39.7201 18.5652
39.9099 18.3722
40.0999 18.0742
40.2899 17.8534
40.48 17.618
40.6703 17.3538
40.8607 17.1839
41.0512 16.9607
41.242 16.7594
41.4327 16.4881
41.6236 16.2653
41.8146 16.0923
42.0057 15.8657
42.1969 15.6299
42.3882 15.4539
42.5797 15.2017
42.7713 15.0127
42.963 14.8083
43.1549 14.6018
43.3468 14.388
43.5389 14.2107
43.7312 13.9769
43.9237 13.8458
44.1162 13.6362
44.3088 13.4236
44.5016 13.196
44.6945 13.1473
44.8875 12.9205
45.0806 12.7034
45.2739 12.496
45.4673 12.3935
45.6609 12.1904
45.8546 12.0577
46.0484 11.8203
46.2424 11.6464
46.4365 11.5225
46.631 11.3215
46.8254 11.1424
47.0199 10.9644
47.2146 10.8184
47.4095 10.6234
47.6044 10.5421
47.7996 10.3443
47.9948 10.1997
48.1902 10.0476
48.3858 9.96986
48.5815 9.78447
48.7774 9.61388
48.9734 9.48618
49.1696 9.3222
49.3661 9.22504
49.5626 9.01554
49.7592 8.91342
49.956 8.79738
50.153 8.65302
50.3501 8.50172
50.5474 8.36898
50.7448 8.27073
50.9424 8.13824
51.1402 8.02397
51.3381 7.86822
51.5362 7.73625
51.7344 7.64398
51.9328 7.49591
52.1316 7.33364
52.3304 7.27214
52.5293 7.15612
52.7284 7.03143
52.9276 6.88378
53.1271 6.78723
53.3267 6.68021
53.5265 6.51689
53.7264 6.43758
53.9266 6.35257
54.1269 6.21875
54.3274 6.10922
54.528 5.97264
54.7289 5.78796
54.9301 5.56751
55.1314 5.51847
55.3328 5.23774
55.5344 5.07459
55.7361 4.96525