File: XRD/Ni3Fe_FD0335.xy
TT I
1.27165 7.76048
1.45013 6.18143
1.62863 5.5823
1.80712 4.99802
1.98562 4.56756
2.16411 4.5878
2.34263 4.90768
2.52115 6.6427
2.69965 7.3651
2.87818 8.66312
3.05672 11.1806
3.23527 15.1933
3.4138 19.3558
3.59237 23.9906
3.77094 26.5056
3.9495 30.0908
4.12809 35.729
4.30669 160.401
4.4853 60.5481
4.6639 57.0186
4.84253 69.4374
5.02118 91.6055
5.19981 566.54
5.37848 226.206
5.55716 106.549
5.73586 96.0944
5.91455 101.632
6.09328 4072.34
6.27201 85.8473
6.45075 69.662
6.62952 64.3917
6.8083 60.3246
6.98711 56.9484
7.16591 56.4662
7.34475 81.2661
7.5236 55.7554
7.70247 57.5502
7.88135 59.4357
8.06026 63.9279
8.23919 71.6087
8.41812 88.8875
8.59709 1162.17
8.77609 104.862
8.9551 92.6176
9.13412 84.6508
9.31318 85.9098
9.49226 87.2368
9.67134 98.8859
9.85047 103.545
10.0296 429.029
10.2088 495.746
10.388 109.138
10.5672 483.272
10.7465 89.6626
10.9257 80.1847
11.105 73.7006
11.2844 71.302
11.4637 66.6091
11.6431 65.3415
11.8225 64.1828
12.002 66.0214
12.1814 148.275
12.3609 71.6714
12.5405 66.2857
12.72 70.8368
12.8996 73.1768
13.0792 82.552
13.2589 243.963
13.4386 133.066
13.6183 240.906
13.7981 102.702
13.9779 78.1665
14.1577 74.2403
14.3376 73.1374
14.5175 71.0951
14.6974 72.7594
14.8774 118.347
15.0574 156.413
15.2374 72.2825
15.4175 68.2388
15.5976 67.9697
15.7778 101.665
15.958 165.309
16.1382 63.7921
16.3185 60.0329
16.4988 57.0101
16.6792 56.1167
16.8596 56.8686
17.04 57.7864
17.2205 68.9847
17.401 74.474
17.5815 60.9505
17.7622 63.0742
17.9428 78.5057
18.1237 140.186
18.3044 91.6077
18.4852 80.7215
18.666 62.1742
18.8469 59.7127
19.0278 58.6286
19.2088 62.0157
19.3898 77.342
19.5709 55.9104
19.752 54.8728
19.9332 58.3852
20.1144 71.3771
20.2957 64.5517
20.477 55.3857
20.6586 51.1136
20.84 50.3597
21.0215 50.2348
21.203 52.1649
21.3846 50.5776
21.5662 50.4895
21.7479 54.6341
21.9297 66.4538
22.1115 57.1024
22.2933 51.4681
22.4753 50.3333
22.6572 50.599
22.8393 53.531
23.0214 58.9612
23.2037 50.485
23.3859 51.6423
23.5682 57.687
23.7505 49.9103
23.9329 46.6641
24.1154 45.3089
24.2979 44.6362
24.4805 44.2003
24.6631 44.1629
24.8458 43.5724
25.0286 44.2844
25.2114 45.9783
25.3943 46.0939
25.5773 42.0928
25.7605 41.6307
25.9436 42.1594
26.1268 42.7709
26.31 41.4481
26.4933 41.962
26.6767 43.5212
26.8601 41.5932
27.0437 40.118
27.2272 39.5861
27.4109 39.4664
27.5946 39.4849
27.7784 39.051
27.9623 39.5187
28.1462 39.9429
28.3304 38.4202
28.5145 37.02
28.6987 36.5784
28.8829 36.3478
29.0673 35.68
29.2517 35.4222
29.4361 35.1861
29.6207 34.0544
29.8053 33.987
29.99 33.6429
30.1748 33.4451
30.3597 33.1248
30.5447 33.063
30.7297 33.1071
30.915 32.6393
31.1002 32.0388
31.2855 31.8293
31.4708 31.7347
31.6563 31.2839
31.8418 31.0497
32.0275 30.7969
32.2132 30.328
32.399 29.8267
32.5848 29.2756
32.7708 28.9314
32.9569 28.8596
33.143 28.5743
33.3293 28.2182
33.5158 27.7871
33.7022 27.4468
33.8887 26.9975
34.0753 26.7252
34.262 26.4035
34.4488 26.1147
34.6357 25.6895
34.8227 25.3675
35.0098 25.2276
35.1969 24.8591
35.3842 24.6673
35.5716 24.4659
35.759 24.2069
35.9468 23.7441
36.1345 23.5881
36.3222 23.3157
36.5101 23.097
36.6981 22.8021
36.8861 22.4194
37.0743 22.1091
37.2626 21.8891
37.451 21.6064
37.6395 21.4373
37.8281 21.0419
38.0168 20.8511
38.2056 20.5447
38.3945 20.2691
38.5837 20.043
38.7728 19.7005
38.9621 19.4909
39.1514 19.2429
39.3409 19.016
39.5304 18.7245
39.7201 18.5974
39.9099 18.3519
40.0999 18.0855
40.2899 17.877
40.48 17.6335
40.6703 17.4083
40.8607 17.2451
41.0512 16.9863
41.242 16.7163
41.4327 16.5134
41.6236 16.2931
41.8146 16.1396
42.0057 15.8708
42.1969 15.6532
42.3882 15.4777
42.5797 15.2564
42.7713 15.0641
42.963 14.803
43.1549 14.6644
43.3468 14.408
43.5389 14.2449
43.7312 14.0437
43.9237 13.8591
44.1162 13.6271
44.3088 13.4469
44.5016 13.2529
44.6945 13.1145
44.8875 12.9109
45.0806 12.7328
45.2739 12.5436
45.4673 12.3743
45.6609 12.2163
45.8546 12.0489
46.0484 11.8033
46.2424 11.6943
46.4365 11.5124
46.631 11.3123
46.8254 11.1597
47.0199 10.983
47.2146 10.8676
47.4095 10.6616
47.6044 10.5248
47.7996 10.3572
47.9948 10.2267
48.1902 10.0556
48.3858 9.90376
48.5815 9.81298
48.7774 9.6279
48.9734 9.52182
49.1696 9.37571
49.3661 9.22354
49.5626 9.07942
49.7592 8.93054
49.956 8.81726
50.153 8.7006
50.3501 8.51884
50.5474 8.4221
50.7448 8.27764
50.9424 8.13739
51.1402 8.0093
51.3381 7.88403
51.5362 7.73315
51.7344 7.64106
51.9328 7.50259
52.1316 7.36855
52.3304 7.26167
52.5293 7.12317
52.7284 6.98644
52.9276 6.87302
53.1271 6.83106
53.3267 6.68126
53.5265 6.56578
53.7264 6.42147
53.9266 6.32445
54.1269 6.23343
54.3274 6.09077
54.528 5.96017
54.7289 5.76894
54.9301 5.62603
55.1314 5.48548
55.3328 5.32171
55.5344 5.06671
55.7361 4.96298