File: XRD/Ni3Fe_FD0016.xy
TT I
1.27165 36.0254
1.45013 31.825
1.62863 27.8154
1.80712 25.9159
1.98562 25.1326
2.16411 25.8007
2.34263 26.4608
2.52115 25.7286
2.69965 30.0493
2.87818 39.8873
3.05672 66.7904
3.23527 79.2475
3.4138 43.9217
3.59237 39.0249
3.77094 40.782
3.9495 42.1238
4.12809 53.3879
4.30669 78.9786
4.4853 65.7295
4.6639 51.8555
4.84253 57.7357
5.02118 89.2446
5.19981 258.224
5.37848 3975.87
5.55716 160.166
5.73586 99.8399
5.91455 108.986
6.09328 425.466
6.27201 342.533
6.45075 73.5403
6.62952 55.4828
6.8083 52.3495
6.98711 47.4224
7.16591 50.6178
7.34475 69.0479
7.5236 62.3524
7.70247 49.877
7.88135 39.1916
8.06026 39.9747
8.23919 44.9239
8.41812 55.7756
8.59709 148.152
8.77609 720.011
8.9551 79.471
9.13412 58.9909
9.31318 249.585
9.49226 52.5866
9.67134 51.237
9.85047 57.2847
10.0296 92.0173
10.2088 421.157
10.388 143.314
10.5672 89.7998
10.7465 290.598
10.9257 48.9906
11.105 42.3485
11.2844 40.6355
11.4637 38.5753
11.6431 37.5699
11.8225 37.1679
12.002 68.8277
12.1814 46.4831
12.3609 90.202
12.5405 45.5557
12.72 39.7596
12.8996 39.6262
13.0792 41.858
13.2589 62.1967
13.4386 130.894
13.6183 97.5632
13.7981 140.541
13.9779 66.4678
14.1577 46.2909
14.3376 50.132
14.5175 37.3039
14.6974 36.9068
14.8774 41.5936
15.0574 57.0942
15.2374 104.571
15.4175 40.888
15.5976 37.5207
15.7778 39.938
15.958 51.6649
16.1382 129.164
16.3185 40.386
16.4988 33.2369
16.6792 31.1774
16.8596 31.236
17.04 38.9089
17.2205 32.8384
17.401 35.3199
17.5815 50.4128
17.7622 34.6605
17.9428 40.5593
18.1237 42.482
18.3044 83.0666
18.4852 58.1212
18.666 71.0719
18.8469 36.1432
19.0278 32.935
19.2088 32.7894
19.3898 38.3115
19.5709 45.8285
19.752 36.9089
19.9332 31.3414
20.1144 31.9377
20.2957 40.614
20.477 39.4518
20.6586 41.2457
20.84 31.2869
21.0215 29.5901
21.203 28.124
21.3846 28.3958
21.5662 32.5383
21.7479 29.1205
21.9297 30.7464
22.1115 38.9942
22.2933 44.8337
22.4753 37.1482
22.6572 29.706
22.8393 30.0155
23.0214 31.0177
23.2037 37.5086
23.3859 35.2499
23.5682 34.5623
23.7505 33.4146
23.9329 44.5853
24.1154 29.4723
24.2979 27.1599
24.4805 26.0673
24.6631 26.0538
24.8458 27.7516
25.0286 25.8951
25.2114 25.8744
25.3943 28.2228
25.5773 30.5325
25.7605 30.0238
25.9436 26.6337
26.1268 25.4174
26.31 26.1114
26.4933 28.5242
26.6767 25.6739
26.8601 26.7861
27.0437 31.4978
27.2272 27.6019
27.4109 24.5463
27.5946 24.4313
27.7784 24.7016
27.9623 25.3853
28.1462 25.5145
28.3304 26.7089
28.5145 27.9604
28.6987 25.4799
28.8829 22.9412
29.0673 22.4083
29.2517 23.2668
29.4361 22.1175
29.6207 21.7275
29.8053 22.8784
29.99 21.3276
30.1748 21.2478
30.3597 20.9469
30.5447 21.2199
30.7297 21.1405
30.915 21.1135
31.1002 23.1919
31.2855 22.1487
31.4708 20.5288
31.6563 20.5421
31.8418 21.3863
32.0275 20.6578
32.2132 20.3388
32.399 21.1348
32.5848 19.8474
32.7708 18.8669
32.9569 18.6859
33.143 18.8067
33.3293 18.3595
33.5158 18.6883
33.7022 19.1351
33.8887 18.1248
34.0753 17.6765
34.262 17.566
34.4488 17.3131
34.6357 16.9987
34.8227 17.0814
35.0098 16.5621
35.1969 16.3299
35.3842 16.3019
35.5716 16.2084
35.759 16.438
35.9468 16.8499
36.1345 16.2197
36.3222 15.6759
36.5101 15.6389
36.6981 15.5887
36.8861 15.2385
37.0743 15.2943
37.2626 14.9218
37.451 14.5412
37.6395 14.4801
37.8281 14.2845
38.0168 14.033
38.2056 13.9868
38.3945 13.6539
38.5837 13.5435
38.7728 13.4721
38.9621 13.2638
39.1514 13.2296
39.3409 12.9366
39.5304 12.7255
39.7201 12.6033
39.9099 12.4535
40.0999 12.3188
40.2899 12.3545
40.48 12.1069
40.6703 12.0331
40.8607 11.8418
41.0512 11.7111
41.242 11.6377
41.4327 11.4349
41.6236 11.2535
41.8146 11.1356
42.0057 10.9141
42.1969 10.9136
42.3882 10.7568
42.5797 10.5133
42.7713 10.3913
42.963 10.2382
43.1549 10.1325
43.3468 9.93933
43.5389 9.82802
43.7312 9.64234
43.9237 9.5689
44.1162 9.47964
44.3088 9.37883
44.5016 9.24643
44.6945 9.16352
44.8875 9.00781
45.0806 8.93974
45.2739 8.79547
45.4673 8.61196
45.6609 8.49919
45.8546 8.42325
46.0484 8.32686
46.2424 8.17276
46.4365 8.08264
46.631 7.98214
46.8254 7.8465
47.0199 7.73241
47.2146 7.62366
47.4095 7.51784
47.6044 7.37826
47.7996 7.27011
47.9948 7.20167
48.1902 7.0858
48.3858 7.01337
48.5815 6.89796
48.7774 6.80793
48.9734 6.69112
49.1696 6.6029
49.3661 6.50377
49.5626 6.41921
49.7592 6.30711
49.956 6.246
50.153 6.18976
50.3501 6.05759
50.5474 6.01642
50.7448 5.91509
50.9424 5.83698
51.1402 5.7438
51.3381 5.62852
51.5362 5.54095
51.7344 5.47857
51.9328 5.35327
52.1316 5.29233
52.3304 5.23629
52.5293 5.15254
52.7284 5.06264
52.9276 4.9405
53.1271 4.92501
53.3267 4.79046
53.5265 4.71723
53.7264 4.64175
53.9266 4.5547
54.1269 4.46871
54.3274 4.37023
54.528 4.26802
54.7289 4.12893
54.9301 3.99089
55.1314 3.90805
55.3328 3.71321
55.5344 3.6057
55.7361 3.47015