File: XRD/Ni3Fe_FD0781.xy
TT I
1.27165 7.58142
1.45013 6.12154
1.62863 5.39031
1.80712 5.21664
1.98562 4.65263
2.16411 4.95839
2.34263 5.36693
2.52115 7.12081
2.69965 8.34839
2.87818 9.05526
3.05672 11.7923
3.23527 15.1271
3.4138 19.0672
3.59237 24.1005
3.77094 25.8807
3.9495 29.6814
4.12809 34.5454
4.30669 182.438
4.4853 61.8466
4.6639 54.9873
4.84253 66.1392
5.02118 86.0062
5.19981 329.527
5.37848 176.183
5.55716 100.202
5.73586 91.4486
5.91455 92.6308
6.09328 4479.12
6.27201 80.9619
6.45075 66.1598
6.62952 61.7171
6.8083 57.9922
6.98711 55.0837
7.16591 54.6943
7.34475 83.8557
7.5236 54.1795
7.70247 55.4238
7.88135 57.3162
8.06026 61.9121
8.23919 68.8517
8.41812 83.8593
8.59709 1206.95
8.77609 96.8779
8.9551 89.4107
9.13412 80.7374
9.31318 81.724
9.49226 83.2238
9.67134 95.7121
9.85047 99.011
10.0296 333.859
10.2088 349.288
10.388 103.077
10.5672 533.635
10.7465 85.379
10.9257 76.9959
11.105 71.1341
11.2844 68.9948
11.4637 64.3949
11.6431 62.8713
11.8225 61.6657
12.002 62.6968
12.1814 158.223
12.3609 68.4974
12.5405 63.8299
12.72 68.655
12.8996 70.0847
13.0792 78.1305
13.2589 240.434
13.4386 117.09
13.6183 252.046
13.7981 92.4151
13.9779 75.2015
14.1577 71.4049
14.3376 70.5757
14.5175 68.1589
14.6974 69.6702
14.8774 109.555
15.0574 145.334
15.2374 69.7862
15.4175 65.7312
15.5976 65.1363
15.7778 93.485
15.958 150.176
16.1382 61.4235
16.3185 57.883
16.4988 54.7624
16.6792 53.8046
16.8596 54.4832
17.04 55.0149
17.2205 66.3939
17.401 68.859
17.5815 58.5416
17.7622 60.56
17.9428 72.8255
18.1237 142.037
18.3044 90.2562
18.4852 74.4087
18.666 59.753
18.8469 57.3662
19.0278 56.2262
19.2088 58.7533
19.3898 76.1311
19.5709 53.4505
19.752 52.8296
19.9332 55.6249
20.1144 69.7171
20.2957 64.0476
20.477 52.4486
20.6586 48.9285
20.84 48.253
21.0215 48.1718
21.203 50.4265
21.3846 48.2119
21.5662 48.2172
21.7479 52.079
21.9297 64.286
22.1115 55.7675
22.2933 49.1041
22.4753 48.3726
22.6572 48.1339
22.8393 51.428
23.0214 56.6301
23.2037 48.1407
23.3859 49.3275
23.5682 56.9988
23.7505 47.4856
23.9329 44.6992
24.1154 43.4814
24.2979 42.9973
24.4805 42.4639
24.6631 42.3634
24.8458 41.6901
25.0286 42.3613
25.2114 44.2206
25.3943 44.1168
25.5773 40.4257
25.7605 39.8409
25.9436 40.4493
26.1268 41.2225
26.31 39.6535
26.4933 40.3736
26.6767 41.7865
26.8601 39.9109
27.0437 38.4259
27.2272 38.1055
27.4109 37.8778
27.5946 37.9741
27.7784 37.5037
27.9623 38.0214
28.1462 38.3964
28.3304 36.8711
28.5145 35.5735
28.6987 35.2205
28.8829 35.0741
29.0673 34.1854
29.2517 33.9443
29.4361 33.7094
29.6207 32.8156
29.8053 32.5541
29.99 32.3191
30.1748 32.1761
30.3597 31.8134
30.5447 31.7578
30.7297 31.8569
30.915 31.3339
31.1002 30.7285
31.2855 30.5399
31.4708 30.5486
31.6563 29.9929
31.8418 29.8807
32.0275 29.6195
32.2132 29.0633
32.399 28.5629
32.5848 28.1393
32.7708 27.8631
32.9569 27.7263
33.143 27.515
33.3293 27.0565
33.5158 26.702
33.7022 26.322
33.8887 26.0067
34.0753 25.7099
34.262 25.3293
34.4488 25.0739
34.6357 24.7435
34.8227 24.4191
35.0098 24.2864
35.1969 23.9323
35.3842 23.6886
35.5716 23.5077
35.759 23.2414
35.9468 22.8534
36.1345 22.6721
36.3222 22.4252
36.5101 22.1981
36.6981 21.8299
36.8861 21.5568
37.0743 21.3381
37.2626 21.005
37.451 20.8011
37.6395 20.5763
37.8281 20.3322
38.0168 19.9901
38.2056 19.7807
38.3945 19.4121
38.5837 19.2698
38.7728 19.0419
38.9621 18.7691
39.1514 18.5206
39.3409 18.2635
39.5304 18.0901
39.7201 17.8309
39.9099 17.613
40.0999 17.4199
40.2899 17.1916
40.48 16.9251
40.6703 16.7472
40.8607 16.5715
41.0512 16.325
41.242 16.0627
41.4327 15.8626
41.6236 15.6447
41.8146 15.5114
42.0057 15.2891
42.1969 15.019
42.3882 14.9309
42.5797 14.7005
42.7713 14.4627
42.963 14.2584
43.1549 14.0594
43.3468 13.8721
43.5389 13.6852
43.7312 13.4886
43.9237 13.2969
44.1162 13.0911
44.3088 12.8999
44.5016 12.7728
44.6945 12.5809
44.8875 12.4415
45.0806 12.2718
45.2739 12.055
45.4673 11.8478
45.6609 11.7201
45.8546 11.5817
46.0484 11.4057
46.2424 11.2519
46.4365 11.0922
46.631 10.9388
46.8254 10.744
47.0199 10.5872
47.2146 10.4837
47.4095 10.248
47.6044 10.1499
47.7996 9.9912
47.9948 9.81345
48.1902 9.71897
48.3858 9.58007
48.5815 9.4301
48.7774 9.32555
48.9734 9.15476
49.1696 9.00171
49.3661 8.91572
49.5626 8.74033
49.7592 8.61117
49.956 8.46465
50.153 8.3319
50.3501 8.24396
50.5474 8.10347
50.7448 7.95006
50.9424 7.85463
51.1402 7.70876
51.3381 7.61319
51.5362 7.46519
51.7344 7.36193
51.9328 7.23572
52.1316 7.09686
52.3304 6.98407
52.5293 6.84007
52.7284 6.74933
52.9276 6.66661
53.1271 6.58027
53.3267 6.42931
53.5265 6.32935
53.7264 6.19035
53.9266 6.09189
54.1269 5.94683
54.3274 5.88992
54.528 5.73986
54.7289 5.5757
54.9301 5.42401
55.1314 5.32633
55.3328 5.11344
55.5344 4.93026
55.7361 4.75903