File: XRD/Ni3Fe_FD0991.xy
TT I
1.27165 7.44787
1.45013 6.10679
1.62863 5.27065
1.80712 5.18309
1.98562 5.13103
2.16411 5.21771
2.34263 5.24996
2.52115 6.95816
2.69965 8.58342
2.87818 9.1654
3.05672 11.8024
3.23527 14.9358
3.4138 19.3345
3.59237 24.3741
3.77094 25.788
3.9495 29.4612
4.12809 34.5972
4.30669 247.545
4.4853 68.1509
4.6639 54.1583
4.84253 65.5624
5.02118 84.0251
5.19981 268.002
5.37848 172.354
5.55716 99.7534
5.73586 89.7631
5.91455 90.0638
6.09328 4534.55
6.27201 80.7679
6.45075 66.2082
6.62952 62.1251
6.8083 57.8112
6.98711 54.9263
7.16591 54.4869
7.34475 98.221
7.5236 53.9593
7.70247 55.4917
7.88135 56.7104
8.06026 60.8046
8.23919 68.293
8.41812 82.9214
8.59709 1110.49
8.77609 96.6597
8.9551 90.7687
9.13412 79.7741
9.31318 80.2932
9.49226 82.3865
9.67134 97.9928
9.85047 97.0927
10.0296 284.943
10.2088 373.372
10.388 101.848
10.5672 529.603
10.7465 84.2715
10.9257 76.9963
11.105 70.6808
11.2844 69.6478
11.4637 63.6558
11.6431 62.5119
11.8225 61.2611
12.002 62.0843
12.1814 149.888
12.3609 69.7135
12.5405 62.9972
12.72 69.3637
12.8996 69.2786
13.0792 76.5881
13.2589 223.975
13.4386 121.095
13.6183 238.787
13.7981 94.5484
13.9779 74.2278
14.1577 71.1477
14.3376 70.4591
14.5175 67.1482
14.6974 68.586
14.8774 102.639
15.0574 150.513
15.2374 69.947
15.4175 64.9499
15.5976 64.2601
15.7778 88.5193
15.958 153.83
16.1382 61.6771
16.3185 57.5294
16.4988 54.3916
16.6792 53.4451
16.8596 54.0852
17.04 54.4094
17.2205 64.556
17.401 68.7819
17.5815 57.7911
17.7622 59.8114
17.9428 69.9026
18.1237 138.663
18.3044 87.9719
18.4852 75.789
18.666 59.0826
18.8469 56.6103
19.0278 55.8223
19.2088 57.854
19.3898 75.3487
19.5709 53.0737
19.752 52.1559
19.9332 54.6871
20.1144 68.8095
20.2957 63.0844
20.477 52.6544
20.6586 48.6641
20.84 47.8117
21.0215 47.5957
21.203 49.9606
21.3846 47.9828
21.5662 47.5625
21.7479 51.0314
21.9297 63.6799
22.1115 55.2169
22.2933 48.9608
22.4753 47.9391
22.6572 47.6183
22.8393 50.5958
23.0214 56.4531
23.2037 47.8778
23.3859 48.2578
23.5682 56.5072
23.7505 47.1968
23.9329 44.2587
24.1154 43.3751
24.2979 42.5183
24.4805 42.0192
24.6631 41.9903
24.8458 41.2336
25.0286 41.7595
25.2114 43.7949
25.3943 43.8729
25.5773 40.099
25.7605 39.5518
25.9436 40.0132
26.1268 41.0751
26.31 39.2502
26.4933 39.8056
26.6767 41.3998
26.8601 39.6307
27.0437 38.0178
27.2272 37.6175
27.4109 37.6302
27.5946 37.5874
27.7784 37.212
27.9623 37.7054
28.1462 38.0163
28.3304 36.2957
28.5145 35.2603
28.6987 34.9734
28.8829 34.7785
29.0673 33.9458
29.2517 33.6946
29.4361 33.4756
29.6207 32.4652
29.8053 32.2043
29.99 31.8861
30.1748 31.8193
30.3597 31.6183
30.5447 31.3915
30.7297 31.5545
30.915 30.8762
31.1002 30.5136
31.2855 30.3145
31.4708 30.2291
31.6563 29.7969
31.8418 29.6411
32.0275 29.3871
32.2132 28.7822
32.399 28.3275
32.5848 27.9787
32.7708 27.6436
32.9569 27.4811
33.143 27.2366
33.3293 26.8929
33.5158 26.5538
33.7022 25.9891
33.8887 25.774
34.0753 25.4862
34.262 25.2523
34.4488 24.757
34.6357 24.5096
34.8227 24.2761
35.0098 23.9736
35.1969 23.7368
35.3842 23.5111
35.5716 23.3629
35.759 23.0208
35.9468 22.6446
36.1345 22.4748
36.3222 22.1833
36.5101 21.9561
36.6981 21.6752
36.8861 21.4406
37.0743 21.1005
37.2626 20.8453
37.451 20.582
37.6395 20.4196
37.8281 20.0824
38.0168 19.7943
38.2056 19.5376
38.3945 19.3271
38.5837 19.0786
38.7728 18.8477
38.9621 18.5421
39.1514 18.3392
39.3409 18.0503
39.5304 17.9676
39.7201 17.7028
39.9099 17.5645
40.0999 17.2212
40.2899 16.958
40.48 16.8289
40.6703 16.6185
40.8607 16.4582
41.0512 16.1968
41.242 15.9579
41.4327 15.7254
41.6236 15.5579
41.8146 15.341
42.0057 15.1495
42.1969 14.9474
42.3882 14.7912
42.5797 14.5175
42.7713 14.3113
42.963 14.178
43.1549 13.9578
43.3468 13.7749
43.5389 13.6164
43.7312 13.3591
43.9237 13.1759
44.1162 13.0681
44.3088 12.8324
44.5016 12.6169
44.6945 12.5042
44.8875 12.2935
45.0806 12.1355
45.2739 11.9761
45.4673 11.8061
45.6609 11.6124
45.8546 11.5211
46.0484 11.2931
46.2424 11.1253
46.4365 11.0439
46.631 10.8466
46.8254 10.6582
47.0199 10.5505
47.2146 10.3692
47.4095 10.2007
47.6044 10.1013
47.7996 9.88756
47.9948 9.7518
48.1902 9.65568
48.3858 9.48358
48.5815 9.3299
48.7774 9.21876
48.9734 9.10656
49.1696 8.94889
49.3661 8.79505
49.5626 8.65494
49.7592 8.55191
49.956 8.4076
50.153 8.32808
50.3501 8.15029
50.5474 8.04667
50.7448 7.92798
50.9424 7.78299
51.1402 7.67853
51.3381 7.54988
51.5362 7.41414
51.7344 7.28657
51.9328 7.16348
52.1316 7.01529
52.3304 6.96014
52.5293 6.85319
52.7284 6.72166
52.9276 6.60073
53.1271 6.53292
53.3267 6.40335
53.5265 6.30448
53.7264 6.17671
53.9266 6.08352
54.1269 5.98516
54.3274 5.87988
54.528 5.71613
54.7289 5.55082
54.9301 5.37548
55.1314 5.24951
55.3328 5.0368
55.5344 4.82377
55.7361 4.73525