File: XRD/Ni3Fe_FD0751.xy
TT I
1.27165 7.11898
1.45013 5.72617
1.62863 4.89371
1.80712 5.21672
1.98562 4.78735
2.16411 4.91102
2.34263 5.70167
2.52115 7.35249
2.69965 8.58181
2.87818 9.14
3.05672 11.2581
3.23527 15.0383
3.4138 19.0824
3.59237 24.5532
3.77094 26.1571
3.9495 29.5384
4.12809 35.1537
4.30669 242.896
4.4853 67.5745
4.6639 55.4122
4.84253 66.8818
5.02118 86.01
5.19981 313.159
5.37848 186.603
5.55716 101.061
5.73586 91.1857
5.91455 92.7494
6.09328 4326.57
6.27201 83.0028
6.45075 66.6583
6.62952 62.5062
6.8083 58.4719
6.98711 56.0832
7.16591 55.2147
7.34475 96.4663
7.5236 54.8391
7.70247 55.7905
7.88135 57.9164
8.06026 61.9467
8.23919 68.8082
8.41812 84.4281
8.59709 1135.78
8.77609 99.0212
8.9551 91.7384
9.13412 81.1901
9.31318 81.6266
9.49226 83.8123
9.67134 99.0127
9.85047 99.0146
10.0296 313.913
10.2088 403.439
10.388 103.8
10.5672 511.493
10.7465 86.186
10.9257 78.1874
11.105 71.44
11.2844 70.4006
11.4637 64.876
11.6431 63.2021
11.8225 61.9529
12.002 63.0974
12.1814 150.075
12.3609 71.0381
12.5405 64.2716
12.72 70.121
12.8996 70.3838
13.0792 78.0095
13.2589 230.474
13.4386 126.335
13.6183 241.203
13.7981 97.5602
13.9779 75.1174
14.1577 72.1602
14.3376 71.544
14.5175 68.1105
14.6974 69.7818
14.8774 107.253
15.0574 152.497
15.2374 71.0391
15.4175 66.1637
15.5976 65.057
15.7778 91.9156
15.958 157.107
16.1382 62.5127
16.3185 58.5349
16.4988 55.2889
16.6792 53.9325
16.8596 55.1013
17.04 55.2881
17.2205 65.7988
17.401 71.0218
17.5815 58.7008
17.7622 60.7914
17.9428 71.9548
18.1237 138.719
18.3044 89.7491
18.4852 77.656
18.666 59.9445
18.8469 57.6897
19.0278 56.6156
19.2088 59.0228
19.3898 76.3015
19.5709 53.8961
19.752 52.9928
19.9332 55.7439
20.1144 69.2898
20.2957 63.4759
20.477 53.5693
20.6586 49.449
20.84 48.5373
21.0215 48.2207
21.203 50.49
21.3846 48.6543
21.5662 48.3211
21.7479 52.097
21.9297 64.0596
22.1115 55.7068
22.2933 49.5719
22.4753 48.6186
22.6572 48.4786
22.8393 51.5694
23.0214 57.1376
23.2037 48.6048
23.3859 49.2218
23.5682 56.8239
23.7505 48.0563
23.9329 44.911
24.1154 43.9993
24.2979 43.2927
24.4805 42.7666
24.6631 42.5105
24.8458 41.8184
25.0286 42.5033
25.2114 44.4213
25.3943 44.4098
25.5773 40.5975
25.7605 40.2037
25.9436 40.5234
26.1268 41.4742
26.31 39.8854
26.4933 40.5024
26.6767 41.8381
26.8601 40.2131
27.0437 38.6306
27.2272 38.3593
27.4109 38.135
27.5946 38.1514
27.7784 37.6744
27.9623 38.1005
28.1462 38.6585
28.3304 36.8657
28.5145 35.8248
28.6987 35.3599
28.8829 35.2683
29.0673 34.4753
29.2517 34.1382
29.4361 33.8897
29.6207 32.9529
29.8053 32.7139
29.99 32.362
30.1748 32.1815
30.3597 32.0777
30.5447 31.877
30.7297 32.0525
30.915 31.4379
31.1002 30.9675
31.2855 30.7735
31.4708 30.715
31.6563 30.2074
31.8418 29.965
32.0275 29.7283
32.2132 29.2461
32.399 28.7185
32.5848 28.2942
32.7708 28.0315
32.9569 27.7338
33.143 27.6818
33.3293 27.2721
33.5158 26.9754
33.7022 26.4835
33.8887 26.2072
34.0753 25.8355
34.262 25.5254
34.4488 25.1578
34.6357 24.8269
34.8227 24.5881
35.0098 24.3789
35.1969 24.0305
35.3842 23.8892
35.5716 23.6091
35.759 23.3511
35.9468 22.9434
36.1345 22.7618
36.3222 22.601
36.5101 22.3475
36.6981 21.9509
36.8861 21.7602
37.0743 21.4493
37.2626 21.094
37.451 20.9144
37.6395 20.712
37.8281 20.3293
38.0168 20.0871
38.2056 19.8925
38.3945 19.6026
38.5837 19.3489
38.7728 19.1408
38.9621 18.8343
39.1514 18.5795
39.3409 18.3948
39.5304 18.1525
39.7201 17.9795
39.9099 17.7379
40.0999 17.5101
40.2899 17.3209
40.48 16.9963
40.6703 16.7948
40.8607 16.6584
41.0512 16.4531
41.242 16.1578
41.4327 16.0506
41.6236 15.7788
41.8146 15.5918
42.0057 15.3522
42.1969 15.1442
42.3882 14.9209
42.5797 14.7212
42.7713 14.5647
42.963 14.3685
43.1549 14.1622
43.3468 13.9506
43.5389 13.8295
43.7312 13.5364
43.9237 13.461
44.1162 13.2021
44.3088 12.9853
44.5016 12.8562
44.6945 12.6631
44.8875 12.5071
45.0806 12.2996
45.2739 12.1276
45.4673 11.9616
45.6609 11.813
45.8546 11.6196
46.0484 11.4674
46.2424 11.2956
46.4365 11.1613
46.631 10.9595
46.8254 10.7906
47.0199 10.6647
47.2146 10.5078
47.4095 10.3497
47.6044 10.1787
47.7996 10.0202
47.9948 9.88445
48.1902 9.76449
48.3858 9.6109
48.5815 9.49571
48.7774 9.33549
48.9734 9.16102
49.1696 9.08816
49.3661 8.93158
49.5626 8.7947
49.7592 8.64277
49.956 8.51274
50.153 8.37795
50.3501 8.3027
50.5474 8.15066
50.7448 8.04675
50.9424 7.92691
51.1402 7.75567
51.3381 7.63881
51.5362 7.55631
51.7344 7.37359
51.9328 7.2491
52.1316 7.13492
52.3304 7.03293
52.5293 6.90314
52.7284 6.81582
52.9276 6.69611
53.1271 6.60012
53.3267 6.49747
53.5265 6.34194
53.7264 6.2621
53.9266 6.17429
54.1269 6.04095
54.3274 5.9048
54.528 5.77503
54.7289 5.61102
54.9301 5.41753
55.1314 5.29943
55.3328 5.12464
55.5344 4.92676
55.7361 4.77831