File: XRD/Ni3Fe_FD0302.xy
TT I
1.27165 7.84786
1.45013 6.4902
1.62863 5.92465
1.80712 5.11592
1.98562 4.70533
2.16411 5.28933
2.34263 4.85932
2.52115 6.04071
2.69965 6.91227
2.87818 8.1812
3.05672 10.9275
3.23527 14.7988
3.4138 19.3836
3.59237 25.2887
3.77094 27.2585
3.9495 30.6551
4.12809 36.2954
4.30669 312.479
4.4853 77.0712
4.6639 57.2529
4.84253 68.4766
5.02118 90.6131
5.19981 490.496
5.37848 256.817
5.55716 107.433
5.73586 95.8745
5.91455 99.8186
6.09328 3639.33
6.27201 90.2232
6.45075 70.4571
6.62952 65.6104
6.8083 61.4054
6.98711 58.3934
7.16591 57.8785
7.34475 114.632
7.5236 56.875
7.70247 58.4144
7.88135 59.9521
8.06026 64.3098
8.23919 71.6186
8.41812 89.3804
8.59709 979.709
8.77609 107.787
8.9551 98.0105
9.13412 84.7338
9.31318 85.1056
9.49226 87.2248
9.67134 106.412
9.85047 103.508
10.0296 372.331
10.2088 589.572
10.388 110.517
10.5672 443.872
10.7465 90.893
10.9257 81.9836
11.105 74.8871
11.2844 74.4391
11.4637 67.4839
11.6431 65.8148
11.8225 64.6821
12.002 66.2527
12.1814 135.713
12.3609 77.163
12.5405 67.0063
12.72 74.0943
12.8996 73.3577
13.0792 81.4616
13.2589 209.423
13.4386 149.998
13.6183 212.053
13.7981 112.606
13.9779 78.4587
14.1577 75.5061
14.3376 75.1169
14.5175 71.0355
14.6974 72.9923
14.8774 108.455
15.0574 176.533
15.2374 74.7812
15.4175 68.6656
15.5976 68.1678
15.7778 94.5022
15.958 180.918
16.1382 66.6621
16.3185 61.5093
16.4988 57.8509
16.6792 56.661
16.8596 57.3731
17.04 57.8181
17.2205 66.8159
17.401 77.51
17.5815 61.2234
17.7622 63.3991
17.9428 76.7638
18.1237 137.319
18.3044 88.1367
18.4852 85.9682
18.666 62.6218
18.8469 60.1089
19.0278 59.3144
19.2088 61.9334
19.3898 78.4738
19.5709 56.5684
19.752 55.1879
19.9332 58.2189
20.1144 71.2955
20.2957 63.7841
20.477 57.0523
20.6586 51.5459
20.84 50.579
21.0215 50.3561
21.203 52.108
21.3846 51.2697
21.5662 50.4144
21.7479 53.8909
21.9297 66.3708
22.1115 57.5769
22.2933 52.185
22.4753 50.9183
22.6572 50.6099
22.8393 52.9746
23.0214 60.1655
23.2037 50.6168
23.3859 51.2926
23.5682 57.2662
23.7505 51.0286
23.9329 46.9541
24.1154 45.686
24.2979 45.0849
24.4805 44.3583
24.6631 44.4572
24.8458 43.8105
25.0286 44.0368
25.2114 46.013
25.3943 46.4487
25.5773 42.5322
25.7605 41.9826
25.9436 42.1341
26.1268 43.1026
26.31 41.5849
26.4933 42.0057
26.6767 43.5488
26.8601 41.9859
27.0437 40.2269
27.2272 39.9062
27.4109 39.5898
27.5946 39.8355
27.7784 39.1291
27.9623 39.4014
28.1462 40.2931
28.3304 38.7058
28.5145 37.1659
28.6987 36.8962
28.8829 36.5616
29.0673 36.0178
29.2517 35.5786
29.4361 35.4253
29.6207 34.278
29.8053 34.0073
29.99 33.7408
30.1748 33.5733
30.3597 33.4951
30.5447 33.2386
30.7297 33.294
30.915 32.8519
31.1002 32.2164
31.2855 31.9585
31.4708 31.7877
31.6563 31.4785
31.8418 31.1626
32.0275 31.005
32.2132 30.4259
32.399 29.9878
32.5848 29.526
32.7708 29.1479
32.9569 29.0275
33.143 28.7852
33.3293 28.3617
33.5158 27.9713
33.7022 27.5956
33.8887 27.2569
34.0753 26.9721
34.262 26.4588
34.4488 26.284
34.6357 25.8282
34.8227 25.6463
35.0098 25.3979
35.1969 25.0753
35.3842 24.9095
35.5716 24.6545
35.759 24.3765
35.9468 23.9547
36.1345 23.6615
36.3222 23.5314
36.5101 23.2528
36.6981 22.9911
36.8861 22.5674
37.0743 22.251
37.2626 21.9613
37.451 21.7588
37.6395 21.559
37.8281 21.2179
38.0168 20.9699
38.2056 20.6863
38.3945 20.4509
38.5837 20.1227
38.7728 19.9138
38.9621 19.6292
39.1514 19.3869
39.3409 19.1582
39.5304 18.9386
39.7201 18.7211
39.9099 18.4761
40.0999 18.2002
40.2899 17.9685
40.48 17.7224
40.6703 17.548
40.8607 17.366
41.0512 17.0826
41.242 16.8371
41.4327 16.69
41.6236 16.3978
41.8146 16.2678
42.0057 15.9854
42.1969 15.7722
42.3882 15.5869
42.5797 15.365
42.7713 15.1228
42.963 14.8924
43.1549 14.7628
43.3468 14.5171
43.5389 14.3515
43.7312 14.146
43.9237 13.9613
44.1162 13.7732
44.3088 13.5689
44.5016 13.3966
44.6945 13.2152
44.8875 13.0146
45.0806 12.8444
45.2739 12.6731
45.4673 12.4583
45.6609 12.2723
45.8546 12.1318
46.0484 11.9567
46.2424 11.7596
46.4365 11.6121
46.631 11.4432
46.8254 11.2714
47.0199 11.1397
47.2146 10.8993
47.4095 10.7642
47.6044 10.6067
47.7996 10.4465
47.9948 10.2873
48.1902 10.125
48.3858 9.97308
48.5815 9.89103
48.7774 9.74915
48.9734 9.60056
49.1696 9.43618
49.3661 9.33517
49.5626 9.12372
49.7592 9.02899
49.956 8.93283
50.153 8.73862
50.3501 8.56145
50.5474 8.48972
50.7448 8.36444
50.9424 8.19433
51.1402 8.09974
51.3381 7.93246
51.5362 7.81447
51.7344 7.70985
51.9328 7.57141
52.1316 7.44517
52.3304 7.3701
52.5293 7.20447
52.7284 7.05957
52.9276 6.95603
53.1271 6.86933
53.3267 6.73302
53.5265 6.59755
53.7264 6.50158
53.9266 6.37467
54.1269 6.295
54.3274 6.13041
54.528 5.98276
54.7289 5.80681
54.9301 5.60845
55.1314 5.5123
55.3328 5.37342
55.5344 5.15183
55.7361 4.97932