File: XRD/Ni3Fe_FD0919.xy
TT I
1.27165 7.45183
1.45013 5.65905
1.62863 5.39555
1.80712 4.27869
1.98562 4.36223
2.16411 4.71057
2.34263 6.02683
2.52115 7.29266
2.69965 8.01839
2.87818 9.13316
3.05672 11.2281
3.23527 15.3947
3.4138 18.7119
3.59237 23.0883
3.77094 25.9867
3.9495 29.1903
4.12809 33.951
4.30669 111.222
4.4853 54.6975
4.6639 54.8392
4.84253 68.0877
5.02118 86.1798
5.19981 362.562
5.37848 188.215
5.55716 101.049
5.73586 91.9688
5.91455 93.3951
6.09328 4674.48
6.27201 78.8968
6.45075 69.0343
6.62952 61.8577
6.8083 58.723
6.98711 55.2527
7.16591 55.1533
7.34475 68.3045
7.5236 53.7478
7.70247 55.8804
7.88135 57.1616
8.06026 62.1358
8.23919 68.6037
8.41812 82.6639
8.59709 1202.26
8.77609 95.6471
8.9551 88.6384
9.13412 81.9706
9.31318 83.6664
9.49226 83.5259
9.67134 94.5439
9.85047 100.109
10.0296 330.815
10.2088 322.231
10.388 103.275
10.5672 547.09
10.7465 84.9394
10.9257 77.0166
11.105 70.3292
11.2844 67.827
11.4637 63.9499
11.6431 62.5493
11.8225 61.8253
12.002 63.222
12.1814 158.572
12.3609 65.7787
12.5405 63.7918
12.72 67.2935
12.8996 70.4912
13.0792 78.8934
13.2589 245.198
13.4386 113.761
13.6183 258.54
13.7981 91.3124
13.9779 74.724
14.1577 70.8323
14.3376 69.2602
14.5175 68.0596
14.6974 69.3546
14.8774 110.023
15.0574 137.276
15.2374 68.901
15.4175 65.1381
15.5976 64.6548
15.7778 93.9854
15.958 145.268
16.1382 60.5834
16.3185 57.0071
16.4988 54.5381
16.6792 53.3382
16.8596 53.8928
17.04 54.878
17.2205 66.1264
17.401 67.4945
17.5815 58.093
17.7622 60.3319
17.9428 72.0997
18.1237 139.988
18.3044 90.8083
18.4852 72.9995
18.666 59.2241
18.8469 57.0448
19.0278 55.8035
19.2088 58.0986
19.3898 74.9423
19.5709 53.1503
19.752 52.4072
19.9332 55.4266
20.1144 69.3664
20.2957 64.3573
20.477 51.6005
20.6586 48.894
20.84 48.0303
21.0215 47.8112
21.203 50.3122
21.3846 47.9321
21.5662 48.1722
21.7479 51.8325
21.9297 64.0773
22.1115 55.5727
22.2933 48.8916
22.4753 47.9465
22.6572 48.1745
22.8393 51.1063
23.0214 56.2729
23.2037 47.8992
23.3859 48.8788
23.5682 57.0241
23.7505 46.9619
23.9329 44.4597
24.1154 43.2958
24.2979 42.6848
24.4805 42.2483
24.6631 41.9945
24.8458 41.3781
25.0286 42.1244
25.2114 43.9797
25.3943 43.8869
25.5773 40.2399
25.7605 39.7721
25.9436 40.1979
26.1268 41.1032
26.31 39.4326
26.4933 40.1521
26.6767 41.4968
26.8601 39.6826
27.0437 38.2007
27.2272 37.9519
27.4109 37.816
27.5946 37.7271
27.7784 37.1132
27.9623 37.8694
28.1462 38.0912
28.3304 36.4935
28.5145 35.3715
28.6987 35.0017
28.8829 34.8356
29.0673 34.0658
29.2517 33.7998
29.4361 33.6234
29.6207 32.6473
29.8053 32.2582
29.99 32.083
30.1748 31.8867
30.3597 31.6744
30.5447 31.7035
30.7297 31.6438
30.915 31.0384
31.1002 30.5424
31.2855 30.3811
31.4708 30.3949
31.6563 29.8926
31.8418 29.602
32.0275 29.4251
32.2132 28.9142
32.399 28.4976
32.5848 27.9985
32.7708 27.6263
32.9569 27.6121
33.143 27.3241
33.3293 26.846
33.5158 26.5476
33.7022 26.1122
33.8887 25.7952
34.0753 25.5246
34.262 25.1671
34.4488 24.7946
34.6357 24.5669
34.8227 24.2856
35.0098 24.1066
35.1969 23.7766
35.3842 23.5857
35.5716 23.3884
35.759 23.0249
35.9468 22.7241
36.1345 22.4816
36.3222 22.2745
36.5101 22.019
36.6981 21.6916
36.8861 21.4066
37.0743 21.1442
37.2626 20.8484
37.451 20.5774
37.6395 20.4832
37.8281 20.1334
38.0168 19.904
38.2056 19.5921
38.3945 19.3101
38.5837 19.1232
38.7728 18.9088
38.9621 18.6728
39.1514 18.3294
39.3409 18.1912
39.5304 17.886
39.7201 17.7168
39.9099 17.5268
40.0999 17.3107
40.2899 17.021
40.48 16.8303
40.6703 16.6577
40.8607 16.474
41.0512 16.2075
41.242 15.9808
41.4327 15.8555
41.6236 15.5723
41.8146 15.3962
42.0057 15.214
42.1969 14.9668
42.3882 14.782
42.5797 14.5751
42.7713 14.3551
42.963 14.1402
43.1549 13.973
43.3468 13.7452
43.5389 13.6055
43.7312 13.3666
43.9237 13.2379
44.1162 13.0356
44.3088 12.8506
44.5016 12.66
44.6945 12.5325
44.8875 12.3032
45.0806 12.1423
45.2739 12.0071
45.4673 11.8797
45.6609 11.6583
45.8546 11.4957
46.0484 11.3487
46.2424 11.1671
46.4365 11.0245
46.631 10.8452
46.8254 10.6327
47.0199 10.5056
47.2146 10.3953
47.4095 10.1957
47.6044 10.0798
47.7996 9.90068
47.9948 9.75703
48.1902 9.66116
48.3858 9.4861
48.5815 9.39533
48.7774 9.25212
48.9734 9.06637
49.1696 8.922
49.3661 8.76404
49.5626 8.67195
49.7592 8.54638
49.956 8.42275
50.153 8.29053
50.3501 8.17634
50.5474 8.01424
50.7448 7.93331
50.9424 7.81114
51.1402 7.6854
51.3381 7.54535
51.5362 7.41935
51.7344 7.31083
51.9328 7.19069
52.1316 7.01858
52.3304 6.97458
52.5293 6.86473
52.7284 6.70287
52.9276 6.62157
53.1271 6.52298
53.3267 6.41731
53.5265 6.25211
53.7264 6.17207
53.9266 6.07541
54.1269 5.96194
54.3274 5.83615
54.528 5.66443
54.7289 5.55172
54.9301 5.38966
55.1314 5.29672
55.3328 5.06006
55.5344 4.89921
55.7361 4.74385