File: XRD/Ni3Fe_FD0976.xy
TT I
1.27165 6.86955
1.45013 5.82443
1.62863 5.30006
1.80712 5.12727
1.98562 4.68625
2.16411 5.23196
2.34263 5.28791
2.52115 7.98628
2.69965 8.2801
2.87818 9.38419
3.05672 11.1393
3.23527 15.073
3.4138 18.8947
3.59237 23.554
3.77094 26.0512
3.9495 29.6865
4.12809 34.5064
4.30669 219.401
4.4853 65.0882
4.6639 54.5745
4.84253 66.1553
5.02118 84.7989
5.19981 274.659
5.37848 172.421
5.55716 99.4821
5.73586 89.3742
5.91455 90.7195
6.09328 4566.94
6.27201 80.9505
6.45075 65.7797
6.62952 61.7424
6.8083 57.6742
6.98711 55.0465
7.16591 54.2916
7.34475 90.6829
7.5236 53.7569
7.70247 55.1414
7.88135 56.6456
8.06026 61.0986
8.23919 68.2847
8.41812 82.9215
8.59709 1121.26
8.77609 96.3599
8.9551 90.1853
9.13412 80.3725
9.31318 80.6764
9.49226 82.7934
9.67134 96.9071
9.85047 97.4854
10.0296 294.086
10.2088 362.697
10.388 101.774
10.5672 522.727
10.7465 84.7537
10.9257 76.991
11.105 70.389
11.2844 69.1949
11.4637 63.7178
11.6431 62.1778
11.8225 61.2482
12.002 62.1083
12.1814 153.372
12.3609 69.1748
12.5405 63.3433
12.72 68.8058
12.8996 69.5641
13.0792 76.857
13.2589 232.174
13.4386 119.777
13.6183 245.756
13.7981 94.7165
13.9779 74.257
14.1577 71.0035
14.3376 70.2606
14.5175 67.3991
14.6974 68.585
14.8774 105.117
15.0574 146.791
15.2374 69.6624
15.4175 65.0324
15.5976 64.2756
15.7778 89.9313
15.958 151.233
16.1382 61.362
16.3185 57.64
16.4988 54.3719
16.6792 53.4003
16.8596 54.2332
17.04 54.5537
17.2205 64.8491
17.401 68.8287
17.5815 58.0072
17.7622 59.7655
17.9428 70.6696
18.1237 138.561
18.3044 89.094
18.4852 75.6563
18.666 59.2201
18.8469 56.8875
19.0278 55.6359
19.2088 57.9962
19.3898 75.2327
19.5709 53.0999
19.752 52.1656
19.9332 54.8103
20.1144 68.7328
20.2957 63.3057
20.477 52.6188
20.6586 48.7227
20.84 47.8824
21.0215 47.5891
21.203 50.0916
21.3846 47.7776
21.5662 47.73
21.7479 51.2374
21.9297 63.5568
22.1115 55.2108
22.2933 48.8328
22.4753 47.8204
22.6572 47.6941
22.8393 50.6984
23.0214 56.1643
23.2037 47.8313
23.3859 48.5012
23.5682 56.4037
23.7505 47.2941
23.9329 44.4103
24.1154 43.2553
24.2979 42.6022
24.4805 42.1537
24.6631 41.9538
24.8458 41.359
25.0286 41.9476
25.2114 43.7332
25.3943 43.8762
25.5773 40.1787
25.7605 39.6767
25.9436 39.9184
26.1268 40.9935
26.31 39.35
26.4933 39.7912
26.6767 41.4391
26.8601 39.7432
27.0437 38.1996
27.2272 37.7851
27.4109 37.6321
27.5946 37.6567
27.7784 37.0638
27.9623 37.7263
28.1462 38.0069
28.3304 36.4086
28.5145 35.3268
28.6987 34.9688
28.8829 34.7635
29.0673 34.0231
29.2517 33.6523
29.4361 33.6082
29.6207 32.5358
29.8053 32.2032
29.99 32.0742
30.1748 31.8058
30.3597 31.6219
30.5447 31.6274
30.7297 31.6362
30.915 31.0229
31.1002 30.5976
31.2855 30.2281
31.4708 30.301
31.6563 29.7847
31.8418 29.5832
32.0275 29.2878
32.2132 28.8396
32.399 28.4157
32.5848 27.9555
32.7708 27.6275
32.9569 27.5132
33.143 27.2139
33.3293 26.8814
33.5158 26.5721
33.7022 26.0623
33.8887 25.8123
34.0753 25.5104
34.262 25.2413
34.4488 24.8581
34.6357 24.5382
34.8227 24.1989
35.0098 24.023
35.1969 23.7348
35.3842 23.573
35.5716 23.344
35.759 23.0171
35.9468 22.6887
36.1345 22.4548
36.3222 22.1914
36.5101 21.9722
36.6981 21.6816
36.8861 21.4576
37.0743 21.1216
37.2626 20.8965
37.451 20.6027
37.6395 20.3685
37.8281 20.1734
38.0168 19.8302
38.2056 19.5842
38.3945 19.2316
38.5837 19.0564
38.7728 18.821
38.9621 18.596
39.1514 18.3672
39.3409 18.1101
39.5304 17.8674
39.7201 17.7023
39.9099 17.5577
40.0999 17.2789
40.2899 17.0609
40.48 16.8784
40.6703 16.6572
40.8607 16.503
41.0512 16.187
41.242 15.9316
41.4327 15.7908
41.6236 15.5753
41.8146 15.3138
42.0057 15.1181
42.1969 14.9778
42.3882 14.7961
42.5797 14.5761
42.7713 14.4009
42.963 14.1946
43.1549 13.9718
43.3468 13.7544
43.5389 13.6774
43.7312 13.3797
43.9237 13.205
44.1162 13.0378
44.3088 12.8689
44.5016 12.6717
44.6945 12.4991
44.8875 12.3389
45.0806 12.1516
45.2739 11.9962
45.4673 11.8343
45.6609 11.6609
45.8546 11.5317
46.0484 11.3523
46.2424 11.1564
46.4365 11.0038
46.631 10.8435
46.8254 10.6734
47.0199 10.5025
47.2146 10.3626
47.4095 10.2558
47.6044 10.0603
47.7996 9.91363
47.9948 9.72054
48.1902 9.62982
48.3858 9.48651
48.5815 9.37766
48.7774 9.20824
48.9734 9.08759
49.1696 8.94944
49.3661 8.77261
49.5626 8.62256
49.7592 8.56101
49.956 8.41815
50.153 8.29719
50.3501 8.1741
50.5474 8.05678
50.7448 7.93841
50.9424 7.78224
51.1402 7.66141
51.3381 7.56866
51.5362 7.37993
51.7344 7.28103
51.9328 7.17506
52.1316 7.04101
52.3304 6.95053
52.5293 6.84753
52.7284 6.69163
52.9276 6.61891
53.1271 6.51467
53.3267 6.42174
53.5265 6.30253
53.7264 6.16313
53.9266 6.09473
54.1269 5.92333
54.3274 5.86365
54.528 5.69503
54.7289 5.52846
54.9301 5.45009
55.1314 5.28005
55.3328 5.05704
55.5344 4.89699
55.7361 4.69523