File: XRD/Ni3Fe_FD0367.xy
TT I
1.27165 7.84792
1.45013 6.48854
1.62863 4.97097
1.80712 5.37303
1.98562 4.22228
2.16411 4.91963
2.34263 4.57249
2.52115 6.30031
2.69965 7.25607
2.87818 8.8282
3.05672 10.7361
3.23527 15.3773
3.4138 19.0524
3.59237 23.7278
3.77094 26.4141
3.9495 29.705
4.12809 34.9684
4.30669 105.62
4.4853 55.0833
4.6639 57.3524
4.84253 70.0139
5.02118 92.124
5.19981 630.719
5.37848 221.381
5.55716 106.942
5.73586 96.6826
5.91455 102.594
6.09328 4037.43
6.27201 85.368
6.45075 69.9339
6.62952 63.8718
6.8083 60.0622
6.98711 57.02
7.16591 56.3794
7.34475 69.1746
7.5236 55.7452
7.70247 57.6473
7.88135 59.2063
8.06026 64.4001
8.23919 71.5773
8.41812 88.0509
8.59709 1211.82
8.77609 104.757
8.9551 90.7267
9.13412 84.8163
9.31318 86.6353
9.49226 87.7227
9.67134 96.6834
9.85047 104.426
10.0296 451.338
10.2088 438.234
10.388 110.519
10.5672 487.092
10.7465 89.5411
10.9257 79.9185
11.105 73.7394
11.2844 70.4914
11.4637 66.8232
11.6431 65.4806
11.8225 64.167
12.002 66.8994
12.1814 152.233
12.3609 69.6014
12.5405 66.4368
12.72 70.0159
12.8996 73.663
13.0792 83.689
13.2589 249.762
13.4386 130.544
13.6183 246.556
13.7981 101.168
13.9779 78.1131
14.1577 74.0626
14.3376 72.4111
14.5175 71.0998
14.6974 73.1447
14.8774 121.57
15.0574 151.064
15.2374 71.8423
15.4175 68.2825
15.5976 68.4182
15.7778 104.117
15.958 160.477
16.1382 63.2395
16.3185 59.5874
16.4988 57.0125
16.6792 55.8964
16.8596 56.6815
17.04 58.0054
17.2205 69.6665
17.401 72.8184
17.5815 60.9577
17.7622 63.5857
17.9428 79.6259
18.1237 139.09
18.3044 92.0641
18.4852 78.4133
18.666 62.1798
18.8469 59.7551
19.0278 58.585
19.2088 62.0153
19.3898 76.6719
19.5709 55.9306
19.752 55.0438
19.9332 58.6902
20.1144 71.5411
20.2957 64.5833
20.477 55.0285
20.6586 51.1411
20.84 50.2685
21.0215 50.1001
21.203 51.9664
21.3846 50.4489
21.5662 50.6101
21.7479 54.8436
21.9297 65.8677
22.1115 57.2373
22.2933 51.3034
22.4753 50.1305
22.6572 50.6414
22.8393 53.804
23.0214 58.8231
23.2037 50.2647
23.3859 51.7581
23.5682 57.4745
23.7505 49.5346
23.9329 46.5038
24.1154 45.3791
24.2979 44.6635
24.4805 44.0835
24.6631 44.1077
24.8458 43.5911
25.0286 44.2478
25.2114 45.9739
25.3943 45.7819
25.5773 42.0329
25.7605 41.6784
25.9436 42.1428
26.1268 42.8504
26.31 41.2247
26.4933 42.0025
26.6767 43.3037
26.8601 41.5314
27.0437 40.0006
27.2272 39.787
27.4109 39.471
27.5946 39.4596
27.7784 39.1758
27.9623 39.3119
28.1462 39.954
28.3304 38.1369
28.5145 37.0997
28.6987 36.6512
28.8829 36.3575
29.0673 35.6448
29.2517 35.3257
29.4361 35.1293
29.6207 34.0999
29.8053 33.791
29.99 33.408
30.1748 33.3034
30.3597 33.1401
30.5447 33.047
30.7297 33.0424
30.915 32.4879
31.1002 32.0341
31.2855 31.7528
31.4708 31.6915
31.6563 31.2413
31.8418 31.0299
32.0275 30.7187
32.2132 30.1985
32.399 29.7058
32.5848 29.2871
32.7708 28.9061
32.9569 28.8223
33.143 28.5081
33.3293 28.1534
33.5158 27.7719
33.7022 27.3283
33.8887 27.0162
34.0753 26.7283
34.262 26.3336
34.4488 25.9599
34.6357 25.678
34.8227 25.3819
35.0098 25.1669
35.1969 24.8449
35.3842 24.5708
35.5716 24.4532
35.759 24.06
35.9468 23.7238
36.1345 23.421
36.3222 23.2407
36.5101 23.0555
36.6981 22.7297
36.8861 22.3421
37.0743 22.0489
37.2626 21.7911
37.451 21.5306
37.6395 21.3527
37.8281 20.9817
38.0168 20.7927
38.2056 20.418
38.3945 20.1474
38.5837 19.9316
38.7728 19.6788
38.9621 19.461
39.1514 19.1701
39.3409 18.937
39.5304 18.6657
39.7201 18.5382
39.9099 18.3105
40.0999 18.024
40.2899 17.7926
40.48 17.5312
40.6703 17.3343
40.8607 17.1329
41.0512 16.9936
41.242 16.6504
41.4327 16.4721
41.6236 16.1981
41.8146 16.0403
42.0057 15.8477
42.1969 15.5618
42.3882 15.4607
42.5797 15.2282
42.7713 15.0075
42.963 14.7718
43.1549 14.6211
43.3468 14.3186
43.5389 14.2119
43.7312 13.9898
43.9237 13.8072
44.1162 13.6238
44.3088 13.3821
44.5016 13.2494
44.6945 13.0643
44.8875 12.8685
45.0806 12.673
45.2739 12.4904
45.4673 12.356
45.6609 12.1607
45.8546 11.9992
46.0484 11.8159
46.2424 11.6685
46.4365 11.4859
46.631 11.2918
46.8254 11.136
47.0199 10.9793
47.2146 10.8391
47.4095 10.6568
47.6044 10.4856
47.7996 10.3378
47.9948 10.2056
48.1902 10.0203
48.3858 9.9172
48.5815 9.78423
48.7774 9.64348
48.9734 9.44809
49.1696 9.35065
49.3661 9.20541
49.5626 9.0317
49.7592 8.9016
49.956 8.81118
50.153 8.64448
50.3501 8.51598
50.5474 8.37182
50.7448 8.24015
50.9424 8.11566
51.1402 8.00394
51.3381 7.83948
51.5362 7.73188
51.7344 7.62743
51.9328 7.48311
52.1316 7.33151
52.3304 7.26
52.5293 7.14001
52.7284 6.99155
52.9276 6.88788
53.1271 6.81068
53.3267 6.66626
53.5265 6.53801
53.7264 6.42144
53.9266 6.30151
54.1269 6.19781
54.3274 6.13466
54.528 5.95278
54.7289 5.71858
54.9301 5.61479
55.1314 5.50137
55.3328 5.23462
55.5344 5.06542
55.7361 4.94726