File: XRD/Ni3Fe_FD0969.xy
TT I
1.27165 7.18559
1.45013 6.75726
1.62863 5.22983
1.80712 4.8055
1.98562 4.62592
2.16411 4.4837
2.34263 6.17898
2.52115 7.51481
2.69965 8.80952
2.87818 8.39303
3.05672 11.6425
3.23527 15.4476
3.4138 18.8818
3.59237 24.0779
3.77094 26.0159
3.9495 29.612
4.12809 34.7009
4.30669 204.665
4.4853 63.4971
4.6639 54.5477
4.84253 65.9627
5.02118 84.5388
5.19981 278.799
5.37848 174.371
5.55716 99.7909
5.73586 89.8608
5.91455 90.6243
6.09328 4613.98
6.27201 80.8756
6.45075 66.1842
6.62952 61.519
6.8083 57.8197
6.98711 54.9933
7.16591 54.6806
7.34475 87.9368
7.5236 53.8342
7.70247 55.5114
7.88135 56.6785
8.06026 60.8701
8.23919 68.3603
8.41812 82.9033
8.59709 1142.15
8.77609 96.6904
8.9551 89.7926
9.13412 80.5402
9.31318 80.8327
9.49226 83.0353
9.67134 95.6821
9.85047 97.8516
10.0296 300.552
10.2088 362.244
10.388 101.858
10.5672 525.012
10.7465 84.8136
10.9257 76.8344
11.105 70.6916
11.2844 68.936
11.4637 64.0896
11.6431 62.3868
11.8225 60.8176
12.002 62.0123
12.1814 154.507
12.3609 69.118
12.5405 63.3949
12.72 68.3864
12.8996 69.6338
13.0792 76.9509
13.2589 232.957
13.4386 119.037
13.6183 248.553
13.7981 94.9522
13.9779 74.3633
14.1577 70.8948
14.3376 69.8384
14.5175 67.3376
14.6974 69.1088
14.8774 106.042
15.0574 145.94
15.2374 69.5654
15.4175 65.0522
15.5976 64.2946
15.7778 90.7379
15.958 150.728
16.1382 61.449
16.3185 57.4777
16.4988 54.4999
16.6792 53.1255
16.8596 54.0623
17.04 54.5632
17.2205 65.1317
17.401 69.0622
17.5815 57.9329
17.7622 59.8767
17.9428 70.8651
18.1237 137.86
18.3044 89.8371
18.4852 75.3094
18.666 59.1821
18.8469 56.9192
19.0278 55.8638
19.2088 58.1304
19.3898 75.0935
19.5709 53.0176
19.752 52.1517
19.9332 54.8582
20.1144 68.7323
20.2957 63.6532
20.477 52.4938
20.6586 48.7747
20.84 47.8643
21.0215 47.6491
21.203 50.0545
21.3846 47.7807
21.5662 47.6086
21.7479 51.4882
21.9297 63.653
22.1115 55.3323
22.2933 48.8872
22.4753 47.9747
22.6572 47.8256
22.8393 50.9638
23.0214 56.1243
23.2037 47.7163
23.3859 48.8149
23.5682 56.4137
23.7505 47.3461
23.9329 44.3192
24.1154 43.2856
24.2979 42.559
24.4805 42.2251
24.6631 42.0898
24.8458 41.4576
25.0286 41.9173
25.2114 43.9288
25.3943 43.6835
25.5773 40.1083
25.7605 39.7524
25.9436 40.0362
26.1268 41.0121
26.31 39.3077
26.4933 39.945
26.6767 41.436
26.8601 39.7416
27.0437 38.1781
27.2272 37.6898
27.4109 37.7596
27.5946 37.7054
27.7784 37.1559
27.9623 37.7892
28.1462 38.1066
28.3304 36.4967
28.5145 35.3133
28.6987 34.9585
28.8829 34.9171
29.0673 34.0806
29.2517 33.6769
29.4361 33.4046
29.6207 32.6025
29.8053 32.3097
29.99 31.8839
30.1748 31.8328
30.3597 31.6463
30.5447 31.5807
30.7297 31.6998
30.915 31.0138
31.1002 30.5734
31.2855 30.1764
31.4708 30.1898
31.6563 29.7452
31.8418 29.6378
32.0275 29.309
32.2132 28.8739
32.399 28.4602
32.5848 27.925
32.7708 27.608
32.9569 27.4868
33.143 27.2932
33.3293 26.8794
33.5158 26.4757
33.7022 26.1892
33.8887 25.8119
34.0753 25.3902
34.262 25.2014
34.4488 24.8032
34.6357 24.5562
34.8227 24.3318
35.0098 24.0041
35.1969 23.7828
35.3842 23.5865
35.5716 23.366
35.759 23.0829
35.9468 22.7189
36.1345 22.4783
36.3222 22.242
36.5101 22.0522
36.6981 21.7558
36.8861 21.4355
37.0743 21.1268
37.2626 20.8703
37.451 20.5111
37.6395 20.5651
37.8281 20.0623
38.0168 19.8497
38.2056 19.5974
38.3945 19.3058
38.5837 19.1179
38.7728 18.8786
38.9621 18.6815
39.1514 18.3826
39.3409 18.0964
39.5304 17.9038
39.7201 17.7533
39.9099 17.5519
40.0999 17.288
40.2899 17.0344
40.48 16.8518
40.6703 16.6239
40.8607 16.4343
41.0512 16.2501
41.242 15.9598
41.4327 15.7543
41.6236 15.6029
41.8146 15.362
42.0057 15.1818
42.1969 14.9056
42.3882 14.8285
42.5797 14.5363
42.7713 14.4487
42.963 14.1959
43.1549 13.9699
43.3468 13.846
43.5389 13.634
43.7312 13.3908
43.9237 13.2158
44.1162 13.053
44.3088 12.839
44.5016 12.6755
44.6945 12.5105
44.8875 12.3252
45.0806 12.1548
45.2739 11.9727
45.4673 11.863
45.6609 11.6871
45.8546 11.5018
46.0484 11.3442
46.2424 11.1862
46.4365 11.0191
46.631 10.8381
46.8254 10.7001
47.0199 10.5007
47.2146 10.4228
47.4095 10.1854
47.6044 10.0892
47.7996 9.87814
47.9948 9.76207
48.1902 9.64012
48.3858 9.49256
48.5815 9.37241
48.7774 9.23185
48.9734 9.08058
49.1696 8.94705
49.3661 8.84956
49.5626 8.66084
49.7592 8.51835
49.956 8.40916
50.153 8.28425
50.3501 8.1477
50.5474 8.09698
50.7448 7.90668
50.9424 7.79764
51.1402 7.71049
51.3381 7.53933
51.5362 7.46148
51.7344 7.30282
51.9328 7.17205
52.1316 7.02319
52.3304 6.95062
52.5293 6.83993
52.7284 6.74555
52.9276 6.57604
53.1271 6.50681
53.3267 6.41891
53.5265 6.24831
53.7264 6.16088
53.9266 6.03306
54.1269 5.94902
54.3274 5.83694
54.528 5.7299
54.7289 5.57324
54.9301 5.37477
55.1314 5.22903
55.3328 5.02655
55.5344 4.82025
55.7361 4.76169