File: XRD/Ni3Fe_FD0894.xy
TT I
1.27165 7.18298
1.45013 6.34032
1.62863 5.17526
1.80712 5.11229
1.98562 4.9784
2.16411 5.33747
2.34263 5.30318
2.52115 7.31501
2.69965 8.40018
2.87818 9.05001
3.05672 11.3668
3.23527 15.1267
3.4138 18.717
3.59237 23.7818
3.77094 26.1963
3.9495 29.3315
4.12809 33.9224
4.30669 191.732
4.4853 62.3412
4.6639 54.6067
4.84253 65.7723
5.02118 84.7532
5.19981 304.078
5.37848 168.687
5.55716 99.5598
5.73586 90.4651
5.91455 91.6707
6.09328 4490.51
6.27201 79.947
6.45075 66.1238
6.62952 61.3788
6.8083 57.4027
6.98711 54.4247
7.16591 54.1642
7.34475 84.4652
7.5236 53.6208
7.70247 55.1371
7.88135 56.9398
8.06026 61.2679
8.23919 68.4183
8.41812 82.782
8.59709 1186.76
8.77609 95.5842
8.9551 88.8435
9.13412 80.7777
9.31318 81.1757
9.49226 83.1845
9.67134 95.5443
9.85047 97.7661
10.0296 315.249
10.2088 338.716
10.388 101.934
10.5672 533.873
10.7465 84.4711
10.9257 76.6677
11.105 70.3257
11.2844 68.5392
11.4637 63.817
11.6431 62.1954
11.8225 61.3034
12.002 62.5088
12.1814 158.144
12.3609 67.9367
12.5405 63.0395
12.72 68.0875
12.8996 69.544
13.0792 77.3323
13.2589 236.282
13.4386 114.233
13.6183 250.29
13.7981 91.1824
13.9779 74.4979
14.1577 70.8561
14.3376 69.8695
14.5175 67.4927
14.6974 69.072
14.8774 107.254
15.0574 136.649
15.2374 69.3105
15.4175 65.0226
15.5976 64.5878
15.7778 91.5926
15.958 149.855
16.1382 61.0351
16.3185 57.2178
16.4988 54.3264
16.6792 53.4895
16.8596 53.9899
17.04 54.6156
17.2205 65.2881
17.401 68.0821
17.5815 58.0115
17.7622 60.0935
17.9428 71.2023
18.1237 140.167
18.3044 90.0533
18.4852 73.8173
18.666 59.1529
18.8469 57.0415
19.0278 55.6583
19.2088 58.0885
19.3898 75.9293
19.5709 53.0865
19.752 52.324
19.9332 54.9997
20.1144 69.2781
20.2957 63.9281
20.477 51.9891
20.6586 48.691
20.84 47.9933
21.0215 47.6042
21.203 50.1789
21.3846 48.0407
21.5662 47.7918
21.7479 51.4607
21.9297 64.0477
22.1115 55.5635
22.2933 48.7254
22.4753 47.9231
22.6572 47.7851
22.8393 51.0819
23.0214 56.2379
23.2037 47.8408
23.3859 48.7117
23.5682 56.9885
23.7505 47.0057
23.9329 44.3199
24.1154 43.2834
24.2979 42.6714
24.4805 42.2009
24.6631 41.9417
24.8458 41.5352
25.0286 42.1996
25.2114 43.8517
25.3943 43.7421
25.5773 40.1967
25.7605 39.748
25.9436 40.1098
26.1268 40.9444
26.31 39.3867
26.4933 39.9369
26.6767 41.5971
26.8601 39.5976
27.0437 38.237
27.2272 37.8164
27.4109 37.649
27.5946 37.8087
27.7784 37.1465
27.9623 37.8954
28.1462 38.2156
28.3304 36.5762
28.5145 35.3724
28.6987 34.9848
28.8829 34.7744
29.0673 34.0281
29.2517 33.6977
29.4361 33.5812
29.6207 32.5372
29.8053 32.2581
29.99 31.9859
30.1748 31.9344
30.3597 31.6648
30.5447 31.5776
30.7297 31.6091
30.915 30.9679
31.1002 30.6182
31.2855 30.2379
31.4708 30.2964
31.6563 29.7349
31.8418 29.6436
32.0275 29.4208
32.2132 28.8431
32.399 28.4697
32.5848 28.0307
32.7708 27.7128
32.9569 27.4225
33.143 27.3153
33.3293 26.8664
33.5158 26.6345
33.7022 26.1821
33.8887 25.9793
34.0753 25.5155
34.262 25.1741
34.4488 24.8345
34.6357 24.5203
34.8227 24.2845
35.0098 24.097
35.1969 23.7741
35.3842 23.5908
35.5716 23.401
35.759 23.062
35.9468 22.7956
36.1345 22.5213
36.3222 22.2978
36.5101 21.9906
36.6981 21.7501
36.8861 21.4034
37.0743 21.1536
37.2626 20.9016
37.451 20.6489
37.6395 20.4838
37.8281 20.1103
38.0168 19.8581
38.2056 19.5892
38.3945 19.349
38.5837 19.1178
38.7728 18.8767
38.9621 18.6258
39.1514 18.384
39.3409 18.1085
39.5304 17.9668
39.7201 17.7876
39.9099 17.5187
40.0999 17.3512
40.2899 17.0856
40.48 16.8421
40.6703 16.6481
40.8607 16.4935
41.0512 16.2416
41.242 15.9851
41.4327 15.7717
41.6236 15.55
41.8146 15.3735
42.0057 15.1365
42.1969 14.9641
42.3882 14.8031
42.5797 14.5679
42.7713 14.4028
42.963 14.19
43.1549 13.9942
43.3468 13.8019
43.5389 13.595
43.7312 13.3908
43.9237 13.267
44.1162 13.0559
44.3088 12.8855
44.5016 12.6642
44.6945 12.4993
44.8875 12.3582
45.0806 12.1739
45.2739 11.9743
45.4673 11.8598
45.6609 11.6567
45.8546 11.4941
46.0484 11.3246
46.2424 11.1584
46.4365 11.0289
46.631 10.832
46.8254 10.6952
47.0199 10.5542
47.2146 10.4171
47.4095 10.2293
47.6044 10.0517
47.7996 9.92425
47.9948 9.78381
48.1902 9.64433
48.3858 9.50603
48.5815 9.35939
48.7774 9.22369
48.9734 9.08938
49.1696 8.94052
49.3661 8.80485
49.5626 8.67423
49.7592 8.55477
49.956 8.41149
50.153 8.31963
50.3501 8.1788
50.5474 8.04634
50.7448 7.89644
50.9424 7.80016
51.1402 7.66689
51.3381 7.51909
51.5362 7.41512
51.7344 7.26861
51.9328 7.14066
52.1316 7.06582
52.3304 6.95667
52.5293 6.83841
52.7284 6.73061
52.9276 6.62372
53.1271 6.50478
53.3267 6.41994
53.5265 6.27336
53.7264 6.17931
53.9266 6.08675
54.1269 5.9803
54.3274 5.83428
54.528 5.70099
54.7289 5.52881
54.9301 5.37606
55.1314 5.23777
55.3328 5.06792
55.5344 4.86112
55.7361 4.71963