File: XRD/Ni3Fe_FD0918.xy
TT I
1.27165 7.11637
1.45013 5.72825
1.62863 5.03
1.80712 4.90405
1.98562 4.74704
2.16411 4.82577
2.34263 6.12522
2.52115 7.36089
2.69965 8.45649
2.87818 9.02949
3.05672 11.5087
3.23527 15.4818
3.4138 18.5904
3.59237 22.9734
3.77094 26.0958
3.9495 29.7273
4.12809 34.6637
4.30669 113.54
4.4853 54.8031
4.6639 54.8567
4.84253 67.3908
5.02118 86.1145
5.19981 361.084
5.37848 186.873
5.55716 100.462
5.73586 91.4342
5.91455 93.3007
6.09328 4632.21
6.27201 79.2017
6.45075 68.582
6.62952 61.9796
6.8083 58.319
6.98711 54.7502
7.16591 55.2633
7.34475 69.2985
7.5236 53.4235
7.70247 55.8613
7.88135 56.8222
8.06026 61.6237
8.23919 68.631
8.41812 82.7519
8.59709 1202.15
8.77609 95.7106
8.9551 88.7219
9.13412 81.7475
9.31318 83.3499
9.49226 83.7106
9.67134 94.2181
9.85047 99.6747
10.0296 328.399
10.2088 322.833
10.388 103.117
10.5672 543.654
10.7465 84.5303
10.9257 76.9602
11.105 70.3234
11.2844 67.5045
11.4637 63.8158
11.6431 62.3669
11.8225 61.6432
12.002 63.2141
12.1814 158.714
12.3609 65.9987
12.5405 63.7365
12.72 67.122
12.8996 70.2362
13.0792 78.9451
13.2589 244.786
13.4386 114.306
13.6183 258.259
13.7981 91.5467
13.9779 74.4836
14.1577 70.645
14.3376 69.2186
14.5175 67.7966
14.6974 69.4646
14.8774 109.78
15.0574 137.108
15.2374 68.6257
15.4175 65.2181
15.5976 64.8384
15.7778 93.8063
15.958 146.237
16.1382 60.5423
16.3185 56.948
16.4988 54.4005
16.6792 53.4564
16.8596 53.85
17.04 55.1532
17.2205 65.907
17.401 67.4919
17.5815 58.296
17.7622 60.3108
17.9428 72.3743
18.1237 139.939
18.3044 90.8316
18.4852 72.8062
18.666 59.194
18.8469 56.9089
19.0278 55.9286
19.2088 58.1861
19.3898 75.2542
19.5709 53.189
19.752 52.4397
19.9332 55.5323
20.1144 69.5134
20.2957 63.9962
20.477 52.0047
20.6586 48.9019
20.84 48.0011
21.0215 47.8334
21.203 50.4439
21.3846 47.8587
21.5662 48.1728
21.7479 51.6643
21.9297 64.363
22.1115 55.4787
22.2933 48.6225
22.4753 47.867
22.6572 48.069
22.8393 51.2705
23.0214 56.1335
23.2037 47.8738
23.3859 48.8386
23.5682 56.9286
23.7505 47.1402
23.9329 44.2872
24.1154 43.3966
24.2979 42.6658
24.4805 42.2681
24.6631 42.0818
24.8458 41.5639
25.0286 42.0664
25.2114 44.017
25.3943 43.7144
25.5773 40.3171
25.7605 39.7394
25.9436 40.1222
26.1268 41.0786
26.31 39.3267
26.4933 40.0818
26.6767 41.5939
26.8601 39.6895
27.0437 38.337
27.2272 37.8373
27.4109 37.7369
27.5946 37.7425
27.7784 37.2919
27.9623 37.8555
28.1462 38.1456
28.3304 36.437
28.5145 35.3849
28.6987 35.1238
28.8829 34.8806
29.0673 34.062
29.2517 33.6895
29.4361 33.5388
29.6207 32.5507
29.8053 32.4009
29.99 32.0345
30.1748 31.7998
30.3597 31.6914
30.5447 31.6058
30.7297 31.7238
30.915 31.0573
31.1002 30.6257
31.2855 30.2738
31.4708 30.4458
31.6563 29.8453
31.8418 29.6244
32.0275 29.415
32.2132 28.8987
32.399 28.4319
32.5848 27.9857
32.7708 27.6302
32.9569 27.5169
33.143 27.3353
33.3293 26.988
33.5158 26.5804
33.7022 26.1138
33.8887 25.9015
34.0753 25.5756
34.262 25.2186
34.4488 24.8552
34.6357 24.5758
34.8227 24.2306
35.0098 24.0263
35.1969 23.7755
35.3842 23.5359
35.5716 23.4043
35.759 23.1362
35.9468 22.7324
36.1345 22.6095
36.3222 22.29
36.5101 22.0469
36.6981 21.7946
36.8861 21.4038
37.0743 21.149
37.2626 20.8828
37.451 20.6742
37.6395 20.4348
37.8281 20.1308
38.0168 19.9318
38.2056 19.5935
38.3945 19.3197
38.5837 19.135
38.7728 18.9091
38.9621 18.6455
39.1514 18.3794
39.3409 18.167
39.5304 17.9897
39.7201 17.7452
39.9099 17.5589
40.0999 17.2941
40.2899 17.0719
40.48 16.823
40.6703 16.6851
40.8607 16.4419
41.0512 16.2488
41.242 15.9656
41.4327 15.819
41.6236 15.5714
41.8146 15.3971
42.0057 15.1729
42.1969 14.9487
42.3882 14.7593
42.5797 14.5995
42.7713 14.3937
42.963 14.1784
43.1549 14.0299
43.3468 13.8091
43.5389 13.6797
43.7312 13.4371
43.9237 13.2958
44.1162 13.0242
44.3088 12.8422
44.5016 12.6914
44.6945 12.5129
44.8875 12.3031
45.0806 12.1811
45.2739 11.9749
45.4673 11.8464
45.6609 11.6933
45.8546 11.5489
46.0484 11.383
46.2424 11.1784
46.4365 11.0035
46.631 10.849
46.8254 10.675
47.0199 10.5069
47.2146 10.4012
47.4095 10.2342
47.6044 10.0491
47.7996 9.95307
47.9948 9.75738
48.1902 9.65085
48.3858 9.49696
48.5815 9.37818
48.7774 9.22252
48.9734 9.06409
49.1696 8.95696
49.3661 8.79905
49.5626 8.65577
49.7592 8.53268
49.956 8.42985
50.153 8.30415
50.3501 8.15093
50.5474 8.04403
50.7448 7.9083
50.9424 7.79271
51.1402 7.71647
51.3381 7.55017
51.5362 7.42972
51.7344 7.32595
51.9328 7.17591
52.1316 7.02842
52.3304 6.97167
52.5293 6.82145
52.7284 6.74064
52.9276 6.61138
53.1271 6.51154
53.3267 6.39074
53.5265 6.27695
53.7264 6.1546
53.9266 6.06442
54.1269 5.95994
54.3274 5.83833
54.528 5.70081
54.7289 5.53402
54.9301 5.38083
55.1314 5.18833
55.3328 4.998
55.5344 4.83278
55.7361 4.70081