File: XRD/Ni3Fe_FD0762.xy
TT I
1.27165 6.88044
1.45013 6.2459
1.62863 4.60166
1.80712 4.86676
1.98562 5.23977
2.16411 5.33839
2.34263 5.46319
2.52115 7.33829
2.69965 8.19852
2.87818 9.24578
3.05672 10.8903
3.23527 15.4027
3.4138 19.068
3.59237 24.5341
3.77094 26.2207
3.9495 30.0408
4.12809 34.7073
4.30669 264.172
4.4853 70.1268
4.6639 54.9542
4.84253 66.4412
5.02118 84.7929
5.19981 304.192
5.37848 188.374
5.55716 101.498
5.73586 90.815
5.91455 91.4432
6.09328 4290.79
6.27201 82.9439
6.45075 66.7473
6.62952 62.742
6.8083 58.8884
6.98711 55.9022
7.16591 55.5695
7.34475 101.304
7.5236 54.8674
7.70247 55.9689
7.88135 57.3106
8.06026 62.1009
8.23919 69.2864
8.41812 84.3229
8.59709 1093.66
8.77609 98.8193
8.9551 92.6347
9.13412 81.0813
9.31318 81.9103
9.49226 83.918
9.67134 99.9268
9.85047 98.6358
10.0296 302.198
10.2088 407.147
10.388 103.721
10.5672 507.964
10.7465 85.6393
10.9257 78.3107
11.105 71.6007
11.2844 70.8005
11.4637 64.5431
11.6431 63.4261
11.8225 62.0376
12.002 62.7652
12.1814 147.929
12.3609 71.8573
12.5405 64.1273
12.72 70.5606
12.8996 70.2986
13.0792 77.676
13.2589 225.363
13.4386 127.068
13.6183 237.127
13.7981 98.0898
13.9779 75.086
14.1577 72.0348
14.3376 71.56
14.5175 68.2357
14.6974 69.6562
14.8774 105.219
15.0574 151.919
15.2374 71.2178
15.4175 65.7554
15.5976 65.0196
15.7778 90.6844
15.958 158.588
16.1382 62.8934
16.3185 58.6325
16.4988 55.0586
16.6792 54.2239
16.8596 54.9591
17.04 55.2982
17.2205 65.5329
17.401 71.3356
17.5815 58.6258
17.7622 60.5724
17.9428 71.9876
18.1237 138.628
18.3044 88.6558
18.4852 78.2077
18.666 60.0132
18.8469 57.5194
19.0278 56.4258
19.2088 58.9817
19.3898 76.725
19.5709 53.7331
19.752 52.952
19.9332 55.6263
20.1144 69.4241
20.2957 63.165
20.477 53.8145
20.6586 49.3251
20.84 48.4975
21.0215 48.2533
21.203 50.2618
21.3846 48.5369
21.5662 48.2207
21.7479 51.8587
21.9297 64.2848
22.1115 55.755
22.2933 49.6342
22.4753 48.7385
22.6572 48.2411
22.8393 51.0025
23.0214 57.4673
23.2037 48.4458
23.3859 49.0781
23.5682 56.624
23.7505 48.2288
23.9329 44.97
24.1154 43.7636
24.2979 43.1315
24.4805 42.5778
24.6631 42.4679
24.8458 41.9453
25.0286 42.3985
25.2114 44.3586
25.3943 44.3453
25.5773 40.7232
25.7605 40.1389
25.9436 40.5267
26.1268 41.3539
26.31 39.7755
26.4933 40.5024
26.6767 41.8978
26.8601 40.2399
27.0437 38.5881
27.2272 38.2231
27.4109 38.1199
27.5946 38.101
27.7784 37.6504
27.9623 38.1043
28.1462 38.6117
28.3304 36.9315
28.5145 35.765
28.6987 35.4327
28.8829 35.1625
29.0673 34.4884
29.2517 34.1374
29.4361 34.0423
29.6207 32.9927
29.8053 32.6705
29.99 32.401
30.1748 32.2145
30.3597 32.0465
30.5447 31.96
30.7297 32.0096
30.915 31.4267
31.1002 30.8592
31.2855 30.6527
31.4708 30.54
31.6563 30.1943
31.8418 29.9348
32.0275 29.6928
32.2132 29.254
32.399 28.7729
32.5848 28.425
32.7708 27.9367
32.9569 27.7862
33.143 27.6415
33.3293 27.288
33.5158 26.9156
33.7022 26.5757
33.8887 26.1976
34.0753 25.874
34.262 25.5029
34.4488 25.1399
34.6357 24.7827
34.8227 24.4971
35.0098 24.419
35.1969 24.0728
35.3842 23.837
35.5716 23.6254
35.759 23.2737
35.9468 22.9322
36.1345 22.8291
36.3222 22.5496
36.5101 22.3278
36.6981 21.964
36.8861 21.6041
37.0743 21.3751
37.2626 21.121
37.451 20.8123
37.6395 20.6622
37.8281 20.3371
38.0168 20.1206
38.2056 19.8744
38.3945 19.5898
38.5837 19.3182
38.7728 19.0882
38.9621 18.8953
39.1514 18.6198
39.3409 18.3074
39.5304 18.1458
39.7201 17.9705
39.9099 17.7317
40.0999 17.4715
40.2899 17.2902
40.48 17.0299
40.6703 16.765
40.8607 16.6602
41.0512 16.4251
41.242 16.1551
41.4327 15.9691
41.6236 15.7157
41.8146 15.6042
42.0057 15.2892
42.1969 15.14
42.3882 14.9964
42.5797 14.7505
42.7713 14.5734
42.963 14.3495
43.1549 14.1376
43.3468 13.9724
43.5389 13.7831
43.7312 13.5369
43.9237 13.3857
44.1162 13.2053
44.3088 13.0426
44.5016 12.8376
44.6945 12.6542
44.8875 12.4875
45.0806 12.3137
45.2739 12.1141
45.4673 12.0003
45.6609 11.7963
45.8546 11.6899
46.0484 11.479
46.2424 11.3155
46.4365 11.1859
46.631 10.9551
46.8254 10.8247
47.0199 10.6358
47.2146 10.4845
47.4095 10.3231
47.6044 10.1851
47.7996 10.0712
47.9948 9.87774
48.1902 9.75983
48.3858 9.61035
48.5815 9.46944
48.7774 9.36336
48.9734 9.19545
49.1696 9.07221
49.3661 8.91239
49.5626 8.75518
49.7592 8.62824
49.956 8.51163
50.153 8.3616
50.3501 8.26362
50.5474 8.14563
50.7448 8.01208
50.9424 7.90192
51.1402 7.76905
51.3381 7.6196
51.5362 7.51863
51.7344 7.38986
51.9328 7.27308
52.1316 7.12201
52.3304 7.06355
52.5293 6.90081
52.7284 6.8234
52.9276 6.70922
53.1271 6.60847
53.3267 6.45587
53.5265 6.36514
53.7264 6.21946
53.9266 6.10832
54.1269 6.02996
54.3274 5.92741
54.528 5.76338
54.7289 5.67334
54.9301 5.49343
55.1314 5.35576
55.3328 5.12354
55.5344 4.94693
55.7361 4.84799