File: XRD/Ni3Fe_FD0136.xy
TT I
1.27165 8.00796
1.45013 7.38795
1.62863 6.04342
1.80712 5.28935
1.98562 4.99734
2.16411 4.18459
2.34263 4.6913
2.52115 4.35521
2.69965 5.68047
2.87818 7.57195
3.05672 11.2847
3.23527 15.1675
3.4138 18.492
3.59237 22.0141
3.77094 24.9648
3.9495 28.7578
4.12809 32.45
4.30669 37.3972
4.4853 44.778
4.6639 53.6185
4.84253 65.735
5.02118 90.9912
5.19981 570.157
5.37848 473.545
5.55716 108.036
5.73586 95.4495
5.91455 105.296
6.09328 2629.17
6.27201 89.8152
6.45075 66.1446
6.62952 59.663
6.8083 55.3434
6.98711 52.827
7.16591 52.4225
7.34475 51.7328
7.5236 56.3372
7.70247 53.6031
7.88135 56.4087
8.06026 60.4133
8.23919 67.7938
8.41812 83.4226
8.59709 863.079
8.77609 117.402
8.9551 84.726
9.13412 81.1252
9.31318 87.3684
9.49226 83.2546
9.67134 87.9059
9.85047 98.3721
10.0296 552.353
10.2088 1008.84
10.388 103.856
10.5672 319.494
10.7465 90.9095
10.9257 75.5631
11.105 69.9521
11.2844 66.015
11.4637 63.5257
11.6431 61.6334
11.8225 60.687
12.002 65.8059
12.1814 114.67
12.3609 76.0323
12.5405 62.661
12.72 64.6798
12.8996 69.5564
13.0792 78.9726
13.2589 200.191
13.4386 218.726
13.6183 187.512
13.7981 158.805
13.9779 75.585
14.1577 74.4788
14.3376 68.7383
14.5175 68.1814
14.6974 69.3348
14.8774 120.387
15.0574 203.544
15.2374 68.8439
15.4175 65.6704
15.5976 64.8769
15.7778 107.017
15.958 182.923
16.1382 61.5514
16.3185 56.9774
16.4988 54.9689
16.6792 53.6286
16.8596 54.1268
17.04 55.0402
17.2205 64.8199
17.401 81.1276
17.5815 58.5926
17.7622 61.1047
17.9428 83.7668
18.1237 112.18
18.3044 87.8219
18.4852 95.3895
18.666 60.5555
18.8469 57.8153
19.0278 56.3211
19.2088 61.4626
19.3898 68.0818
19.5709 56.291
19.752 52.9457
19.9332 57.8034
20.1144 66.2357
20.2957 60.6009
20.477 59.2655
20.6586 49.5646
20.84 48.8031
21.0215 48.8659
21.203 49.4832
21.3846 50.1966
21.5662 48.6494
21.7479 53.8183
21.9297 61.3318
22.1115 55.856
22.2933 52.2745
22.4753 48.6511
22.6572 48.7633
22.8393 51.7564
23.0214 56.4459
23.2037 49.7275
23.3859 51.6215
23.5682 53.1811
23.7505 53.397
23.9329 45.373
24.1154 44.2051
24.2979 43.5185
24.4805 42.8225
24.6631 42.9485
24.8458 42.3521
25.0286 42.8242
25.2114 44.3849
25.3943 44.5648
25.5773 41.5921
25.7605 40.5708
25.9436 40.9622
26.1268 41.3281
26.31 40.7189
26.4933 40.7987
26.6767 41.7506
26.8601 41.0831
27.0437 39.4475
27.2272 38.8211
27.4109 38.5037
27.5946 38.5031
27.7784 38.3584
27.9623 38.2694
28.1462 39.2484
28.3304 37.8584
28.5145 36.1009
28.6987 35.8024
28.8829 35.3965
29.0673 34.9931
29.2517 34.3148
29.4361 34.077
29.6207 33.4882
29.8053 32.9075
29.99 32.5006
30.1748 32.327
30.3597 32.5041
30.5447 32.1436
30.7297 32.1721
30.915 31.9852
31.1002 31.331
31.2855 30.9673
31.4708 30.7562
31.6563 30.6774
31.8418 30.192
32.0275 29.9931
32.2132 29.6483
32.399 29.0657
32.5848 28.5155
32.7708 28.2089
32.9569 28.1764
33.143 27.8726
33.3293 27.5067
33.5158 27.2135
33.7022 26.6411
33.8887 26.1838
34.0753 26.1046
34.262 25.7952
34.4488 25.3944
34.6357 25.0703
34.8227 24.72
35.0098 24.6661
35.1969 24.2393
35.3842 24.0284
35.5716 23.8255
35.759 23.5663
35.9468 23.1825
36.1345 22.9527
36.3222 22.7701
36.5101 22.4861
36.6981 22.1712
36.8861 21.8571
37.0743 21.53
37.2626 21.3124
37.451 21.0442
37.6395 20.8379
37.8281 20.5056
38.0168 20.2567
38.2056 20.0258
38.3945 19.7771
38.5837 19.4506
38.7728 19.2986
38.9621 19.0182
39.1514 18.7311
39.3409 18.4713
39.5304 18.3264
39.7201 18.0593
39.9099 17.885
40.0999 17.6564
40.2899 17.3762
40.48 17.1539
40.6703 16.9998
40.8607 16.808
41.0512 16.5756
41.242 16.2987
41.4327 16.1012
41.6236 15.8644
41.8146 15.7066
42.0057 15.4244
42.1969 15.2238
42.3882 15.0942
42.5797 14.8864
42.7713 14.6475
42.963 14.3872
43.1549 14.2545
43.3468 13.9962
43.5389 13.8496
43.7312 13.6779
43.9237 13.4617
44.1162 13.2659
44.3088 13.1305
44.5016 12.8723
44.6945 12.7737
44.8875 12.5617
45.0806 12.3484
45.2739 12.2057
45.4673 12.0446
45.6609 11.8498
45.8546 11.7034
46.0484 11.5334
46.2424 11.3889
46.4365 11.2398
46.631 11.0645
46.8254 10.9141
47.0199 10.7357
47.2146 10.5637
47.4095 10.407
47.6044 10.264
47.7996 10.0886
47.9948 9.94575
48.1902 9.83451
48.3858 9.70153
48.5815 9.54143
48.7774 9.39748
48.9734 9.25227
49.1696 9.13473
49.3661 8.98344
49.5626 8.83337
49.7592 8.70877
49.956 8.63683
50.153 8.49286
50.3501 8.36418
50.5474 8.20175
50.7448 8.07362
50.9424 7.96875
51.1402 7.83712
51.3381 7.6563
51.5362 7.56351
51.7344 7.45947
51.9328 7.29686
52.1316 7.18625
52.3304 7.07711
52.5293 6.96205
52.7284 6.89625
52.9276 6.76014
53.1271 6.63524
53.3267 6.53873
53.5265 6.38908
53.7264 6.33933
53.9266 6.19304
54.1269 6.01403
54.3274 5.94822
54.528 5.76712
54.7289 5.60365
54.9301 5.45694
55.1314 5.30228
55.3328 5.02497
55.5344 4.83535
55.7361 4.70796