File: XRD/Ni3Fe_FD0363.xy
TT I
1.27165 7.80822
1.45013 6.71543
1.62863 5.48613
1.80712 4.80063
1.98562 4.45046
2.16411 4.82608
2.34263 5.21245
2.52115 5.73954
2.69965 7.53517
2.87818 7.90943
3.05672 11.0779
3.23527 15.1851
3.4138 18.5829
3.59237 23.2676
3.77094 26.0763
3.9495 30.0057
4.12809 34.5824
4.30669 112.059
4.4853 54.9147
4.6639 57.1827
4.84253 70.0704
5.02118 91.5115
5.19981 615.332
5.37848 220.931
5.55716 106.226
5.73586 96.5816
5.91455 101.775
6.09328 4063.67
6.27201 85.247
6.45075 69.6433
6.62952 63.7209
6.8083 60.0929
6.98711 56.7295
7.16591 56.4674
7.34475 70.6368
7.5236 55.2737
7.70247 57.2897
7.88135 58.9614
8.06026 63.9773
8.23919 71.1799
8.41812 87.3903
8.59709 1190.28
8.77609 104.115
8.9551 91.2344
9.13412 84.8143
9.31318 85.7736
9.49226 87.2947
9.67134 96.4863
9.85047 103.579
10.0296 445.366
10.2088 455.232
10.388 110.454
10.5672 482.361
10.7465 89.1279
10.9257 79.6594
11.105 73.2617
11.2844 70.5041
11.4637 66.5018
11.6431 65.2856
11.8225 63.8145
12.002 66.5988
12.1814 151.323
12.3609 69.6674
12.5405 66.1383
12.72 69.7719
12.8996 73.1104
13.0792 82.9486
13.2589 247.738
13.4386 132.772
13.6183 245.152
13.7981 101.84
13.9779 78.0064
14.1577 74.0656
14.3376 72.3012
14.5175 70.8893
14.6974 72.8524
14.8774 120.588
15.0574 152.349
15.2374 71.5913
15.4175 68.2244
15.5976 68.2595
15.7778 103.849
15.958 161.446
16.1382 63.3167
16.3185 59.4919
16.4988 56.8071
16.6792 55.8673
16.8596 56.3925
17.04 57.9788
17.2205 69.0868
17.401 73.2495
17.5815 60.9143
17.7622 63.2276
17.9428 79.2755
18.1237 139.764
18.3044 91.7195
18.4852 79.138
18.666 62.0796
18.8469 59.4708
19.0278 58.398
19.2088 61.7542
19.3898 76.8367
19.5709 55.8447
19.752 54.8923
19.9332 58.4699
20.1144 71.4139
20.2957 64.4737
20.477 55.1378
20.6586 50.8617
20.84 50.2378
21.0215 50.0316
21.203 52.0372
21.3846 50.4695
21.5662 50.7438
21.7479 54.7248
21.9297 65.8974
22.1115 57.178
22.2933 51.1102
22.4753 50.1074
22.6572 50.4991
22.8393 53.5618
23.0214 58.7564
23.2037 50.253
23.3859 51.5868
23.5682 57.5983
23.7505 49.5485
23.9329 46.4885
24.1154 45.3454
24.2979 44.6555
24.4805 44.1767
24.6631 43.8531
24.8458 43.4828
25.0286 44.2123
25.2114 46.0283
25.3943 45.8183
25.5773 42.1576
25.7605 41.6195
25.9436 41.949
26.1268 42.773
26.31 41.3633
26.4933 41.8413
26.6767 43.268
26.8601 41.5036
27.0437 40.0016
27.2272 39.6037
27.4109 39.5586
27.5946 39.4196
27.7784 38.9868
27.9623 39.4787
28.1462 39.7984
28.3304 38.2287
28.5145 37.0202
28.6987 36.5762
28.8829 36.3846
29.0673 35.646
29.2517 35.2984
29.4361 35.0708
29.6207 34.0724
29.8053 33.7306
29.99 33.4239
30.1748 33.4009
30.3597 33.1698
30.5447 33.0
30.7297 33.0806
30.915 32.4092
31.1002 31.9932
31.2855 31.6367
31.4708 31.5956
31.6563 31.1827
31.8418 30.887
32.0275 30.7293
32.2132 30.2065
32.399 29.7571
32.5848 29.3418
32.7708 28.9187
32.9569 28.7978
33.143 28.4747
33.3293 28.1358
33.5158 27.62
33.7022 27.2985
33.8887 27.0717
34.0753 26.6691
34.262 26.2024
34.4488 26.003
34.6357 25.6883
34.8227 25.3376
35.0098 25.167
35.1969 24.8634
35.3842 24.5901
35.5716 24.4668
35.759 24.0257
35.9468 23.7435
36.1345 23.4682
36.3222 23.244
36.5101 23.0247
36.6981 22.7237
36.8861 22.342
37.0743 22.0461
37.2626 21.8623
37.451 21.4689
37.6395 21.3728
37.8281 21.0265
38.0168 20.7888
38.2056 20.4382
38.3945 20.2047
38.5837 19.9644
38.7728 19.6843
38.9621 19.5255
39.1514 19.1651
39.3409 18.9883
39.5304 18.745
39.7201 18.4729
39.9099 18.298
40.0999 18.0738
40.2899 17.7947
40.48 17.5715
40.6703 17.3576
40.8607 17.1557
41.0512 16.9759
41.242 16.62
41.4327 16.4613
41.6236 16.2329
41.8146 16.0088
42.0057 15.8094
42.1969 15.6313
42.3882 15.3912
42.5797 15.2366
42.7713 14.9744
42.963 14.763
43.1549 14.5971
43.3468 14.3681
43.5389 14.2033
43.7312 13.9804
43.9237 13.8101
44.1162 13.6013
44.3088 13.4054
44.5016 13.1632
44.6945 13.0357
44.8875 12.8339
45.0806 12.6787
45.2739 12.4919
45.4673 12.3497
45.6609 12.1495
45.8546 11.9678
46.0484 11.8138
46.2424 11.6505
46.4365 11.4939
46.631 11.3121
46.8254 11.1189
47.0199 10.9254
47.2146 10.8116
47.4095 10.6704
47.6044 10.4748
47.7996 10.3243
47.9948 10.2012
48.1902 10.0034
48.3858 9.93615
48.5815 9.76589
48.7774 9.63583
48.9734 9.44138
49.1696 9.32033
49.3661 9.18914
49.5626 9.01836
49.7592 8.89626
49.956 8.75543
50.153 8.66685
50.3501 8.52792
50.5474 8.36837
50.7448 8.23785
50.9424 8.13369
51.1402 7.96827
51.3381 7.8549
51.5362 7.73321
51.7344 7.60565
51.9328 7.4646
52.1316 7.36029
52.3304 7.2331
52.5293 7.10191
52.7284 7.00981
52.9276 6.8794
53.1271 6.80707
53.3267 6.67495
53.5265 6.53175
53.7264 6.41006
53.9266 6.3391
54.1269 6.19659
54.3274 6.09136
54.528 5.95068
54.7289 5.79156
54.9301 5.59303
55.1314 5.45537
55.3328 5.21351
55.5344 5.0359
55.7361 4.91286