File: XRD/Ni3Fe_FD0543.xy
TT I
1.27165 7.25088
1.45013 6.01842
1.62863 5.35201
1.80712 4.67749
1.98562 4.31088
2.16411 5.17645
2.34263 4.97483
2.52115 6.6972
2.69965 7.96124
2.87818 8.25065
3.05672 10.7463
3.23527 15.5279
3.4138 18.9587
3.59237 24.561
3.77094 26.6319
3.9495 30.4115
4.12809 35.2493
4.30669 257.905
4.4853 70.0792
4.6639 56.2078
4.84253 67.9495
5.02118 87.4118
5.19981 365.478
5.37848 203.194
5.55716 103.133
5.73586 92.5142
5.91455 94.988
6.09328 4243.47
6.27201 84.797
6.45075 68.0996
6.62952 63.3495
6.8083 59.4094
6.98711 56.1228
7.16591 56.363
7.34475 100.585
7.5236 55.5036
7.70247 56.7235
7.88135 58.1764
8.06026 62.9797
8.23919 70.2709
8.41812 86.5884
8.59709 1130.68
8.77609 101.009
8.9551 93.7072
9.13412 82.1809
9.31318 83.0087
9.49226 85.0833
9.67134 101.321
9.85047 100.318
10.0296 332.319
10.2088 412.835
10.388 105.657
10.5672 514.044
10.7465 87.3207
10.9257 79.4149
11.105 72.4632
11.2844 71.5944
11.4637 65.4093
11.6431 64.3079
11.8225 62.9425
12.002 64.1112
12.1814 149.342
12.3609 72.1317
12.5405 65.3632
12.72 71.2591
12.8996 71.1929
13.0792 79.4933
13.2589 229.983
13.4386 126.503
13.6183 238.888
13.7981 100.197
13.9779 76.5122
14.1577 73.365
14.3376 73.0162
14.5175 69.5904
14.6974 71.2163
14.8774 109.013
15.0574 153.924
15.2374 72.4464
15.4175 67.0103
15.5976 66.3902
15.7778 94.2884
15.958 160.168
16.1382 63.888
16.3185 59.6155
16.4988 56.1253
16.6792 55.1192
16.8596 55.9451
17.04 56.2211
17.2205 66.6713
17.401 72.513
17.5815 59.9868
17.7622 61.8763
17.9428 73.992
18.1237 141.422
18.3044 90.2685
18.4852 79.4042
18.666 61.2082
18.8469 58.4744
19.0278 57.5228
19.2088 60.221
19.3898 77.9239
19.5709 54.6231
19.752 53.7543
19.9332 56.6899
20.1144 70.8915
20.2957 64.2375
20.477 54.3067
20.6586 50.2308
20.84 49.1387
21.0215 49.032
21.203 51.3723
21.3846 49.5299
21.5662 49.1429
21.7479 53.0082
21.9297 65.6574
22.1115 56.5787
22.2933 50.2823
22.4753 49.4118
22.6572 49.4116
22.8393 52.2353
23.0214 58.3338
23.2037 49.1355
23.3859 50.0851
23.5682 57.5114
23.7505 48.7609
23.9329 45.6819
24.1154 44.6119
24.2979 43.8639
24.4805 43.3447
24.6631 43.2229
24.8458 42.5571
25.0286 43.0811
25.2114 45.13
25.3943 45.1012
25.5773 41.298
25.7605 40.8088
25.9436 41.18
26.1268 42.1158
26.31 40.5188
26.4933 41.0809
26.6767 42.6919
26.8601 41.0133
27.0437 39.2654
27.2272 38.8124
27.4109 38.7879
27.5946 38.8244
27.7784 38.2644
27.9623 38.6033
28.1462 39.1927
28.3304 37.548
28.5145 36.2566
28.6987 35.9571
28.8829 35.7732
29.0673 35.0032
29.2517 34.7043
29.4361 34.4706
29.6207 33.5125
29.8053 33.1919
29.99 32.8768
30.1748 32.7543
30.3597 32.5467
30.5447 32.4737
30.7297 32.4744
30.915 31.9849
31.1002 31.4892
31.2855 31.1328
31.4708 31.1803
31.6563 30.6472
31.8418 30.4076
32.0275 30.1884
32.2132 29.6822
32.399 29.2052
32.5848 28.7587
32.7708 28.436
32.9569 28.3249
33.143 27.9976
33.3293 27.6483
33.5158 27.301
33.7022 26.8388
33.8887 26.5149
34.0753 26.2834
34.262 25.8935
34.4488 25.5529
34.6357 25.2637
34.8227 24.885
35.0098 24.8155
35.1969 24.3783
35.3842 24.2124
35.5716 23.9858
35.759 23.7136
35.9468 23.3308
36.1345 23.0836
36.3222 22.8803
36.5101 22.681
36.6981 22.3711
36.8861 22.0525
37.0743 21.6877
37.2626 21.4512
37.451 21.1737
37.6395 21.0967
37.8281 20.698
38.0168 20.376
38.2056 20.2054
38.3945 19.8852
38.5837 19.6311
38.7728 19.452
38.9621 19.1766
39.1514 18.9063
39.3409 18.6334
39.5304 18.4404
39.7201 18.2467
39.9099 18.0125
40.0999 17.7221
40.2899 17.5605
40.48 17.2942
40.6703 17.0914
40.8607 16.8625
41.0512 16.6398
41.242 16.437
41.4327 16.219
41.6236 16.0064
41.8146 15.8697
42.0057 15.5826
42.1969 15.3973
42.3882 15.2013
42.5797 14.9807
42.7713 14.7483
42.963 14.5756
43.1549 14.3803
43.3468 14.1645
43.5389 13.9712
43.7312 13.8038
43.9237 13.6114
44.1162 13.4356
44.3088 13.2288
44.5016 13.0437
44.6945 12.8619
44.8875 12.6867
45.0806 12.4996
45.2739 12.3376
45.4673 12.1736
45.6609 11.9619
45.8546 11.7961
46.0484 11.6678
46.2424 11.4694
46.4365 11.3133
46.631 11.1562
46.8254 10.961
47.0199 10.8111
47.2146 10.6684
47.4095 10.4975
47.6044 10.3502
47.7996 10.1826
47.9948 10.0656
48.1902 9.94253
48.3858 9.77786
48.5815 9.63713
48.7774 9.49382
48.9734 9.31312
49.1696 9.19148
49.3661 9.05467
49.5626 8.91252
49.7592 8.83305
49.956 8.63774
50.153 8.52556
50.3501 8.39043
50.5474 8.26251
50.7448 8.15888
50.9424 8.0254
51.1402 7.90547
51.3381 7.75389
51.5362 7.65246
51.7344 7.51491
51.9328 7.36402
52.1316 7.28402
52.3304 7.15908
52.5293 7.0489
52.7284 6.90284
52.9276 6.79939
53.1271 6.6957
53.3267 6.5962
53.5265 6.45294
53.7264 6.35144
53.9266 6.2166
54.1269 6.09496
54.3274 5.99134
54.528 5.86538
54.7289 5.67885
54.9301 5.53855
55.1314 5.45724
55.3328 5.18503
55.5344 4.97868
55.7361 4.88963