File: XRD/Ni3Fe_FD1044.xy
TT I
1.27165 7.30483
1.45013 5.89152
1.62863 4.36507
1.80712 4.54052
1.98562 4.20275
2.16411 4.14275
2.34263 5.21249
2.52115 6.88492
2.69965 8.30516
2.87818 8.38371
3.05672 10.7147
3.23527 15.2644
3.4138 17.9122
3.59237 21.6335
3.77094 24.7463
3.9495 28.0361
4.12809 32.4536
4.30669 57.056
4.4853 46.1972
4.6639 52.2666
4.84253 64.1678
5.02118 83.0886
5.19981 230.614
5.37848 214.234
5.55716 97.2782
5.73586 87.9268
5.91455 88.6536
6.09328 4599.8
6.27201 76.1968
6.45075 63.309
6.62952 58.1206
6.8083 54.4797
6.98711 52.3605
7.16591 51.5539
7.34475 55.9485
7.5236 59.4126
7.70247 53.2633
7.88135 54.5656
8.06026 59.1448
8.23919 65.2836
8.41812 77.418
8.59709 1079.5
8.77609 94.8802
8.9551 82.1155
9.13412 79.0985
9.31318 90.1039
9.49226 80.7658
9.67134 86.0141
9.85047 93.9885
10.0296 345.852
10.2088 441.552
10.388 97.6769
10.5672 502.787
10.7465 86.4993
10.9257 73.2451
11.105 68.2722
11.2844 64.6524
11.4637 61.6885
11.6431 60.5359
11.8225 59.3176
12.002 66.8648
12.1814 146.458
12.3609 64.4187
12.5405 61.2777
12.72 64.016
12.8996 67.7195
13.0792 76.2795
13.2589 226.308
13.4386 127.507
13.6183 235.609
13.7981 100.261
13.9779 73.1553
14.1577 75.7798
14.3376 67.2487
14.5175 66.2615
14.6974 67.4509
14.8774 109.012
15.0574 161.282
15.2374 66.5118
15.4175 63.7493
15.5976 63.3676
15.7778 93.8925
15.958 168.729
16.1382 59.8281
16.3185 55.5298
16.4988 53.5443
16.6792 52.5288
16.8596 52.7281
17.04 53.6808
17.2205 64.3439
17.401 72.0729
17.5815 57.164
17.7622 59.8249
17.9428 72.9173
18.1237 141.847
18.3044 88.6873
18.4852 79.4079
18.666 58.806
18.8469 56.3269
19.0278 54.8664
19.2088 57.8988
19.3898 75.976
19.5709 52.7933
19.752 51.5361
19.9332 54.9053
20.1144 70.4244
20.2957 63.4641
20.477 52.9252
20.6586 48.2508
20.84 47.977
21.0215 47.339
21.203 49.4379
21.3846 47.7628
21.5662 47.5133
21.7479 51.6347
21.9297 65.2892
22.1115 55.8646
22.2933 49.026
22.4753 47.4042
22.6572 47.6626
22.8393 51.2438
23.0214 57.4924
23.2037 47.7868
23.3859 49.2349
23.5682 57.1998
23.7505 48.2066
23.9329 44.2119
24.1154 43.0447
24.2979 42.3106
24.4805 41.9791
24.6631 42.0716
24.8458 41.0975
25.0286 41.991
25.2114 44.003
25.3943 44.3293
25.5773 40.1704
25.7605 39.6637
25.9436 40.0898
26.1268 41.209
26.31 39.3594
26.4933 39.9124
26.6767 41.8786
26.8601 40.0087
27.0437 38.2003
27.2272 37.7593
27.4109 37.8203
27.5946 37.7351
27.7784 37.142
27.9623 37.921
28.1462 38.59
28.3304 36.8151
28.5145 35.3879
28.6987 34.968
28.8829 34.7091
29.0673 34.0644
29.2517 33.6536
29.4361 33.6095
29.6207 32.4557
29.8053 32.2597
29.99 31.8193
30.1748 31.8351
30.3597 31.6279
30.5447 31.6446
30.7297 31.752
30.915 31.1592
31.1002 30.6548
31.2855 30.4584
31.4708 30.3665
31.6563 29.9561
31.8418 29.683
32.0275 29.6361
32.2132 28.8883
32.399 28.4301
32.5848 27.99
32.7708 27.6745
32.9569 27.612
33.143 27.3652
33.3293 27.0071
33.5158 26.5607
33.7022 26.186
33.8887 25.8315
34.0753 25.5242
34.262 25.2271
34.4488 24.7824
34.6357 24.5465
34.8227 24.2874
35.0098 24.0597
35.1969 23.7804
35.3842 23.6422
35.5716 23.3381
35.759 23.1266
35.9468 22.821
36.1345 22.5179
36.3222 22.2721
36.5101 22.0882
36.6981 21.8077
36.8861 21.4452
37.0743 21.1549
37.2626 20.9015
37.451 20.6031
37.6395 20.4572
37.8281 20.165
38.0168 19.9062
38.2056 19.5697
38.3945 19.3478
38.5837 19.1583
38.7728 18.9
38.9621 18.6257
39.1514 18.4375
39.3409 18.1834
39.5304 17.8995
39.7201 17.7033
39.9099 17.5927
40.0999 17.2712
40.2899 17.1394
40.48 16.7783
40.6703 16.6779
40.8607 16.5112
41.0512 16.2435
41.242 16.0047
41.4327 15.8319
41.6236 15.5083
41.8146 15.3709
42.0057 15.1882
42.1969 14.9504
42.3882 14.8045
42.5797 14.5999
42.7713 14.366
42.963 14.1869
43.1549 13.9946
43.3468 13.767
43.5389 13.6114
43.7312 13.3965
43.9237 13.2125
44.1162 13.0842
44.3088 12.8503
44.5016 12.674
44.6945 12.495
44.8875 12.3453
45.0806 12.1883
45.2739 11.9752
45.4673 11.8366
45.6609 11.6564
45.8546 11.5042
46.0484 11.3322
46.2424 11.214
46.4365 10.9942
46.631 10.8083
46.8254 10.7212
47.0199 10.5389
47.2146 10.3935
47.4095 10.2516
47.6044 10.032
47.7996 9.90834
47.9948 9.75957
48.1902 9.64414
48.3858 9.50715
48.5815 9.36535
48.7774 9.23695
48.9734 9.08563
49.1696 8.9242
49.3661 8.82804
49.5626 8.65772
49.7592 8.54803
49.956 8.42289
50.153 8.28691
50.3501 8.16794
50.5474 8.05587
50.7448 7.9515
50.9424 7.77904
51.1402 7.66569
51.3381 7.56023
51.5362 7.43976
51.7344 7.30864
51.9328 7.14498
52.1316 7.07635
52.3304 6.92481
52.5293 6.83067
52.7284 6.70274
52.9276 6.60853
53.1271 6.51085
53.3267 6.41626
53.5265 6.29125
53.7264 6.17037
53.9266 6.09465
54.1269 5.90743
54.3274 5.80595
54.528 5.68474
54.7289 5.57756
54.9301 5.38479
55.1314 5.2476
55.3328 5.06136
55.5344 4.89766
55.7361 4.71895