File: XRD/Ni3Fe_FD0580.xy
TT I
1.27165 7.71984
1.45013 6.56089
1.62863 5.53627
1.80712 5.0153
1.98562 4.88224
2.16411 4.80225
2.34263 5.39393
2.52115 6.22528
2.69965 8.46527
2.87818 8.5264
3.05672 11.316
3.23527 15.0532
3.4138 18.7535
3.59237 23.652
3.77094 26.396
3.9495 29.6741
4.12809 34.467
4.30669 123.613
4.4853 56.7527
4.6639 56.0562
4.84253 68.5504
5.02118 88.7804
5.19981 471.969
5.37848 198.667
5.55716 103.209
5.73586 94.2749
5.91455 97.4036
6.09328 4426.73
6.27201 82.2432
6.45075 68.7639
6.62952 62.3945
6.8083 59.0178
6.98711 55.9853
7.16591 55.5367
7.34475 72.3715
7.5236 54.6929
7.70247 56.7355
7.88135 58.3767
8.06026 62.5383
8.23919 70.0587
8.41812 85.4193
8.59709 1234.59
8.77609 100.164
8.9551 89.5248
9.13412 83.2563
9.31318 84.2911
9.49226 85.4578
9.67134 96.1418
9.85047 101.651
10.0296 381.698
10.2088 368.467
10.388 106.633
10.5672 522.042
10.7465 86.7281
10.9257 78.4206
11.105 71.8157
11.2844 69.4602
11.4637 65.1653
11.6431 64.0035
11.8225 63.015
12.002 65.0814
12.1814 156.65
12.3609 67.9384
12.5405 65.1197
12.72 68.6482
12.8996 71.5058
13.0792 81.1723
13.2589 252.17
13.4386 121.685
13.6183 256.965
13.7981 96.5981
13.9779 76.4554
14.1577 72.7966
14.3376 71.0023
14.5175 69.3494
14.6974 71.3414
14.8774 116.576
15.0574 144.833
15.2374 70.5397
15.4175 66.9581
15.5976 66.5874
15.7778 99.3614
15.958 149.371
16.1382 62.168
16.3185 58.4771
16.4988 55.7258
16.6792 54.8693
16.8596 55.4033
17.04 56.6731
17.2205 68.0308
17.401 70.6278
17.5815 59.876
17.7622 61.8655
17.9428 75.7063
18.1237 141.535
18.3044 92.1456
18.4852 76.3721
18.666 60.6501
18.8469 58.6253
19.0278 57.2327
19.2088 60.1028
19.3898 76.0006
19.5709 54.5025
19.752 53.74
19.9332 56.9053
20.1144 70.1971
20.2957 64.0551
20.477 53.6813
20.6586 49.9969
20.84 49.2731
21.0215 49.1136
21.203 51.2101
21.3846 49.1837
21.5662 49.4837
21.7479 53.4149
21.9297 65.2403
22.1115 56.2898
22.2933 50.0779
22.4753 49.0802
22.6572 49.3997
22.8393 52.8056
23.0214 57.3493
23.2037 49.3196
23.3859 50.3683
23.5682 57.2636
23.7505 48.4338
23.9329 45.675
24.1154 44.4914
24.2979 43.5933
24.4805 43.2366
24.6631 43.0529
24.8458 42.5995
25.0286 43.2725
25.2114 44.993
25.3943 44.8328
25.5773 41.1761
25.7605 40.8129
25.9436 41.1864
26.1268 41.9909
26.31 40.4032
26.4933 41.2737
26.6767 42.448
26.8601 40.6444
27.0437 39.2524
27.2272 38.8277
27.4109 38.7194
27.5946 38.4201
27.7784 38.2405
27.9623 38.788
28.1462 38.9947
28.3304 37.4602
28.5145 36.1953
28.6987 35.8476
28.8829 35.6907
29.0673 34.9527
29.2517 34.5905
29.4361 34.3804
29.6207 33.434
29.8053 33.1809
29.99 32.8205
30.1748 32.7347
30.3597 32.4824
30.5447 32.4393
30.7297 32.4761
30.915 31.9071
31.1002 31.3111
31.2855 31.1585
31.4708 31.0481
31.6563 30.563
31.8418 30.3444
32.0275 30.1608
32.2132 29.5763
32.399 29.1446
32.5848 28.6978
32.7708 28.2942
32.9569 28.2353
33.143 28.0036
33.3293 27.6225
33.5158 27.1831
33.7022 26.7797
33.8887 26.505
34.0753 26.1891
34.262 25.908
34.4488 25.538
34.6357 25.1856
34.8227 24.9293
35.0098 24.6242
35.1969 24.3818
35.3842 24.0899
35.5716 24.0429
35.759 23.5845
35.9468 23.2325
36.1345 23.0376
36.3222 22.7545
36.5101 22.5173
36.6981 22.1868
36.8861 21.9254
37.0743 21.6681
37.2626 21.376
37.451 21.1233
37.6395 20.9622
37.8281 20.6358
38.0168 20.331
38.2056 20.1081
38.3945 19.8694
38.5837 19.5612
38.7728 19.33
38.9621 19.1564
39.1514 18.8648
39.3409 18.5303
39.5304 18.3327
39.7201 18.1506
39.9099 17.9465
40.0999 17.6923
40.2899 17.4357
40.48 17.1971
40.6703 16.9805
40.8607 16.8634
41.0512 16.6116
41.242 16.363
41.4327 16.1345
41.6236 15.9615
41.8146 15.7618
42.0057 15.4836
42.1969 15.3319
42.3882 15.1144
42.5797 14.8974
42.7713 14.7099
42.963 14.4938
43.1549 14.321
43.3468 14.0823
43.5389 13.9379
43.7312 13.7198
43.9237 13.5443
44.1162 13.3493
44.3088 13.1631
44.5016 12.9709
44.6945 12.8001
44.8875 12.6139
45.0806 12.4416
45.2739 12.3051
45.4673 12.0774
45.6609 11.9413
45.8546 11.7633
46.0484 11.6064
46.2424 11.4325
46.4365 11.288
46.631 11.0837
46.8254 10.9255
47.0199 10.7656
47.2146 10.624
47.4095 10.4599
47.6044 10.2587
47.7996 10.0963
47.9948 9.95856
48.1902 9.85381
48.3858 9.72735
48.5815 9.57877
48.7774 9.47177
48.9734 9.28922
49.1696 9.14136
49.3661 9.03178
49.5626 8.85929
49.7592 8.73322
49.956 8.64359
50.153 8.49175
50.3501 8.32332
50.5474 8.23702
50.7448 8.09329
50.9424 7.98186
51.1402 7.83287
51.3381 7.68872
51.5362 7.58422
51.7344 7.49057
51.9328 7.30402
52.1316 7.19576
52.3304 7.12802
52.5293 6.97396
52.7284 6.85638
52.9276 6.71905
53.1271 6.64581
53.3267 6.53366
53.5265 6.42317
53.7264 6.29779
53.9266 6.18313
54.1269 6.09082
54.3274 5.97097
54.528 5.87379
54.7289 5.69767
54.9301 5.50193
55.1314 5.37233
55.3328 5.20328
55.5344 4.97621
55.7361 4.82325