File: XRD/Ni3Fe_FD0662.xy
TT I
1.27165 6.99617
1.45013 6.01229
1.62863 5.59756
1.80712 4.96404
1.98562 4.79009
2.16411 4.40362
2.34263 4.81676
2.52115 7.21717
2.69965 7.56672
2.87818 8.48152
3.05672 10.8171
3.23527 15.1903
3.4138 19.1196
3.59237 23.2964
3.77094 26.1039
3.9495 30.0467
4.12809 34.306
4.30669 208.423
4.4853 64.1073
4.6639 55.7464
4.84253 67.0963
5.02118 86.7831
5.19981 338.148
5.37848 185.189
5.55716 102.077
5.73586 92.2215
5.91455 94.0613
6.09328 4559.06
6.27201 82.8308
6.45075 67.067
6.62952 62.7679
6.8083 58.3413
6.98711 55.6074
7.16591 55.1601
7.34475 90.3398
7.5236 54.7399
7.70247 56.3417
7.88135 58.0995
8.06026 62.115
8.23919 69.4774
8.41812 85.0455
8.59709 1193.12
8.77609 98.3195
8.9551 90.5195
9.13412 81.6975
9.31318 82.4261
9.49226 84.2637
9.67134 98.1068
9.85047 99.4689
10.0296 340.472
10.2088 386.932
10.388 104.443
10.5672 517.063
10.7465 86.2799
10.9257 78.089
11.105 71.7724
11.2844 70.1877
11.4637 64.686
11.6431 63.5932
11.8225 62.4338
12.002 63.465
12.1814 153.422
12.3609 69.9475
12.5405 64.3546
12.72 69.7649
12.8996 70.9868
13.0792 78.8493
13.2589 240.167
13.4386 120.14
13.6183 249.493
13.7981 94.7654
13.9779 75.6362
14.1577 72.1528
14.3376 71.3139
14.5175 68.4564
14.6974 70.1871
14.8774 109.819
15.0574 144.15
15.2374 71.0137
15.4175 65.9319
15.5976 65.4239
15.7778 94.2186
15.958 154.194
16.1382 62.6145
16.3185 58.5823
16.4988 55.3179
16.6792 54.3154
16.8596 55.0542
17.04 55.721
17.2205 66.549
17.401 70.5284
17.5815 59.1284
17.7622 61.1378
17.9428 73.4668
18.1237 142.365
18.3044 90.6577
18.4852 76.2745
18.666 60.0572
18.8469 57.8582
19.0278 56.8346
19.2088 59.4686
19.3898 77.0785
19.5709 54.1345
19.752 53.2185
19.9332 56.126
20.1144 69.8827
20.2957 64.0827
20.477 53.2578
20.6586 49.602
20.84 48.729
21.0215 48.5938
21.203 50.7062
21.3846 48.8313
21.5662 48.7443
21.7479 52.5152
21.9297 64.7753
22.1115 56.0565
22.2933 49.8238
22.4753 48.856
22.6572 48.9628
22.8393 51.8903
23.0214 57.4657
23.2037 48.6298
23.3859 49.4968
23.5682 57.3718
23.7505 47.9446
23.9329 45.1242
24.1154 44.1822
24.2979 43.3695
24.4805 42.7202
24.6631 42.6479
24.8458 42.1487
25.0286 42.7836
25.2114 44.5339
25.3943 44.5894
25.5773 40.9345
25.7605 40.4822
25.9436 40.8209
26.1268 41.635
26.31 40.0484
26.4933 40.7191
26.6767 42.2444
26.8601 40.276
27.0437 38.911
27.2272 38.4517
27.4109 38.5079
27.5946 38.3465
27.7784 37.8342
27.9623 38.4664
28.1462 38.8426
28.3304 37.1649
28.5145 35.9665
28.6987 35.4905
28.8829 35.5216
29.0673 34.6738
29.2517 34.4028
29.4361 34.1955
29.6207 33.2117
29.8053 32.838
29.99 32.5744
30.1748 32.4252
30.3597 32.1736
30.5447 32.163
30.7297 32.2289
30.915 31.5786
31.1002 30.9988
31.2855 30.8724
31.4708 30.84
31.6563 30.4406
31.8418 30.1718
32.0275 29.9592
32.2132 29.3531
32.399 28.877
32.5848 28.4704
32.7708 28.1114
32.9569 27.9646
33.143 27.7758
33.3293 27.3819
33.5158 27.0576
33.7022 26.5605
33.8887 26.3224
34.0753 26.0484
34.262 25.6273
34.4488 25.3145
34.6357 24.9775
34.8227 24.7054
35.0098 24.5442
35.1969 24.1936
35.3842 24.0169
35.5716 23.7331
35.759 23.4493
35.9468 23.1649
36.1345 22.9221
36.3222 22.6498
36.5101 22.4004
36.6981 22.1386
36.8861 21.697
37.0743 21.5404
37.2626 21.1757
37.451 20.9681
37.6395 20.8223
37.8281 20.4447
38.0168 20.1601
38.2056 19.9727
38.3945 19.6667
38.5837 19.3963
38.7728 19.2045
38.9621 18.9804
39.1514 18.7216
39.3409 18.506
39.5304 18.2408
39.7201 18.1015
39.9099 17.8293
40.0999 17.6144
40.2899 17.3359
40.48 17.1191
40.6703 16.9141
40.8607 16.7555
41.0512 16.5161
41.242 16.2538
41.4327 16.0835
41.6236 15.7815
41.8146 15.6534
42.0057 15.4447
42.1969 15.2138
42.3882 15.0227
42.5797 14.7962
42.7713 14.6048
42.963 14.4059
43.1549 14.2145
43.3468 14.0176
43.5389 13.8656
43.7312 13.6406
43.9237 13.4854
44.1162 13.2951
44.3088 13.0819
44.5016 12.8836
44.6945 12.7102
44.8875 12.5388
45.0806 12.3936
45.2739 12.203
45.4673 12.0287
45.6609 11.8828
45.8546 11.6977
46.0484 11.5374
46.2424 11.3282
46.4365 11.2345
46.631 11.0202
46.8254 10.8576
47.0199 10.7068
47.2146 10.5485
47.4095 10.3925
47.6044 10.2384
47.7996 10.0682
47.9948 9.98981
48.1902 9.79576
48.3858 9.67542
48.5815 9.5123
48.7774 9.34888
48.9734 9.26973
49.1696 9.11582
49.3661 8.96716
49.5626 8.78059
49.7592 8.7259
49.956 8.57812
50.153 8.4559
50.3501 8.32693
50.5474 8.1871
50.7448 8.03784
50.9424 7.9266
51.1402 7.8027
51.3381 7.65848
51.5362 7.57077
51.7344 7.42588
51.9328 7.27248
52.1316 7.21454
52.3304 7.09801
52.5293 6.95679
52.7284 6.85212
52.9276 6.72251
53.1271 6.65215
53.3267 6.48405
53.5265 6.37933
53.7264 6.30413
53.9266 6.16092
54.1269 6.03447
54.3274 5.9667
54.528 5.8176
54.7289 5.64326
54.9301 5.45163
55.1314 5.34206
55.3328 5.15268
55.5344 4.97594
55.7361 4.80064