File: XRD/Ni3Fe_FD0374.xy
TT I
1.27165 7.57607
1.45013 6.78738
1.62863 5.1465
1.80712 4.73753
1.98562 4.95511
2.16411 4.84757
2.34263 4.75856
2.52115 5.97934
2.69965 7.08539
2.87818 8.52792
3.05672 10.9402
3.23527 15.0738
3.4138 19.0517
3.59237 23.8628
3.77094 26.3514
3.9495 30.0615
4.12809 35.7513
4.30669 164.904
4.4853 60.418
4.6639 57.4393
4.84253 69.6745
5.02118 90.43
5.19981 506.954
5.37848 228.478
5.55716 106.073
5.73586 95.7858
5.91455 99.9011
6.09328 4047.08
6.27201 86.6177
6.45075 69.2079
6.62952 64.4032
6.8083 60.1009
6.98711 56.9469
7.16591 56.7712
7.34475 81.6419
7.5236 56.1827
7.70247 57.6847
7.88135 59.3656
8.06026 63.9992
8.23919 71.4181
8.41812 87.9498
8.59709 1195.53
8.77609 105.119
8.9551 92.579
9.13412 84.3042
9.31318 85.6015
9.49226 87.2744
9.67134 98.7525
9.85047 103.763
10.0296 412.346
10.2088 516.495
10.388 109.219
10.5672 482.825
10.7465 89.7297
10.9257 80.2456
11.105 73.7842
11.2844 71.4486
11.4637 66.5679
11.6431 65.3391
11.8225 64.0363
12.002 65.9477
12.1814 150.232
12.3609 72.3627
12.5405 66.4811
12.72 70.8857
12.8996 73.3115
13.0792 81.9565
13.2589 245.34
13.4386 141.281
13.6183 244.253
13.7981 107.624
13.9779 78.3587
14.1577 74.2674
14.3376 72.9149
14.5175 70.7109
14.6974 72.6652
14.8774 118.006
15.0574 161.089
15.2374 72.4714
15.4175 68.523
15.5976 67.8194
15.7778 101.243
15.958 167.916
16.1382 63.9392
16.3185 59.9588
16.4988 57.0545
16.6792 56.2765
16.8596 56.7967
17.04 57.5382
17.2205 68.9705
17.401 74.5081
17.5815 60.9694
17.7622 63.1191
17.9428 77.8726
18.1237 134.721
18.3044 92.5744
18.4852 81.9809
18.666 62.1426
18.8469 59.8348
19.0278 58.5168
19.2088 61.5578
19.3898 76.1358
19.5709 56.0029
19.752 54.9671
19.9332 58.3481
20.1144 70.5443
20.2957 64.4486
20.477 55.7854
20.6586 51.1303
20.84 50.301
21.0215 49.9781
21.203 52.0175
21.3846 50.7599
21.5662 50.4301
21.7479 54.5552
21.9297 65.4064
22.1115 57.0948
22.2933 51.3657
22.4753 50.4183
22.6572 50.5039
22.8393 53.8085
23.0214 58.865
23.2037 50.3015
23.3859 51.5391
23.5682 57.326
23.7505 50.3631
23.9329 46.5455
24.1154 45.504
24.2979 44.6799
24.4805 44.1549
24.6631 44.019
24.8458 43.6375
25.0286 44.2117
25.2114 45.9142
25.3943 45.9079
25.5773 42.2284
25.7605 41.6413
25.9436 42.01
26.1268 42.8094
26.31 41.3867
26.4933 41.953
26.6767 43.3623
26.8601 41.5706
27.0437 40.1081
27.2272 39.6981
27.4109 39.5241
27.5946 39.5672
27.7784 39.0223
27.9623 39.4905
28.1462 39.9963
28.3304 38.1889
28.5145 37.0161
28.6987 36.5289
28.8829 36.4064
29.0673 35.6795
29.2517 35.3482
29.4361 35.0905
29.6207 34.0456
29.8053 33.8819
29.99 33.5033
30.1748 33.3965
30.3597 33.1253
30.5447 33.1214
30.7297 33.135
30.915 32.5534
31.1002 31.9294
31.2855 31.7201
31.4708 31.6075
31.6563 31.3101
31.8418 30.9109
32.0275 30.7373
32.2132 30.3052
32.399 29.7618
32.5848 29.2948
32.7708 28.9327
32.9569 28.7653
33.143 28.5402
33.3293 28.1251
33.5158 27.7992
33.7022 27.3564
33.8887 27.0926
34.0753 26.8215
34.262 26.322
34.4488 26.0145
34.6357 25.6943
34.8227 25.3141
35.0098 25.2362
35.1969 24.8323
35.3842 24.5956
35.5716 24.5099
35.759 24.1227
35.9468 23.7693
36.1345 23.5212
36.3222 23.2808
36.5101 23.0676
36.6981 22.7493
36.8861 22.4254
37.0743 22.0399
37.2626 21.8982
37.451 21.5841
37.6395 21.4317
37.8281 21.0447
38.0168 20.7447
38.2056 20.5015
38.3945 20.243
38.5837 19.9775
38.7728 19.7572
38.9621 19.5495
39.1514 19.208
39.3409 19.0101
39.5304 18.7343
39.7201 18.594
39.9099 18.316
40.0999 18.1264
40.2899 17.8247
40.48 17.5462
40.6703 17.372
40.8607 17.1884
41.0512 16.997
41.242 16.7166
41.4327 16.4706
41.6236 16.2488
41.8146 16.0585
42.0057 15.8537
42.1969 15.6059
42.3882 15.4579
42.5797 15.2525
42.7713 15.0175
42.963 14.7412
43.1549 14.6067
43.3468 14.3688
43.5389 14.2243
43.7312 14.0096
43.9237 13.831
44.1162 13.6062
44.3088 13.431
44.5016 13.2419
44.6945 13.0967
44.8875 12.9248
45.0806 12.6814
45.2739 12.5217
45.4673 12.3836
45.6609 12.2184
45.8546 12.0543
46.0484 11.8192
46.2424 11.6899
46.4365 11.5018
46.631 11.3354
46.8254 11.0867
47.0199 10.9519
47.2146 10.8458
47.4095 10.6496
47.6044 10.5315
47.7996 10.3841
47.9948 10.2129
48.1902 10.067
48.3858 9.90323
48.5815 9.78879
48.7774 9.61887
48.9734 9.47593
49.1696 9.33861
49.3661 9.21925
49.5626 9.03791
49.7592 8.92011
49.956 8.79929
50.153 8.63295
50.3501 8.51249
50.5474 8.40705
50.7448 8.25123
50.9424 8.1641
51.1402 8.01833
51.3381 7.88673
51.5362 7.79348
51.7344 7.62198
51.9328 7.48024
52.1316 7.35639
52.3304 7.25571
52.5293 7.1263
52.7284 7.02238
52.9276 6.90013
53.1271 6.815
53.3267 6.62297
53.5265 6.55039
53.7264 6.41769
53.9266 6.33971
54.1269 6.20227
54.3274 6.10315
54.528 5.95341
54.7289 5.78697
54.9301 5.63499
55.1314 5.49804
55.3328 5.27024
55.5344 5.13183
55.7361 4.98431