File: XRD/Ni3Fe_FD0866.xy
TT I
1.27165 7.43801
1.45013 5.88152
1.62863 5.4153
1.80712 4.52922
1.98562 4.98532
2.16411 4.96292
2.34263 6.34265
2.52115 7.36717
2.69965 8.48122
2.87818 8.98371
3.05672 10.9944
3.23527 15.5332
3.4138 18.9311
3.59237 24.0446
3.77094 26.2
3.9495 29.2855
4.12809 35.5471
4.30669 233.867
4.4853 66.8699
4.6639 54.9004
4.84253 66.2514
5.02118 84.5356
5.19981 294.41
5.37848 177.406
5.55716 100.461
5.73586 90.6809
5.91455 91.3039
6.09328 4327.84
6.27201 81.6882
6.45075 66.9121
6.62952 62.3146
6.8083 58.2019
6.98711 55.3862
7.16591 54.7744
7.34475 93.8594
7.5236 54.5235
7.70247 55.5142
7.88135 57.2211
8.06026 61.374
8.23919 68.8852
8.41812 84.011
8.59709 1135.89
8.77609 97.6889
8.9551 90.9707
9.13412 80.4137
9.31318 81.2924
9.49226 83.3429
9.67134 97.9041
9.85047 98.1119
10.0296 302.828
10.2088 398.336
10.388 102.863
10.5672 527.576
10.7465 85.2662
10.9257 77.7692
11.105 70.9613
11.2844 70.1481
11.4637 64.0634
11.6431 62.8169
11.8225 61.8137
12.002 62.5429
12.1814 150.051
12.3609 70.0773
12.5405 63.5963
12.72 69.1963
12.8996 69.9376
13.0792 78.0655
13.2589 228.662
13.4386 122.237
13.6183 243.053
13.7981 95.9228
13.9779 74.7939
14.1577 71.4695
14.3376 70.8672
14.5175 67.9627
14.6974 69.2741
14.8774 105.377
15.0574 145.361
15.2374 70.4208
15.4175 65.4114
15.5976 64.8104
15.7778 90.4035
15.958 153.994
16.1382 62.008
16.3185 58.2277
16.4988 54.5928
16.6792 53.8436
16.8596 54.583
17.04 54.9316
17.2205 65.2044
17.401 70.2224
17.5815 58.3187
17.7622 60.3029
17.9428 71.0728
18.1237 138.45
18.3044 89.4834
18.4852 76.5137
18.666 59.5793
18.8469 57.1689
19.0278 56.0917
19.2088 58.2283
19.3898 76.1352
19.5709 53.4199
19.752 52.5775
19.9332 55.2116
20.1144 69.0728
20.2957 63.5558
20.477 53.0958
20.6586 48.9582
20.84 48.315
21.0215 47.7832
21.203 50.3361
21.3846 48.3118
21.5662 48.0663
21.7479 51.5484
21.9297 63.9158
22.1115 55.4725
22.2933 49.2611
22.4753 48.3902
22.6572 48.1044
22.8393 50.9202
23.0214 56.6095
23.2037 48.0743
23.3859 48.8123
23.5682 56.4873
23.7505 47.8357
23.9329 44.5289
24.1154 43.5699
24.2979 42.9247
24.4805 42.3702
24.6631 42.2582
24.8458 41.5597
25.0286 42.1448
25.2114 44.0446
25.3943 44.0491
25.5773 40.3769
25.7605 39.9019
25.9436 40.2944
26.1268 41.2592
26.31 39.5612
26.4933 40.1495
26.6767 41.6389
26.8601 39.8319
27.0437 38.2957
27.2272 38.0274
27.4109 37.8648
27.5946 38.0359
27.7784 37.3177
27.9623 37.9677
28.1462 38.1926
28.3304 36.7342
28.5145 35.4841
28.6987 35.1295
28.8829 35.0577
29.0673 34.1665
29.2517 33.8243
29.4361 33.6922
29.6207 32.7075
29.8053 32.5043
29.99 32.162
30.1748 32.0607
30.3597 31.8743
30.5447 31.7221
30.7297 31.7862
30.915 31.2265
31.1002 30.7531
31.2855 30.5088
31.4708 30.4907
31.6563 30.0023
31.8418 29.7251
32.0275 29.6152
32.2132 29.1114
32.399 28.5352
32.5848 28.108
32.7708 27.848
32.9569 27.6876
33.143 27.4204
33.3293 27.0197
33.5158 26.7259
33.7022 26.2477
33.8887 26.0294
34.0753 25.6651
34.262 25.3314
34.4488 25.0108
34.6357 24.6327
34.8227 24.3721
35.0098 24.1744
35.1969 23.8897
35.3842 23.7034
35.5716 23.5311
35.759 23.0681
35.9468 22.8475
36.1345 22.5971
36.3222 22.3256
36.5101 22.1943
36.6981 21.8604
36.8861 21.5449
37.0743 21.1915
37.2626 20.9298
37.451 20.7789
37.6395 20.5247
37.8281 20.2286
38.0168 19.8849
38.2056 19.6791
38.3945 19.4144
38.5837 19.2172
38.7728 18.9905
38.9621 18.7545
39.1514 18.4485
39.3409 18.1914
39.5304 18.0724
39.7201 17.8171
39.9099 17.6067
40.0999 17.4056
40.2899 17.0694
40.48 16.9334
40.6703 16.6824
40.8607 16.568
41.0512 16.3546
41.242 16.0195
41.4327 15.8431
41.6236 15.5904
41.8146 15.4447
42.0057 15.2124
42.1969 15.0204
42.3882 14.8544
42.5797 14.6871
42.7713 14.4545
42.963 14.2311
43.1549 14.0466
43.3468 13.829
43.5389 13.6862
43.7312 13.5049
43.9237 13.322
44.1162 13.1299
44.3088 12.9337
44.5016 12.7513
44.6945 12.5382
44.8875 12.3983
45.0806 12.2428
45.2739 12.0479
45.4673 11.9605
45.6609 11.7013
45.8546 11.5318
46.0484 11.3889
46.2424 11.1864
46.4365 11.0795
46.631 10.897
46.8254 10.7228
47.0199 10.6148
47.2146 10.4157
47.4095 10.2952
47.6044 10.1435
47.7996 9.98476
47.9948 9.84018
48.1902 9.69062
48.3858 9.5665
48.5815 9.42967
48.7774 9.28959
48.9734 9.1366
49.1696 9.00277
49.3661 8.89824
49.5626 8.6968
49.7592 8.61694
49.956 8.47493
50.153 8.34207
50.3501 8.20147
50.5474 8.09932
50.7448 7.98567
50.9424 7.83649
51.1402 7.71874
51.3381 7.60223
51.5362 7.45515
51.7344 7.3332
51.9328 7.21084
52.1316 7.0613
52.3304 7.00141
52.5293 6.88074
52.7284 6.73698
52.9276 6.67184
53.1271 6.5457
53.3267 6.42828
53.5265 6.26874
53.7264 6.21036
53.9266 6.0821
54.1269 5.98357
54.3274 5.89649
54.528 5.73323
54.7289 5.57273
54.9301 5.41162
55.1314 5.33821
55.3328 5.09735
55.5344 4.88931
55.7361 4.7416