File: XRD/Ni3Fe_FD0793.xy
TT I
1.27165 7.58575
1.45013 5.54795
1.62863 4.9095
1.80712 4.04742
1.98562 4.46553
2.16411 4.74664
2.34263 5.72193
2.52115 6.68727
2.69965 8.13704
2.87818 9.0112
3.05672 11.6262
3.23527 14.827
3.4138 18.661
3.59237 23.1386
3.77094 25.8474
3.9495 29.2508
4.12809 34.0127
4.30669 143.999
4.4853 57.8745
4.6639 54.7625
4.84253 66.9987
5.02118 86.1985
5.19981 367.304
5.37848 179.216
5.55716 100.611
5.73586 91.526
5.91455 93.5969
6.09328 4576.6
6.27201 80.0175
6.45075 67.3321
6.62952 61.924
6.8083 57.9526
6.98711 55.1265
7.16591 54.8324
7.34475 76.2304
7.5236 54.3313
7.70247 55.5625
7.88135 57.0669
8.06026 61.5478
8.23919 68.7092
8.41812 83.8452
8.59709 1205.88
8.77609 96.698
8.9551 88.6788
9.13412 81.6667
9.31318 82.4538
9.49226 84.0399
9.67134 94.6427
9.85047 99.275
10.0296 343.933
10.2088 343.923
10.388 103.404
10.5672 539.021
10.7465 84.9934
10.9257 77.0493
11.105 70.8067
11.2844 68.3767
11.4637 63.9671
11.6431 63.0199
11.8225 61.54
12.002 63.4457
12.1814 157.618
12.3609 67.0968
12.5405 63.6933
12.72 68.1422
12.8996 70.4832
13.0792 79.0114
13.2589 246.847
13.4386 117.205
13.6183 256.185
13.7981 92.3609
13.9779 74.8932
14.1577 71.3017
14.3376 70.0241
14.5175 68.0884
14.6974 69.7878
14.8774 111.327
15.0574 140.878
15.2374 69.3499
15.4175 65.6328
15.5976 65.0244
15.7778 94.8644
15.958 146.894
16.1382 61.2487
16.3185 57.619
16.4988 54.6547
16.6792 53.927
16.8596 54.4111
17.04 55.5028
17.2205 66.7632
17.401 68.7431
17.5815 58.5177
17.7622 60.7926
17.9428 73.3077
18.1237 141.731
18.3044 90.9951
18.4852 74.1427
18.666 59.5737
18.8469 57.3549
19.0278 56.1524
19.2088 58.7802
19.3898 75.7555
19.5709 53.5881
19.752 52.7397
19.9332 55.7188
20.1144 69.4546
20.2957 64.0612
20.477 52.4657
20.6586 49.1162
20.84 48.2142
21.0215 48.0659
21.203 50.5198
21.3846 48.2164
21.5662 48.4048
21.7479 52.2498
21.9297 64.2507
22.1115 55.8115
22.2933 49.135
22.4753 48.1152
22.6572 48.3808
22.8393 51.5124
23.0214 56.5604
23.2037 48.2155
23.3859 49.3747
23.5682 56.9769
23.7505 47.4339
23.9329 44.6716
24.1154 43.412
24.2979 43.067
24.4805 42.4709
24.6631 42.4423
24.8458 41.8709
25.0286 42.4443
25.2114 44.1362
25.3943 44.1333
25.5773 40.4885
25.7605 39.9828
25.9436 40.4619
26.1268 41.2936
26.31 39.6345
26.4933 40.4009
26.6767 41.7118
26.8601 40.0072
27.0437 38.4958
27.2272 38.1117
27.4109 38.0027
27.5946 38.1067
27.7784 37.5097
27.9623 38.2754
28.1462 38.5386
28.3304 36.6813
28.5145 35.5973
28.6987 35.2171
28.8829 35.0615
29.0673 34.2032
29.2517 33.9695
29.4361 33.8105
29.6207 32.7176
29.8053 32.602
29.99 32.2686
30.1748 32.1859
30.3597 31.9539
30.5447 31.8324
30.7297 31.8932
30.915 31.2183
31.1002 30.9405
31.2855 30.5867
31.4708 30.4475
31.6563 30.1188
31.8418 29.7801
32.0275 29.586
32.2132 29.1221
32.399 28.7114
32.5848 28.1645
32.7708 27.8309
32.9569 27.7621
33.143 27.4943
33.3293 27.2385
33.5158 26.7813
33.7022 26.3215
33.8887 26.0622
34.0753 25.6789
34.262 25.3848
34.4488 25.035
34.6357 24.6678
34.8227 24.4372
35.0098 24.2787
35.1969 23.8676
35.3842 23.7662
35.5716 23.574
35.759 23.2746
35.9468 22.9344
36.1345 22.7427
36.3222 22.4347
36.5101 22.1345
36.6981 21.8572
36.8861 21.6599
37.0743 21.2405
37.2626 21.0084
37.451 20.8005
37.6395 20.6435
37.8281 20.2536
38.0168 19.9613
38.2056 19.7428
38.3945 19.4885
38.5837 19.219
38.7728 19.0001
38.9621 18.7636
39.1514 18.4844
39.3409 18.2523
39.5304 18.0173
39.7201 17.831
39.9099 17.7221
40.0999 17.4356
40.2899 17.1723
40.48 16.9521
40.6703 16.746
40.8607 16.4925
41.0512 16.2855
41.242 16.0814
41.4327 15.9206
41.6236 15.6546
41.8146 15.51
42.0057 15.258
42.1969 15.0662
42.3882 14.839
42.5797 14.6459
42.7713 14.463
42.963 14.2775
43.1549 14.0961
43.3468 13.8559
43.5389 13.7123
43.7312 13.5093
43.9237 13.3201
44.1162 13.0646
44.3088 12.9787
44.5016 12.7341
44.6945 12.5964
44.8875 12.4626
45.0806 12.2372
45.2739 12.0924
45.4673 11.897
45.6609 11.7311
45.8546 11.6384
46.0484 11.4215
46.2424 11.2342
46.4365 11.0423
46.631 10.8897
46.8254 10.7563
47.0199 10.5798
47.2146 10.4397
47.4095 10.2526
47.6044 10.1181
47.7996 9.9743
47.9948 9.85844
48.1902 9.6844
48.3858 9.55215
48.5815 9.43084
48.7774 9.29734
48.9734 9.1704
49.1696 8.98881
49.3661 8.85201
49.5626 8.72632
49.7592 8.58669
49.956 8.50378
50.153 8.32169
50.3501 8.2164
50.5474 8.08322
50.7448 7.94782
50.9424 7.85898
51.1402 7.75502
51.3381 7.61373
51.5362 7.49765
51.7344 7.37526
51.9328 7.21481
52.1316 7.10276
52.3304 7.03619
52.5293 6.88062
52.7284 6.71716
52.9276 6.64948
53.1271 6.58298
53.3267 6.4375
53.5265 6.31583
53.7264 6.21065
53.9266 6.08384
54.1269 5.99214
54.3274 5.84287
54.528 5.7738
54.7289 5.62171
54.9301 5.41725
55.1314 5.27665
55.3328 5.17575
55.5344 4.91618
55.7361 4.76435