File: XRD/Ni3Fe_FD0491.xy
TT I
1.27165 7.14004
1.45013 6.63245
1.62863 5.81301
1.80712 5.24989
1.98562 4.61947
2.16411 4.98879
2.34263 5.3897
2.52115 6.33348
2.69965 7.62432
2.87818 8.45007
3.05672 11.0699
3.23527 15.3164
3.4138 18.7323
3.59237 23.2105
3.77094 26.456
3.9495 29.6315
4.12809 35.1091
4.30669 168.336
4.4853 61.5832
4.6639 56.0782
4.84253 68.81
5.02118 88.7989
5.19981 437.043
5.37848 205.226
5.55716 104.466
5.73586 94.5268
5.91455 97.2916
6.09328 4205.85
6.27201 85.199
6.45075 68.2448
6.62952 63.594
6.8083 59.2705
6.98711 56.397
7.16591 55.904
7.34475 83.3259
7.5236 55.1665
7.70247 57.0391
7.88135 58.3855
8.06026 63.6287
8.23919 70.5586
8.41812 86.4922
8.59709 1212.34
8.77609 102.522
8.9551 91.1592
9.13412 83.1222
9.31318 84.3072
9.49226 85.8091
9.67134 98.1267
9.85047 101.517
10.0296 381.68
10.2088 454.771
10.388 106.861
10.5672 497.408
10.7465 87.8518
10.9257 79.2723
11.105 72.772
11.2844 70.6901
11.4637 65.9553
11.6431 64.4558
11.8225 63.1795
12.002 64.5576
12.1814 155.61
12.3609 70.6817
12.5405 65.5412
12.72 70.2097
12.8996 71.8827
13.0792 80.6933
13.2589 246.238
13.4386 131.059
13.6183 250.381
13.7981 103.129
13.9779 77.088
14.1577 73.4242
14.3376 72.1179
14.5175 70.1875
14.6974 71.4762
14.8774 115.447
15.0574 156.444
15.2374 71.5253
15.4175 67.4774
15.5976 66.876
15.7778 98.8244
15.958 157.993
16.1382 63.185
16.3185 59.4515
16.4988 56.4783
16.6792 55.3793
16.8596 56.15
17.04 56.9172
17.2205 68.4016
17.401 72.9574
17.5815 59.9953
17.7622 62.2387
17.9428 75.9825
18.1237 136.304
18.3044 91.8317
18.4852 80.3927
18.666 61.1816
18.8469 58.9578
19.0278 57.6115
19.2088 60.6972
19.3898 75.7475
19.5709 55.0577
19.752 54.0996
19.9332 57.4651
20.1144 69.7351
20.2957 64.1768
20.477 54.778
20.6586 50.4629
20.84 49.5326
21.0215 49.5809
21.203 51.5212
21.3846 49.7017
21.5662 49.6497
21.7479 53.7201
21.9297 64.7077
22.1115 56.397
22.2933 50.6706
22.4753 49.5445
22.6572 49.6645
22.8393 52.9592
23.0214 57.723
23.2037 49.5505
23.3859 50.6428
23.5682 57.0126
23.7505 49.346
23.9329 45.9734
24.1154 44.702
24.2979 44.1206
24.4805 43.736
24.6631 43.497
24.8458 42.8913
25.0286 43.5363
25.2114 45.2314
25.3943 45.0672
25.5773 41.5058
25.7605 41.0131
25.9436 41.546
26.1268 42.2971
26.31 40.7123
26.4933 41.4739
26.6767 42.7376
26.8601 41.0216
27.0437 39.4544
27.2272 39.104
27.4109 39.0006
27.5946 39.0036
27.7784 38.4527
27.9623 38.9515
28.1462 39.3148
28.3304 37.6272
28.5145 36.5503
28.6987 36.1196
28.8829 35.928
29.0673 35.3813
29.2517 34.8963
29.4361 34.6278
29.6207 33.6417
29.8053 33.4883
29.99 33.0702
30.1748 32.9571
30.3597 32.8414
30.5447 32.5936
30.7297 32.6521
30.915 32.1502
31.1002 31.6075
31.2855 31.3758
31.4708 31.2654
31.6563 30.8389
31.8418 30.5579
32.0275 30.3002
32.2132 29.8223
32.399 29.3264
32.5848 28.9729
32.7708 28.6385
32.9569 28.4811
33.143 28.16
33.3293 27.8518
33.5158 27.4564
33.7022 27.0351
33.8887 26.6834
34.0753 26.4174
34.262 26.0435
34.4488 25.6908
34.6357 25.3428
34.8227 25.109
35.0098 24.8749
35.1969 24.5889
35.3842 24.2966
35.5716 24.1518
35.759 23.8095
35.9468 23.4398
36.1345 23.2472
36.3222 23.0046
36.5101 22.7642
36.6981 22.4157
36.8861 22.1676
37.0743 21.8469
37.2626 21.5622
37.451 21.3379
37.6395 21.1413
37.8281 20.8039
38.0168 20.5186
38.2056 20.1894
38.3945 20.0082
38.5837 19.7061
38.7728 19.4287
38.9621 19.2534
39.1514 18.9929
39.3409 18.7458
39.5304 18.4988
39.7201 18.391
39.9099 18.1243
40.0999 17.8846
40.2899 17.6245
40.48 17.3909
40.6703 17.1539
40.8607 16.9805
41.0512 16.8115
41.242 16.4921
41.4327 16.3619
41.6236 16.0715
41.8146 15.9034
42.0057 15.6174
42.1969 15.4278
42.3882 15.2508
42.5797 15.0102
42.7713 14.8407
42.963 14.6216
43.1549 14.4121
43.3468 14.2072
43.5389 14.0026
43.7312 13.7952
43.9237 13.6778
44.1162 13.467
44.3088 13.2696
44.5016 13.0956
44.6945 12.9255
44.8875 12.6923
45.0806 12.5671
45.2739 12.3536
45.4673 12.1859
45.6609 12.0158
45.8546 11.8379
46.0484 11.6846
46.2424 11.5444
46.4365 11.376
46.631 11.1531
46.8254 11.0261
47.0199 10.8792
47.2146 10.7392
47.4095 10.5353
47.6044 10.3694
47.7996 10.2543
47.9948 10.0782
48.1902 9.93564
48.3858 9.76592
48.5815 9.6941
48.7774 9.55585
48.9734 9.37245
49.1696 9.24167
49.3661 9.09007
49.5626 8.97146
49.7592 8.8304
49.956 8.69528
50.153 8.55485
50.3501 8.40851
50.5474 8.3006
50.7448 8.19403
50.9424 8.02935
51.1402 7.94275
51.3381 7.77786
51.5362 7.64661
51.7344 7.5635
51.9328 7.38887
52.1316 7.25175
52.3304 7.14129
52.5293 7.02738
52.7284 6.94589
52.9276 6.86033
53.1271 6.69427
53.3267 6.6195
53.5265 6.46869
53.7264 6.39785
53.9266 6.26047
54.1269 6.14513
54.3274 6.04337
54.528 5.84807
54.7289 5.74505
54.9301 5.57145
55.1314 5.42365
55.3328 5.21882
55.5344 5.04038
55.7361 4.89307