File: XRD/Ni3Fe_FD0014.xy
TT I
1.27165 35.7985
1.45013 32.2819
1.62863 28.6013
1.80712 25.704
1.98562 25.1989
2.16411 25.9952
2.34263 26.2547
2.52115 26.4173
2.69965 30.0894
2.87818 39.2462
3.05672 66.2817
3.23527 80.1955
3.4138 44.0491
3.59237 39.4996
3.77094 41.1956
3.9495 42.9648
4.12809 54.233
4.30669 77.9577
4.4853 67.2687
4.6639 53.6703
4.84253 58.9747
5.02118 90.1514
5.19981 256.85
5.37848 4010.84
5.55716 161.972
5.73586 100.322
5.91455 108.619
6.09328 418.887
6.27201 350.13
6.45075 73.5641
6.62952 55.0149
6.8083 52.4746
6.98711 48.2213
7.16591 51.4828
7.34475 69.6627
7.5236 63.5045
7.70247 50.9559
7.88135 39.4944
8.06026 39.9814
8.23919 44.451
8.41812 55.6444
8.59709 145.82
8.77609 732.602
8.9551 80.0013
9.13412 58.9932
9.31318 246.871
9.49226 52.3934
9.67134 50.9051
9.85047 56.6684
10.0296 90.2162
10.2088 403.353
10.388 147.326
10.5672 89.2504
10.7465 293.703
10.9257 49.1245
11.105 41.8387
11.2844 40.4469
11.4637 38.4571
11.6431 37.5055
11.8225 37.2274
12.002 67.4191
12.1814 46.3547
12.3609 88.9047
12.5405 45.8937
12.72 39.7849
12.8996 39.5619
13.0792 41.792
13.2589 61.8421
13.4386 126.335
13.6183 99.4499
13.7981 135.404
13.9779 68.0634
14.1577 45.7671
14.3376 50.8402
14.5175 37.0516
14.6974 36.5877
14.8774 41.0912
15.0574 56.2305
15.2374 108.281
15.4175 41.259
15.5976 37.6347
15.7778 39.8457
15.958 51.384
16.1382 130.989
16.3185 40.4604
16.4988 33.1553
16.6792 31.2231
16.8596 31.0718
17.04 39.0345
17.2205 32.5597
17.401 35.1367
17.5815 50.8534
17.7622 34.3348
17.9428 40.8914
18.1237 42.1655
18.3044 80.9745
18.4852 58.9074
18.666 72.7812
18.8469 36.106
19.0278 32.7336
19.2088 32.5627
19.3898 37.8707
19.5709 45.6759
19.752 37.2931
19.9332 31.2764
20.1144 31.9831
20.2957 40.1845
20.477 39.6872
20.6586 42.0672
20.84 31.2077
21.0215 29.888
21.203 27.9054
21.3846 28.358
21.5662 32.6442
21.7479 29.0514
21.9297 30.6051
22.1115 38.8102
22.2933 46.0101
22.4753 37.5563
22.6572 29.7331
22.8393 29.6143
23.0214 31.2909
23.2037 36.9729
23.3859 35.7202
23.5682 34.5902
23.7505 33.2548
23.9329 45.6324
24.1154 29.6504
24.2979 27.2663
24.4805 25.9111
24.6631 25.963
24.8458 27.6496
25.0286 25.8983
25.2114 25.8095
25.3943 28.1528
25.5773 30.4968
25.7605 30.4304
25.9436 26.6728
26.1268 25.375
26.31 25.8666
26.4933 28.7399
26.6767 25.6232
26.8601 26.8826
27.0437 31.7716
27.2272 27.837
27.4109 24.5432
27.5946 24.3024
27.7784 24.5386
27.9623 25.4977
28.1462 25.4757
28.3304 26.6004
28.5145 28.4301
28.6987 25.7224
28.8829 22.9554
29.0673 22.3516
29.2517 23.2188
29.4361 22.0785
29.6207 21.7623
29.8053 22.926
29.99 21.262
30.1748 21.124
30.3597 20.9766
30.5447 21.1836
30.7297 21.2416
30.915 21.073
31.1002 23.1746
31.2855 22.2842
31.4708 20.5644
31.6563 20.5145
31.8418 21.3369
32.0275 20.8228
32.2132 20.4669
32.399 21.3136
32.5848 19.9485
32.7708 18.9353
32.9569 18.8034
33.143 18.8663
33.3293 18.3244
33.5158 18.7727
33.7022 19.1919
33.8887 18.2199
34.0753 17.7209
34.262 17.6494
34.4488 17.3147
34.6357 17.019
34.8227 17.0438
35.0098 16.6078
35.1969 16.2154
35.3842 16.248
35.5716 16.1956
35.759 16.4699
35.9468 16.9452
36.1345 16.1987
36.3222 15.7027
36.5101 15.6658
36.6981 15.6865
36.8861 15.282
37.0743 15.3231
37.2626 14.9254
37.451 14.6407
37.6395 14.43
37.8281 14.2147
38.0168 14.0504
38.2056 14.0561
38.3945 13.7222
38.5837 13.5441
38.7728 13.5525
38.9621 13.2941
39.1514 13.2291
39.3409 12.9589
39.5304 12.7481
39.7201 12.6238
39.9099 12.4595
40.0999 12.3012
40.2899 12.3588
40.48 12.171
40.6703 11.9983
40.8607 11.8639
41.0512 11.763
41.242 11.6372
41.4327 11.4845
41.6236 11.2498
41.8146 11.1096
42.0057 10.9382
42.1969 10.9625
42.3882 10.7929
42.5797 10.5863
42.7713 10.4383
42.963 10.2417
43.1549 10.1189
43.3468 9.95008
43.5389 9.84972
43.7312 9.6978
43.9237 9.56691
44.1162 9.51434
44.3088 9.40349
44.5016 9.22072
44.6945 9.10934
44.8875 9.0028
45.0806 8.9167
45.2739 8.82964
45.4673 8.68332
45.6609 8.56414
45.8546 8.45585
46.0484 8.33406
46.2424 8.21189
46.4365 8.09096
46.631 7.97021
46.8254 7.82565
47.0199 7.75743
47.2146 7.66147
47.4095 7.54589
47.6044 7.42615
47.7996 7.31844
47.9948 7.20557
48.1902 7.09228
48.3858 6.99546
48.5815 6.88735
48.7774 6.82542
48.9734 6.73261
49.1696 6.6241
49.3661 6.50353
49.5626 6.41892
49.7592 6.35221
49.956 6.26688
50.153 6.18709
50.3501 6.07085
50.5474 6.00584
50.7448 5.89947
50.9424 5.85217
51.1402 5.7456
51.3381 5.64665
51.5362 5.574
51.7344 5.48292
51.9328 5.38496
52.1316 5.28902
52.3304 5.23736
52.5293 5.12115
52.7284 5.05306
52.9276 5.007
53.1271 4.92111
53.3267 4.83004
53.5265 4.74204
53.7264 4.6354
53.9266 4.59791
54.1269 4.47489
54.3274 4.40138
54.528 4.26437
54.7289 4.10814
54.9301 4.00094
55.1314 3.90776
55.3328 3.70134
55.5344 3.57135
55.7361 3.49921