File: XRD/Ni3Fe_FD0324.xy
TT I
1.27165 7.57073
1.45013 6.9253
1.62863 6.03389
1.80712 4.87695
1.98562 4.66392
2.16411 5.10426
2.34263 5.19429
2.52115 6.14554
2.69965 7.21012
2.87818 8.77555
3.05672 10.4882
3.23527 14.5133
3.4138 19.2657
3.59237 24.5054
3.77094 26.4382
3.9495 30.429
4.12809 36.0277
4.30669 195.121
4.4853 64.3118
4.6639 56.6195
4.84253 69.322
5.02118 91.6123
5.19981 535.523
5.37848 231.562
5.55716 106.272
5.73586 96.1333
5.91455 100.889
6.09328 3955.92
6.27201 87.0521
6.45075 69.3383
6.62952 64.3325
6.8083 60.4436
6.98711 56.9872
7.16591 56.8009
7.34475 89.2649
7.5236 56.1781
7.70247 57.7401
7.88135 59.3951
8.06026 64.1455
8.23919 71.6812
8.41812 88.8829
8.59709 1139.32
8.77609 104.791
8.9551 93.5401
9.13412 84.365
9.31318 85.4008
9.49226 87.4844
9.67134 100.582
9.85047 103.341
10.0296 411.995
10.2088 497.284
10.388 109.016
10.5672 477.731
10.7465 89.6661
10.9257 80.3954
11.105 73.8454
11.2844 71.9107
11.4637 66.6905
11.6431 65.4297
11.8225 64.3765
12.002 65.8617
12.1814 149.496
12.3609 72.8386
12.5405 66.4134
12.72 71.6923
12.8996 73.1299
13.0792 82.2609
13.2589 239.057
13.4386 134.324
13.6183 236.479
13.7981 103.988
13.9779 78.3073
14.1577 74.5773
14.3376 73.4785
14.5175 71.1551
14.6974 72.7918
14.8774 116.558
15.0574 159.032
15.2374 72.785
15.4175 68.4307
15.5976 68.1061
15.7778 100.318
15.958 167.786
16.1382 64.4996
16.3185 60.1102
16.4988 57.1724
16.6792 56.4593
16.8596 57.0625
17.04 57.6565
17.2205 68.8393
17.401 74.7012
17.5815 61.1357
17.7622 63.3278
17.9428 78.1161
18.1237 139.38
18.3044 91.0235
18.4852 81.1087
18.666 62.5197
18.8469 60.026
19.0278 58.7974
19.2088 61.9836
19.3898 77.6613
19.5709 56.0494
19.752 55.0566
19.9332 58.4549
20.1144 71.2946
20.2957 64.5601
20.477 55.7736
20.6586 51.3836
20.84 50.4712
21.0215 50.2679
21.203 52.0804
21.3846 50.6693
21.5662 50.5258
21.7479 54.6163
21.9297 66.5053
22.1115 57.1238
22.2933 51.6263
22.4753 50.5061
22.6572 50.6038
22.8393 53.637
23.0214 59.2026
23.2037 50.3912
23.3859 51.5687
23.5682 57.6967
23.7505 50.1034
23.9329 46.6907
24.1154 45.4904
24.2979 44.9289
24.4805 44.3036
24.6631 44.2155
24.8458 43.5677
25.0286 44.2511
25.2114 45.9486
25.3943 46.1284
25.5773 42.1313
25.7605 41.8311
25.9436 42.1103
26.1268 42.9302
26.31 41.4924
26.4933 41.9241
26.6767 43.4815
26.8601 41.5958
27.0437 40.122
27.2272 39.7766
27.4109 39.7311
27.5946 39.5765
27.7784 39.0119
27.9623 39.4082
28.1462 39.9923
28.3304 38.3153
28.5145 37.1156
28.6987 36.7596
28.8829 36.5283
29.0673 35.7627
29.2517 35.3575
29.4361 35.1208
29.6207 34.1047
29.8053 33.9164
29.99 33.5881
30.1748 33.4767
30.3597 33.2534
30.5447 33.2112
30.7297 33.2435
30.915 32.6191
31.1002 32.2574
31.2855 31.8355
31.4708 31.6548
31.6563 31.3424
31.8418 31.0192
32.0275 30.791
32.2132 30.2719
32.399 29.8235
32.5848 29.4108
32.7708 29.0524
32.9569 28.8979
33.143 28.5587
33.3293 28.2488
33.5158 27.8641
33.7022 27.3607
33.8887 27.2049
34.0753 26.8257
34.262 26.4135
34.4488 26.0162
34.6357 25.8346
34.8227 25.3919
35.0098 25.1869
35.1969 24.9351
35.3842 24.7393
35.5716 24.4099
35.759 24.2679
35.9468 23.7327
36.1345 23.6362
36.3222 23.379
36.5101 23.0682
36.6981 22.8241
36.8861 22.4511
37.0743 22.2236
37.2626 21.9115
37.451 21.554
37.6395 21.4453
37.8281 21.1071
38.0168 20.8103
38.2056 20.549
38.3945 20.3291
38.5837 20.025
38.7728 19.8235
38.9621 19.5532
39.1514 19.2885
39.3409 19.1112
39.5304 18.8345
39.7201 18.5527
39.9099 18.3812
40.0999 18.0929
40.2899 17.8756
40.48 17.6638
40.6703 17.453
40.8607 17.2751
41.0512 17.0173
41.242 16.741
41.4327 16.5558
41.6236 16.3076
41.8146 16.1473
42.0057 15.8738
42.1969 15.712
42.3882 15.5096
42.5797 15.2095
42.7713 15.0812
42.963 14.8438
43.1549 14.6657
43.3468 14.4745
43.5389 14.2481
43.7312 14.0263
43.9237 13.8533
44.1162 13.6586
44.3088 13.4847
44.5016 13.2716
44.6945 13.1407
44.8875 12.9199
45.0806 12.7178
45.2739 12.5764
45.4673 12.3838
45.6609 12.2362
45.8546 12.0655
46.0484 11.8819
46.2424 11.7168
46.4365 11.5547
46.631 11.3336
46.8254 11.1625
47.0199 11.0277
47.2146 10.8481
47.4095 10.7219
47.6044 10.5422
47.7996 10.3636
47.9948 10.2349
48.1902 10.1035
48.3858 9.91458
48.5815 9.8036
48.7774 9.65882
48.9734 9.50891
49.1696 9.37861
49.3661 9.18712
49.5626 9.07924
49.7592 8.9301
49.956 8.81876
50.153 8.65888
50.3501 8.53136
50.5474 8.40731
50.7448 8.28393
50.9424 8.17378
51.1402 8.041
51.3381 7.90793
51.5362 7.76349
51.7344 7.64177
51.9328 7.48506
52.1316 7.3599
52.3304 7.26486
52.5293 7.18349
52.7284 7.04046
52.9276 6.9214
53.1271 6.82183
53.3267 6.68868
53.5265 6.58105
53.7264 6.43789
53.9266 6.33081
54.1269 6.28008
54.3274 6.13136
54.528 5.98421
54.7289 5.83531
54.9301 5.65963
55.1314 5.47933
55.3328 5.29766
55.5344 5.05885
55.7361 4.98424