File: XRD/Ni3Fe_FD0378.xy
TT I
1.27165 7.68269
1.45013 6.62364
1.62863 5.33248
1.80712 4.87013
1.98562 4.63219
2.16411 5.09878
2.34263 5.09904
2.52115 6.76729
2.69965 6.94608
2.87818 8.54292
3.05672 11.3059
3.23527 14.9205
3.4138 19.3644
3.59237 24.3658
3.77094 26.542
3.9495 30.1364
4.12809 35.445
4.30669 184.887
4.4853 63.0059
4.6639 56.5308
4.84253 69.0719
5.02118 89.8436
5.19981 486.84
5.37848 225.8
5.55716 106.694
5.73586 95.6337
5.91455 99.3192
6.09328 4079.0
6.27201 86.7556
6.45075 69.373
6.62952 64.4814
6.8083 60.2449
6.98711 56.991
7.16591 56.6425
7.34475 85.8662
7.5236 55.9505
7.70247 57.6322
7.88135 59.2745
8.06026 63.9556
8.23919 71.3982
8.41812 87.9607
8.59709 1175.5
8.77609 105.053
8.9551 92.9684
9.13412 84.2717
9.31318 84.9189
9.49226 87.1237
9.67134 99.8807
9.85047 103.33
10.0296 403.943
10.2088 513.346
10.388 108.565
10.5672 485.339
10.7465 89.6646
10.9257 80.5839
11.105 73.6535
11.2844 71.7127
11.4637 66.6751
11.6431 65.2038
11.8225 63.8533
12.002 65.5162
12.1814 150.641
12.3609 72.389
12.5405 66.484
12.72 71.1041
12.8996 72.8915
13.0792 81.8394
13.2589 242.379
13.4386 141.231
13.6183 242.882
13.7981 106.881
13.9779 78.0145
14.1577 74.3823
14.3376 73.155
14.5175 70.9888
14.6974 72.5714
14.8774 116.436
15.0574 161.516
15.2374 72.681
15.4175 68.2437
15.5976 67.7225
15.7778 100.101
15.958 166.723
16.1382 64.2277
16.3185 60.1606
16.4988 57.132
16.6792 55.965
16.8596 56.6328
17.04 57.5982
17.2205 68.5579
17.401 74.4153
17.5815 60.9927
17.7622 62.8079
17.9428 77.3307
18.1237 136.005
18.3044 92.0657
18.4852 82.4918
18.666 62.3522
18.8469 59.6462
19.0278 58.5208
19.2088 61.6429
19.3898 76.1328
19.5709 55.9145
19.752 54.8187
19.9332 58.0708
20.1144 70.6647
20.2957 64.4116
20.477 55.8673
20.6586 51.3575
20.84 50.2033
21.0215 49.8941
21.203 51.9976
21.3846 50.5176
21.5662 50.3481
21.7479 54.3212
21.9297 65.3854
22.1115 57.1026
22.2933 51.5441
22.4753 50.1276
22.6572 50.2388
22.8393 53.439
23.0214 58.7768
23.2037 50.4872
23.3859 51.3167
23.5682 57.3056
23.7505 50.2727
23.9329 46.4534
24.1154 45.3397
24.2979 44.6858
24.4805 44.1792
24.6631 44.068
24.8458 43.4701
25.0286 44.0958
25.2114 45.8476
25.3943 45.7105
25.5773 42.126
25.7605 41.7249
25.9436 41.9908
26.1268 42.6946
26.31 41.2575
26.4933 41.8562
26.6767 43.2051
26.8601 41.537
27.0437 39.9888
27.2272 39.5283
27.4109 39.4331
27.5946 39.3527
27.7784 38.9415
27.9623 39.3387
28.1462 39.9718
28.3304 38.3039
28.5145 36.9249
28.6987 36.6528
28.8829 36.2693
29.0673 35.7008
29.2517 35.0978
29.4361 35.0601
29.6207 34.1805
29.8053 33.7867
29.99 33.4336
30.1748 33.3249
30.3597 33.0934
30.5447 33.0928
30.7297 32.9901
30.915 32.5849
31.1002 32.008
31.2855 31.7002
31.4708 31.6332
31.6563 31.2574
31.8418 31.0327
32.0275 30.773
32.2132 30.129
32.399 29.6945
32.5848 29.2794
32.7708 28.9178
32.9569 28.7938
33.143 28.5988
33.3293 28.0874
33.5158 27.8558
33.7022 27.4234
33.8887 27.0248
34.0753 26.7635
34.262 26.3908
34.4488 25.9442
34.6357 25.6327
34.8227 25.3618
35.0098 25.135
35.1969 24.8038
35.3842 24.6435
35.5716 24.4391
35.759 24.1014
35.9468 23.7861
36.1345 23.5259
36.3222 23.3005
36.5101 22.9917
36.6981 22.7439
36.8861 22.5046
37.0743 22.0832
37.2626 21.8697
37.451 21.5525
37.6395 21.4549
37.8281 21.0506
38.0168 20.8082
38.2056 20.529
38.3945 20.2814
38.5837 19.9534
38.7728 19.7358
38.9621 19.4923
39.1514 19.2026
39.3409 18.9438
39.5304 18.7604
39.7201 18.5606
39.9099 18.2988
40.0999 18.0841
40.2899 17.824
40.48 17.6387
40.6703 17.4201
40.8607 17.2676
41.0512 16.9128
41.242 16.6722
41.4327 16.4812
41.6236 16.2499
41.8146 16.097
42.0057 15.8515
42.1969 15.6372
42.3882 15.4681
42.5797 15.2096
42.7713 15.0302
42.963 14.8354
43.1549 14.6196
43.3468 14.3795
43.5389 14.2551
43.7312 14.0289
43.9237 13.8224
44.1162 13.6508
44.3088 13.4253
44.5016 13.2216
44.6945 13.0449
44.8875 12.8577
45.0806 12.7124
45.2739 12.4718
45.4673 12.3559
45.6609 12.1912
45.8546 11.9919
46.0484 11.8335
46.2424 11.6392
46.4365 11.4879
46.631 11.3164
46.8254 11.1043
47.0199 10.9401
47.2146 10.8113
47.4095 10.6696
47.6044 10.4994
47.7996 10.3356
47.9948 10.1876
48.1902 10.028
48.3858 9.91613
48.5815 9.76424
48.7774 9.64248
48.9734 9.52462
49.1696 9.32647
49.3661 9.21599
49.5626 8.99633
49.7592 8.89547
49.956 8.78393
50.153 8.66992
50.3501 8.51741
50.5474 8.42435
50.7448 8.27633
50.9424 8.12786
51.1402 7.99004
51.3381 7.88668
51.5362 7.74223
51.7344 7.62773
51.9328 7.45671
52.1316 7.3536
52.3304 7.2569
52.5293 7.12581
52.7284 7.03807
52.9276 6.87611
53.1271 6.79316
53.3267 6.66022
53.5265 6.56782
53.7264 6.422
53.9266 6.30605
54.1269 6.21257
54.3274 6.1326
54.528 5.94592
54.7289 5.75962
54.9301 5.61925
55.1314 5.48665
55.3328 5.29657
55.5344 5.06351
55.7361 4.89978