File: XRD/Ni3Fe_FD0639.xy
TT I
1.27165 7.25813
1.45013 5.94307
1.62863 5.2554
1.80712 4.83945
1.98562 4.81079
2.16411 5.21635
2.34263 5.55901
2.52115 7.30808
2.69965 7.88878
2.87818 8.90007
3.05672 11.0088
3.23527 15.2725
3.4138 19.0014
3.59237 24.5825
3.77094 26.3823
3.9495 30.0232
4.12809 35.2151
4.30669 257.071
4.4853 69.4457
4.6639 55.5602
4.84253 66.9542
5.02118 86.4759
5.19981 336.137
5.37848 196.672
5.55716 102.186
5.73586 92.0544
5.91455 93.6657
6.09328 4362.72
6.27201 84.3846
6.45075 67.4381
6.62952 63.2319
6.8083 59.2641
6.98711 56.3602
7.16591 55.7877
7.34475 101.211
7.5236 55.2328
7.70247 56.57
7.88135 57.7328
8.06026 62.4669
8.23919 69.6667
8.41812 85.7436
8.59709 1115.18
8.77609 100.452
8.9551 93.5762
9.13412 82.0178
9.31318 82.626
9.49226 84.453
9.67134 100.613
9.85047 99.8023
10.0296 326.213
10.2088 439.864
10.388 105.123
10.5672 500.703
10.7465 87.2023
10.9257 79.2027
11.105 71.8824
11.2844 71.6429
11.4637 65.1119
11.6431 64.0459
11.8225 62.6739
12.002 63.4054
12.1814 147.989
12.3609 72.4332
12.5405 64.7222
12.72 71.3309
12.8996 70.8974
13.0792 78.8399
13.2589 229.012
13.4386 128.102
13.6183 240.339
13.7981 101.204
13.9779 76.1475
14.1577 73.0751
14.3376 72.2701
14.5175 68.9026
14.6974 70.8066
14.8774 108.036
15.0574 152.456
15.2374 72.0673
15.4175 66.8091
15.5976 66.065
15.7778 92.8783
15.958 160.542
16.1382 63.4729
16.3185 59.3649
16.4988 55.7987
16.6792 54.8408
16.8596 55.5863
17.04 55.9404
17.2205 66.4593
17.401 72.6964
17.5815 59.4378
17.7622 61.2829
17.9428 72.9108
18.1237 138.479
18.3044 89.8722
18.4852 79.5879
18.666 60.6482
18.8469 58.2786
19.0278 57.2111
19.2088 59.5697
19.3898 76.6567
19.5709 54.4843
19.752 53.3522
19.9332 56.1702
20.1144 69.7119
20.2957 63.5918
20.477 54.3635
20.6586 49.915
20.84 48.9853
21.0215 48.6091
21.203 50.7813
21.3846 49.2267
21.5662 48.8818
21.7479 52.4781
21.9297 64.7651
22.1115 56.2488
22.2933 50.2954
22.4753 49.2016
22.6572 48.9942
22.8393 51.7059
23.0214 57.6114
23.2037 49.0508
23.3859 49.8712
23.5682 56.7834
23.7505 48.669
23.9329 45.4859
24.1154 44.485
24.2979 43.5582
24.4805 43.041
24.6631 42.8966
24.8458 42.3956
25.0286 42.9112
25.2114 44.7276
25.3943 44.8614
25.5773 41.1272
25.7605 40.6756
25.9436 40.9418
26.1268 41.8191
26.31 40.3076
26.4933 40.76
26.6767 42.2812
26.8601 40.652
27.0437 39.014
27.2272 38.5903
27.4109 38.4828
27.5946 38.607
27.7784 38.0069
27.9623 38.403
28.1462 38.9743
28.3304 37.4779
28.5145 36.1177
28.6987 35.789
28.8829 35.6038
29.0673 34.9519
29.2517 34.4747
29.4361 34.3288
29.6207 33.287
29.8053 33.1084
29.99 32.7654
30.1748 32.5268
30.3597 32.3793
30.5447 32.2888
30.7297 32.3841
30.915 31.6887
31.1002 31.3555
31.2855 31.1126
31.4708 31.0286
31.6563 30.4938
31.8418 30.3029
32.0275 30.1068
32.2132 29.5214
32.399 29.0491
32.5848 28.6243
32.7708 28.2913
32.9569 28.1054
33.143 27.8352
33.3293 27.5591
33.5158 27.2701
33.7022 26.6559
33.8887 26.5314
34.0753 26.0845
34.262 25.7855
34.4488 25.4504
34.6357 25.1345
34.8227 24.8277
35.0098 24.6169
35.1969 24.2631
35.3842 24.0399
35.5716 23.8484
35.759 23.5675
35.9468 23.2195
36.1345 22.931
36.3222 22.7491
36.5101 22.5403
36.6981 22.2392
36.8861 21.8876
37.0743 21.641
37.2626 21.3566
37.451 21.054
37.6395 20.9359
37.8281 20.5754
38.0168 20.2476
38.2056 20.0477
38.3945 19.7819
38.5837 19.5669
38.7728 19.2991
38.9621 19.0264
39.1514 18.8318
39.3409 18.5481
39.5304 18.3681
39.7201 18.1906
39.9099 17.9493
40.0999 17.6321
40.2899 17.4216
40.48 17.2038
40.6703 17.0058
40.8607 16.8085
41.0512 16.5536
41.242 16.3216
41.4327 16.1551
41.6236 15.8899
41.8146 15.666
42.0057 15.4667
42.1969 15.3149
42.3882 15.0958
42.5797 14.894
42.7713 14.6646
42.963 14.5151
43.1549 14.2983
43.3468 14.1019
43.5389 13.9062
43.7312 13.7257
43.9237 13.5328
44.1162 13.336
44.3088 13.1046
44.5016 12.9615
44.6945 12.7594
44.8875 12.6204
45.0806 12.4258
45.2739 12.2818
45.4673 12.1259
45.6609 11.9017
45.8546 11.7769
46.0484 11.605
46.2424 11.4168
46.4365 11.2866
46.631 11.0989
46.8254 10.9363
47.0199 10.7683
47.2146 10.5921
47.4095 10.4393
47.6044 10.2811
47.7996 10.1323
47.9948 9.98962
48.1902 9.82595
48.3858 9.72146
48.5815 9.58059
48.7774 9.49043
48.9734 9.29002
49.1696 9.13549
49.3661 9.0123
49.5626 8.85733
49.7592 8.71063
49.956 8.60027
50.153 8.51188
50.3501 8.33932
50.5474 8.22431
50.7448 8.09827
50.9424 8.0001
51.1402 7.83191
51.3381 7.71137
51.5362 7.62002
51.7344 7.49445
51.9328 7.30775
52.1316 7.23936
52.3304 7.10754
52.5293 6.98311
52.7284 6.85256
52.9276 6.73052
53.1271 6.70163
53.3267 6.53194
53.5265 6.42124
53.7264 6.31498
53.9266 6.25986
54.1269 6.07732
54.3274 5.98989
54.528 5.82888
54.7289 5.6416
54.9301 5.51911
55.1314 5.35673
55.3328 5.18869
55.5344 4.98037
55.7361 4.8196