File: XRD/Ni3Fe_FD0536.xy
TT I
1.27165 7.61628
1.45013 6.16362
1.62863 5.2748
1.80712 4.9643
1.98562 4.76914
2.16411 5.2629
2.34263 4.90526
2.52115 6.18355
2.69965 7.75103
2.87818 8.15805
3.05672 11.1808
3.23527 15.444
3.4138 19.2687
3.59237 24.5473
3.77094 26.5615
3.9495 30.2004
4.12809 35.6677
4.30669 288.644
4.4853 72.9667
4.6639 55.4538
4.84253 66.9521
5.02118 87.6653
5.19981 366.944
5.37848 207.149
5.55716 102.87
5.73586 92.5666
5.91455 94.7064
6.09328 4093.93
6.27201 85.5607
6.45075 68.3297
6.62952 63.9317
6.8083 59.7526
6.98711 56.3863
7.16591 56.4419
7.34475 107.863
7.5236 55.7489
7.70247 56.835
7.88135 58.6734
8.06026 62.7113
8.23919 70.2597
8.41812 86.4629
8.59709 1083.55
8.77609 101.999
8.9551 94.7199
9.13412 82.6095
9.31318 82.9964
9.49226 84.9275
9.67134 102.681
9.85047 100.864
10.0296 328.026
10.2088 475.587
10.388 106.299
10.5672 492.724
10.7465 87.733
10.9257 79.7836
11.105 72.6993
11.2844 72.3262
11.4637 65.7382
11.6431 64.481
11.8225 63.2258
12.002 64.0118
12.1814 147.288
12.3609 73.9926
12.5405 64.9912
12.72 72.3279
12.8996 71.5697
13.0792 79.2427
13.2589 223.16
13.4386 133.448
13.6183 230.566
13.7981 102.925
13.9779 76.3976
14.1577 73.4122
14.3376 73.0802
14.5175 69.581
14.6974 71.2403
14.8774 107.518
15.0574 162.706
15.2374 72.728
15.4175 67.226
15.5976 66.3797
15.7778 93.5352
15.958 166.532
16.1382 64.5394
16.3185 59.7169
16.4988 56.3549
16.6792 55.2248
16.8596 56.164
17.04 56.3782
17.2205 66.2631
17.401 74.2261
17.5815 60.0493
17.7622 61.8741
17.9428 73.7358
18.1237 137.959
18.3044 89.503
18.4852 81.577
18.666 61.3468
18.8469 58.6978
19.0278 57.4597
19.2088 59.9923
19.3898 77.1078
19.5709 54.9676
19.752 53.9282
19.9332 56.7206
20.1144 70.5396
20.2957 63.614
20.477 54.9713
20.6586 50.1942
20.84 49.3675
21.0215 49.0897
21.203 51.2257
21.3846 49.6258
21.5662 49.1743
21.7479 52.9032
21.9297 65.1495
22.1115 56.3172
22.2933 50.8683
22.4753 49.5522
22.6572 49.237
22.8393 52.1391
23.0214 58.4621
23.2037 49.3275
23.3859 50.047
23.5682 56.9055
23.7505 49.384
23.9329 45.8351
24.1154 44.8542
24.2979 43.9131
24.4805 43.3948
24.6631 43.2849
24.8458 42.7159
25.0286 43.2338
25.2114 45.1338
25.3943 45.2048
25.5773 41.4662
25.7605 40.8878
25.9436 41.2912
26.1268 42.2131
26.31 40.5312
26.4933 41.1759
26.6767 42.5408
26.8601 40.9885
27.0437 39.3844
27.2272 38.9739
27.4109 38.7686
27.5946 38.8645
27.7784 38.292
27.9623 38.7372
28.1462 39.4051
28.3304 37.7142
28.5145 36.4406
28.6987 36.0114
28.8829 35.8045
29.0673 35.0317
29.2517 34.6763
29.4361 34.5841
29.6207 33.5945
29.8053 33.1927
29.99 32.9263
30.1748 32.7772
30.3597 32.6429
30.5447 32.4626
30.7297 32.5929
30.915 32.0616
31.1002 31.5951
31.2855 31.2529
31.4708 31.1837
31.6563 30.7256
31.8418 30.5393
32.0275 30.2312
32.2132 29.819
32.399 29.308
32.5848 28.8293
32.7708 28.5196
32.9569 28.3491
33.143 28.117
33.3293 27.7189
33.5158 27.4067
33.7022 26.8707
33.8887 26.6673
34.0753 26.2766
34.262 25.9526
34.4488 25.6441
34.6357 25.3438
34.8227 24.953
35.0098 24.7553
35.1969 24.455
35.3842 24.1983
35.5716 24.0372
35.759 23.7855
35.9468 23.3464
36.1345 23.2129
36.3222 22.9295
36.5101 22.6486
36.6981 22.3789
36.8861 22.1245
37.0743 21.7974
37.2626 21.5301
37.451 21.2018
37.6395 21.1082
37.8281 20.7759
38.0168 20.4394
38.2056 20.2625
38.3945 19.9238
38.5837 19.7951
38.7728 19.427
38.9621 19.2496
39.1514 18.9685
39.3409 18.7276
39.5304 18.4733
39.7201 18.2536
39.9099 18.0695
40.0999 17.8007
40.2899 17.6289
40.48 17.3394
40.6703 17.157
40.8607 16.9354
41.0512 16.661
41.242 16.4562
41.4327 16.3266
41.6236 16.0117
41.8146 15.8076
42.0057 15.6037
42.1969 15.4115
42.3882 15.2277
42.5797 15.0248
42.7713 14.8229
42.963 14.6
43.1549 14.3988
43.3468 14.1944
43.5389 14.0262
43.7312 13.8568
43.9237 13.6227
44.1162 13.4129
44.3088 13.2568
44.5016 13.0736
44.6945 12.909
44.8875 12.7234
45.0806 12.5421
45.2739 12.3774
45.4673 12.1577
45.6609 11.9776
45.8546 11.861
46.0484 11.6352
46.2424 11.4822
46.4365 11.3961
46.631 11.1499
46.8254 11.0087
47.0199 10.8525
47.2146 10.688
47.4095 10.5388
47.6044 10.3869
47.7996 10.2194
47.9948 10.082
48.1902 9.93099
48.3858 9.80354
48.5815 9.64069
48.7774 9.52436
48.9734 9.35338
49.1696 9.22667
49.3661 9.10347
49.5626 8.92288
49.7592 8.81462
49.956 8.70493
50.153 8.56163
50.3501 8.38519
50.5474 8.28922
50.7448 8.15275
50.9424 8.04053
51.1402 7.91024
51.3381 7.76597
51.5362 7.64207
51.7344 7.56498
51.9328 7.3829
52.1316 7.25324
52.3304 7.16682
52.5293 7.05328
52.7284 6.8876
52.9276 6.81739
53.1271 6.74528
53.3267 6.57284
53.5265 6.50384
53.7264 6.3696
53.9266 6.22644
54.1269 6.13615
54.3274 6.03392
54.528 5.86774
54.7289 5.67131
54.9301 5.55859
55.1314 5.42135
55.3328 5.21789
55.5344 5.04354
55.7361 4.87965