File: XRD/Ni3Fe_FD0076.xy
TT I
1.27165 11.5904
1.45013 9.48055
1.62863 7.84495
1.80712 7.78544
1.98562 7.03083
2.16411 6.74401
2.34263 6.80043
2.52115 5.83496
2.69965 6.78463
2.87818 9.2088
3.05672 12.9102
3.23527 16.0485
3.4138 18.4638
3.59237 20.4849
3.77094 22.9595
3.9495 26.2012
4.12809 29.7162
4.30669 35.2512
4.4853 40.5121
4.6639 49.157
4.84253 62.2044
5.02118 96.9642
5.19981 665.061
5.37848 1769.73
5.55716 120.864
5.73586 97.7511
5.91455 120.007
6.09328 1101.52
6.27201 115.659
6.45075 63.1071
6.62952 53.8914
6.8083 49.4784
6.98711 47.5929
7.16591 46.7509
7.34475 46.7077
7.5236 78.5561
7.70247 49.4963
7.88135 49.3596
8.06026 53.0527
8.23919 59.7194
8.41812 77.7649
8.59709 431.21
8.77609 172.085
8.9551 79.0241
9.13412 76.5585
9.31318 190.459
9.49226 75.2378
9.67134 77.7563
9.85047 88.0046
10.0296 444.198
10.2088 1368.09
10.388 98.8706
10.5672 138.961
10.7465 125.31
10.9257 66.5236
11.105 60.9168
11.2844 57.3341
11.4637 54.8459
11.6431 53.707
11.8225 53.9704
12.002 102.863
12.1814 73.0347
12.3609 92.644
12.5405 54.6438
12.72 55.8181
12.8996 59.309
13.0792 72.436
13.2589 125.569
13.4386 306.258
13.6183 112.307
13.7981 233.712
13.9779 67.2774
14.1577 93.1219
14.3376 60.8854
14.5175 58.845
14.6974 60.1781
14.8774 93.6235
15.0574 165.747
15.2374 62.2305
15.4175 56.8932
15.5976 56.6226
15.7778 85.3859
15.958 122.93
16.1382 64.5439
16.3185 49.9266
16.4988 47.4626
16.6792 46.549
16.8596 46.9464
17.04 49.7043
17.2205 52.3663
17.401 67.6134
17.5815 50.3772
17.7622 54.704
17.9428 70.4511
18.1237 66.6792
18.3044 82.8965
18.4852 91.0996
18.666 54.1908
18.8469 50.164
19.0278 48.7074
19.2088 52.6112
19.3898 56.4602
19.5709 54.1749
19.752 46.0552
19.9332 48.9822
20.1144 49.8703
20.2957 51.9635
20.477 56.5972
20.6586 42.8179
20.84 44.1602
21.0215 41.8972
21.203 41.2041
21.3846 44.0946
21.5662 41.9592
21.7479 44.8938
21.9297 45.7985
22.1115 51.2707
22.2933 48.2882
22.4753 41.7082
22.6572 41.8505
22.8393 43.6326
23.0214 43.9103
23.2037 44.8828
23.3859 44.3119
23.5682 42.1298
23.7505 50.2685
23.9329 39.3693
24.1154 38.2421
24.2979 37.4028
24.4805 36.723
24.6631 37.1675
24.8458 36.4006
25.0286 36.2708
25.2114 36.6373
25.3943 37.0978
25.5773 37.0305
25.7605 34.8766
25.9436 34.8134
26.1268 34.6443
26.31 35.77
26.4933 34.4744
26.6767 34.4262
26.8601 35.941
27.0437 34.5615
27.2272 33.282
27.4109 32.9068
27.5946 32.6386
27.7784 33.0864
27.9623 32.4731
28.1462 32.7226
28.3304 32.4838
28.5145 31.22
28.6987 30.6226
28.8829 30.1742
29.0673 30.2115
29.2517 29.3453
29.4361 28.8789
29.6207 28.9271
29.8053 28.1049
29.99 27.9553
30.1748 27.6906
30.3597 27.6383
30.5447 27.3322
30.7297 27.245
30.915 27.4008
31.1002 26.8926
31.2855 26.2939
31.4708 26.1691
31.6563 26.2726
31.8418 25.7102
32.0275 25.4879
32.2132 25.3239
32.399 24.8171
32.5848 24.4106
32.7708 24.0748
32.9569 23.9577
33.143 23.5533
33.3293 23.4019
33.5158 23.3702
33.7022 22.7153
33.8887 22.4376
34.0753 22.3096
34.262 21.8175
34.4488 21.6124
34.6357 21.353
34.8227 21.0828
35.0098 20.8438
35.1969 20.5942
35.3842 20.4012
35.5716 20.279
35.759 20.0459
35.9468 19.7169
36.1345 19.5344
36.3222 19.3324
36.5101 19.1281
36.6981 18.9108
36.8861 18.5721
37.0743 18.3128
37.2626 18.1517
37.451 17.8942
37.6395 17.7244
37.8281 17.4668
38.0168 17.25
38.2056 17.0228
38.3945 16.854
38.5837 16.5833
38.7728 16.3982
38.9621 16.233
39.1514 15.951
39.3409 15.7668
39.5304 15.563
39.7201 15.3891
39.9099 15.2062
40.0999 15.0366
40.2899 14.8821
40.48 14.627
40.6703 14.5103
40.8607 14.2634
41.0512 14.1505
41.242 13.932
41.4327 13.724
41.6236 13.4978
41.8146 13.4042
42.0057 13.2119
42.1969 13.0537
42.3882 12.7836
42.5797 12.7219
42.7713 12.5085
42.963 12.3172
43.1549 12.2038
43.3468 11.9701
43.5389 11.8195
43.7312 11.6935
43.9237 11.5138
44.1162 11.338
44.3088 11.2177
44.5016 11.0422
44.6945 10.8855
44.8875 10.7641
45.0806 10.608
45.2739 10.4776
45.4673 10.2939
45.6609 10.1281
45.8546 10.0383
46.0484 9.9113
46.2424 9.72668
46.4365 9.6384
46.631 9.44965
46.8254 9.29127
47.0199 9.18245
47.2146 9.0228
47.4095 8.90236
47.6044 8.80555
47.7996 8.64297
47.9948 8.53432
48.1902 8.39581
48.3858 8.28632
48.5815 8.14448
48.7774 8.05337
48.9734 7.99031
49.1696 7.84301
49.3661 7.6979
49.5626 7.58901
49.7592 7.4684
49.956 7.3834
50.153 7.2783
50.3501 7.14829
50.5474 7.03243
50.7448 6.95575
50.9424 6.84303
51.1402 6.73016
51.3381 6.6031
51.5362 6.47999
51.7344 6.39973
51.9328 6.28983
52.1316 6.18174
52.3304 6.08435
52.5293 5.9682
52.7284 5.91166
52.9276 5.75791
53.1271 5.68279
53.3267 5.62356
53.5265 5.48727
53.7264 5.42874
53.9266 5.2918
54.1269 5.1781
54.3274 5.07774
54.528 4.91353
54.7289 4.74252
54.9301 4.59997
55.1314 4.46132
55.3328 4.24819
55.5344 4.13542
55.7361 4.01728