File: XRD/Ni3Fe_FD0138.xy
TT I
1.27165 8.17669
1.45013 5.77088
1.62863 5.84302
1.80712 5.41496
1.98562 4.79559
2.16411 4.76439
2.34263 4.10937
2.52115 4.23949
2.69965 5.73393
2.87818 7.86738
3.05672 11.7042
3.23527 15.005
3.4138 18.7718
3.59237 21.4635
3.77094 24.5053
3.9495 28.3136
4.12809 32.6645
4.30669 37.6548
4.4853 44.685
4.6639 53.3551
4.84253 65.5851
5.02118 90.8636
5.19981 567.921
5.37848 471.919
5.55716 107.535
5.73586 95.2476
5.91455 105.785
6.09328 2652.38
6.27201 89.1865
6.45075 66.3224
6.62952 59.7342
6.8083 55.5546
6.98711 53.0056
7.16591 52.5026
7.34475 51.9063
7.5236 56.0164
7.70247 53.7467
7.88135 55.8761
8.06026 60.2482
8.23919 67.4706
8.41812 83.2668
8.59709 864.327
8.77609 117.357
8.9551 84.8281
9.13412 81.1206
9.31318 86.7516
9.49226 82.8901
9.67134 87.9011
9.85047 98.4359
10.0296 550.442
10.2088 998.871
10.388 104.204
10.5672 320.992
10.7465 90.7073
10.9257 75.5224
11.105 69.8245
11.2844 65.7114
11.4637 62.9781
11.6431 61.8644
11.8225 60.7666
12.002 65.6805
12.1814 115.427
12.3609 75.3619
12.5405 62.7048
12.72 64.8505
12.8996 69.3604
13.0792 78.9687
13.2589 200.988
13.4386 216.837
13.6183 188.339
13.7981 157.616
13.9779 75.8164
14.1577 74.0755
14.3376 68.6896
14.5175 67.8893
14.6974 69.6157
14.8774 120.275
15.0574 204.576
15.2374 68.8199
15.4175 65.9274
15.5976 65.3463
15.7778 107.138
15.958 183.005
16.1382 61.666
16.3185 56.7787
16.4988 54.7669
16.6792 53.956
16.8596 53.9564
17.04 55.103
17.2205 64.581
17.401 80.9203
17.5815 58.7459
17.7622 60.9821
17.9428 83.5964
18.1237 112.544
18.3044 87.5994
18.4852 95.22
18.666 60.6285
18.8469 57.9048
19.0278 56.3382
19.2088 61.6098
19.3898 68.3464
19.5709 56.4685
19.752 53.06
19.9332 57.9863
20.1144 66.3475
20.2957 60.5137
20.477 59.2131
20.6586 49.5019
20.84 48.7341
21.0215 48.7926
21.203 49.3853
21.3846 50.3463
21.5662 48.7445
21.7479 53.7103
21.9297 61.5131
22.1115 56.074
22.2933 52.1758
22.4753 48.6866
22.6572 48.7533
22.8393 51.7695
23.0214 56.5923
23.2037 49.7759
23.3859 51.5367
23.5682 53.12
23.7505 53.3053
23.9329 45.438
24.1154 44.2096
24.2979 43.4369
24.4805 42.7337
24.6631 42.9037
24.8458 42.2238
25.0286 42.7995
25.2114 44.3438
25.3943 44.5589
25.5773 41.5765
25.7605 40.5702
25.9436 40.8829
26.1268 41.4628
26.31 40.6989
26.4933 40.766
26.6767 41.7729
26.8601 41.1907
27.0437 39.4201
27.2272 38.8786
27.4109 38.4136
27.5946 38.6137
27.7784 38.3498
27.9623 38.3653
28.1462 39.1403
28.3304 37.8528
28.5145 36.1648
28.6987 35.7997
28.8829 35.4009
29.0673 35.0899
29.2517 34.4068
29.4361 34.0745
29.6207 33.4229
29.8053 32.9752
29.99 32.6829
30.1748 32.4336
30.3597 32.5498
30.5447 32.2488
30.7297 32.2763
30.915 31.9079
31.1002 31.2526
31.2855 30.9938
31.4708 30.7799
31.6563 30.7723
31.8418 30.2783
32.0275 30.0088
32.2132 29.4996
32.399 29.0409
32.5848 28.6133
32.7708 28.2104
32.9569 28.0675
33.143 27.8546
33.3293 27.5323
33.5158 27.2577
33.7022 26.596
33.8887 26.3604
34.0753 26.0983
34.262 25.6546
34.4488 25.3608
34.6357 25.0351
34.8227 24.7196
35.0098 24.624
35.1969 24.329
35.3842 23.9808
35.5716 23.9433
35.759 23.5624
35.9468 23.1892
36.1345 22.9976
36.3222 22.712
36.5101 22.4659
36.6981 22.1614
36.8861 21.9366
37.0743 21.6436
37.2626 21.356
37.451 21.0426
37.6395 20.9127
37.8281 20.4963
38.0168 20.2348
38.2056 19.9957
38.3945 19.7654
38.5837 19.4579
38.7728 19.2324
38.9621 18.9895
39.1514 18.7221
39.3409 18.4857
39.5304 18.3099
39.7201 18.0973
39.9099 17.8729
40.0999 17.5989
40.2899 17.412
40.48 17.1232
40.6703 16.9724
40.8607 16.7565
41.0512 16.5403
41.242 16.2616
41.4327 16.0874
41.6236 15.8475
41.8146 15.7321
42.0057 15.43
42.1969 15.2665
42.3882 15.0383
42.5797 14.8944
42.7713 14.6666
42.963 14.4046
43.1549 14.2116
43.3468 14.0634
43.5389 13.8498
43.7312 13.6565
43.9237 13.4889
44.1162 13.3009
44.3088 13.1031
44.5016 12.9242
44.6945 12.7375
44.8875 12.5689
45.0806 12.3615
45.2739 12.2132
45.4673 12.0157
45.6609 11.889
45.8546 11.7143
46.0484 11.5239
46.2424 11.3646
46.4365 11.2289
46.631 11.0595
46.8254 10.87
47.0199 10.7217
47.2146 10.5577
47.4095 10.4274
47.6044 10.267
47.7996 10.1337
47.9948 9.93582
48.1902 9.81579
48.3858 9.67568
48.5815 9.53101
48.7774 9.39851
48.9734 9.2566
49.1696 9.12191
49.3661 9.00652
49.5626 8.83618
49.7592 8.70293
49.956 8.56406
50.153 8.46834
50.3501 8.34497
50.5474 8.18704
50.7448 8.05795
50.9424 7.92318
51.1402 7.80843
51.3381 7.67639
51.5362 7.54377
51.7344 7.42491
51.9328 7.30467
52.1316 7.17481
52.3304 7.06959
52.5293 6.9862
52.7284 6.84756
52.9276 6.75809
53.1271 6.64058
53.3267 6.53754
53.5265 6.40492
53.7264 6.29562
53.9266 6.18891
54.1269 6.05863
54.3274 5.95354
54.528 5.79193
54.7289 5.57472
54.9301 5.4003
55.1314 5.21589
55.3328 5.02612
55.5344 4.86844
55.7361 4.77233