File: XRD/Ni3Fe_FD0050.xy
TT I
1.27165 33.0557
1.45013 27.1124
1.62863 23.8017
1.80712 21.0925
1.98562 21.2899
2.16411 20.645
2.34263 21.0451
2.52115 21.8584
2.69965 25.7082
2.87818 37.0961
3.05672 63.4348
3.23527 67.0542
3.4138 34.5745
3.59237 27.1132
3.77094 25.9926
3.9495 26.7119
4.12809 29.4034
4.30669 37.2088
4.4853 37.2687
4.6639 42.1731
4.84253 54.2454
5.02118 103.651
5.19981 307.741
5.37848 3222.55
5.55716 151.598
5.73586 102.881
5.91455 118.494
6.09328 561.058
6.27201 225.467
6.45075 64.254
6.62952 47.2228
6.8083 41.3089
6.98711 40.6666
7.16591 43.5593
7.34475 38.7843
7.5236 58.0474
7.70247 43.8011
7.88135 38.7957
8.06026 40.5863
8.23919 45.8756
8.41812 58.9547
8.59709 183.264
8.77609 388.958
8.9551 74.6333
9.13412 64.2699
9.31318 331.997
9.49226 58.4262
9.67134 56.8964
9.85047 62.8519
10.0296 116.684
10.2088 679.53
10.388 101.52
10.5672 97.7165
10.7465 205.252
10.9257 51.3579
11.105 44.583
11.2844 42.6024
11.4637 39.7228
11.6431 38.9086
11.8225 39.4063
12.002 114.344
12.1814 50.1594
12.3609 87.1198
12.5405 42.3483
12.72 39.7309
12.8996 41.3255
13.0792 47.5458
13.2589 68.6853
13.4386 188.338
13.6183 81.5605
13.7981 185.697
13.9779 55.0987
14.1577 62.6308
14.3376 46.953
14.5175 41.394
14.6974 41.3055
14.8774 48.6559
15.0574 75.6355
15.2374 62.1402
15.4175 41.8618
15.5976 40.7241
15.7778 45.385
15.958 63.5451
16.1382 82.5439
16.3185 38.4171
16.4988 34.915
16.6792 33.8922
16.8596 33.7525
17.04 42.5385
17.2205 35.6472
17.401 40.6461
17.5815 39.9808
17.7622 37.8814
17.9428 41.1979
18.1237 45.7324
18.3044 84.3342
18.4852 55.6604
18.666 49.8732
18.8469 37.1459
19.0278 35.5368
19.2088 35.678
19.3898 47.1139
19.5709 44.981
19.752 34.3011
19.9332 33.3098
20.1144 34.0413
20.2957 43.2373
20.477 39.4205
20.6586 33.5513
20.84 34.9268
21.0215 30.5625
21.203 29.9873
21.3846 31.1136
21.5662 31.5236
21.7479 30.9704
21.9297 32.2448
22.1115 41.3014
22.2933 37.9729
22.4753 31.8811
22.6572 30.5337
22.8393 32.1136
23.0214 31.8944
23.2037 37.718
23.3859 31.8099
23.5682 33.8113
23.7505 35.8912
23.9329 32.1229
24.1154 29.4696
24.2979 28.0593
24.4805 27.2781
24.6631 27.6949
24.8458 27.554
25.0286 26.971
25.2114 27.1719
25.3943 28.7158
25.5773 29.4845
25.7605 26.6255
25.9436 26.7641
26.1268 25.8458
26.31 26.9998
26.4933 26.1925
26.6767 25.8138
26.8601 27.6772
27.0437 27.7259
27.2272 25.5581
27.4109 24.9347
27.5946 24.964
27.7784 25.3011
27.9623 24.4618
28.1462 25.4676
28.3304 25.935
28.5145 24.9135
28.6987 23.9031
28.8829 23.0879
29.0673 22.9197
29.2517 22.6657
29.4361 22.0816
29.6207 22.1472
29.8053 21.7315
29.99 21.375
30.1748 21.519
30.3597 21.1483
30.5447 21.1198
30.7297 20.8692
30.915 21.1207
31.1002 21.3582
31.2855 20.5231
31.4708 20.3086
31.6563 20.4398
31.8418 20.3867
32.0275 19.8828
32.2132 19.9472
32.399 19.5774
32.5848 19.2651
32.7708 18.8269
32.9569 18.798
33.143 18.5761
33.3293 18.3092
33.5158 18.3414
33.7022 18.0199
33.8887 17.6714
34.0753 17.5469
34.262 17.2638
34.4488 16.9531
34.6357 16.8741
34.8227 16.6237
35.0098 16.4173
35.1969 16.269
35.3842 16.116
35.5716 16.0849
35.759 16.0892
35.9468 15.7048
36.1345 15.477
36.3222 15.3555
36.5101 15.2761
36.6981 14.9845
36.8861 14.9134
37.0743 14.6579
37.2626 14.5015
37.451 14.2844
37.6395 14.1678
37.8281 13.9398
38.0168 13.7457
38.2056 13.546
38.3945 13.3856
38.5837 13.2111
38.7728 13.0586
38.9621 12.9754
39.1514 12.7458
39.3409 12.5653
39.5304 12.5042
39.7201 12.3442
39.9099 12.225
40.0999 12.0848
40.2899 11.9087
40.48 11.6878
40.6703 11.6533
40.8607 11.4984
41.0512 11.3311
41.242 11.2168
41.4327 11.0619
41.6236 10.8937
41.8146 10.8268
42.0057 10.6547
42.1969 10.4844
42.3882 10.3678
42.5797 10.2773
42.7713 10.11
42.963 9.96707
43.1549 9.87841
43.3468 9.6681
43.5389 9.58832
43.7312 9.46765
43.9237 9.34446
44.1162 9.20078
44.3088 9.09298
44.5016 8.96748
44.6945 8.86311
44.8875 8.71761
45.0806 8.6419
45.2739 8.51299
45.4673 8.37391
45.6609 8.27346
45.8546 8.19768
46.0484 8.05099
46.2424 7.91811
46.4365 7.87577
46.631 7.72569
46.8254 7.61048
47.0199 7.51014
47.2146 7.42334
47.4095 7.26233
47.6044 7.1667
47.7996 7.0712
47.9948 7.00832
48.1902 6.87945
48.3858 6.80105
48.5815 6.68641
48.7774 6.61412
48.9734 6.5107
49.1696 6.39096
49.3661 6.28408
49.5626 6.2184
49.7592 6.14864
49.956 6.06071
50.153 5.95608
50.3501 5.87299
50.5474 5.81547
50.7448 5.71508
50.9424 5.62885
51.1402 5.54313
51.3381 5.48942
51.5362 5.37261
51.7344 5.31224
51.9328 5.21028
52.1316 5.13463
52.3304 5.05338
52.5293 4.94933
52.7284 4.86907
52.9276 4.81568
53.1271 4.77941
53.3267 4.66949
53.5265 4.57528
53.7264 4.51017
53.9266 4.38583
54.1269 4.32611
54.3274 4.25128
54.528 4.08814
54.7289 4.00907
54.9301 3.83488
55.1314 3.73578
55.3328 3.59096
55.5344 3.4348
55.7361 3.42415