File: XRD/Ni3Fe_FD0358.xy
TT I
1.27165 7.58045
1.45013 5.9622
1.62863 4.86682
1.80712 5.13047
1.98562 5.11336
2.16411 4.26123
2.34263 4.39016
2.52115 6.16038
2.69965 6.84487
2.87818 8.19096
3.05672 11.2037
3.23527 14.5973
3.4138 18.8107
3.59237 23.3434
3.77094 26.0395
3.9495 30.2232
4.12809 34.4461
4.30669 118.909
4.4853 56.4232
4.6639 57.2525
4.84253 69.2424
5.02118 91.8723
5.19981 611.454
5.37848 220.027
5.55716 106.554
5.73586 96.9459
5.91455 101.353
6.09328 4022.29
6.27201 85.7577
6.45075 69.4287
6.62952 63.5536
6.8083 59.5161
6.98711 56.7244
7.16591 56.45
7.34475 72.2833
7.5236 55.6203
7.70247 57.4649
7.88135 59.2212
8.06026 64.4069
8.23919 71.5223
8.41812 88.1
8.59709 1188.27
8.77609 104.053
8.9551 91.2675
9.13412 84.6816
9.31318 85.9735
9.49226 87.1918
9.67134 96.7605
9.85047 103.488
10.0296 443.343
10.2088 457.746
10.388 110.312
10.5672 488.514
10.7465 89.1888
10.9257 79.7538
11.105 73.3031
11.2844 70.7274
11.4637 66.5165
11.6431 65.2964
11.8225 64.3829
12.002 66.4992
12.1814 151.597
12.3609 69.9408
12.5405 66.1525
12.72 69.9715
12.8996 73.2421
13.0792 83.0918
13.2589 246.42
13.4386 133.187
13.6183 244.608
13.7981 101.902
13.9779 78.1213
14.1577 74.0053
14.3376 72.4717
14.5175 70.7616
14.6974 72.962
14.8774 120.381
15.0574 152.869
15.2374 71.7435
15.4175 68.3334
15.5976 68.0771
15.7778 103.401
15.958 162.256
16.1382 63.2501
16.3185 59.5897
16.4988 57.022
16.6792 56.0924
16.8596 56.539
17.04 57.9359
17.2205 69.47
17.401 73.3119
17.5815 60.9876
17.7622 63.3316
17.9428 79.2879
18.1237 140.009
18.3044 91.975
18.4852 79.0976
18.666 62.0883
18.8469 59.673
19.0278 58.5575
19.2088 61.9119
19.3898 77.0377
19.5709 55.6873
19.752 55.0521
19.9332 58.4535
20.1144 71.3848
20.2957 64.3891
20.477 55.0225
20.6586 51.0023
20.84 50.0869
21.0215 50.2882
21.203 51.9968
21.3846 50.4112
21.5662 50.6797
21.7479 54.7252
21.9297 66.0528
22.1115 57.1901
22.2933 51.1473
22.4753 50.1045
22.6572 50.8219
22.8393 53.6206
23.0214 58.8275
23.2037 50.2299
23.3859 51.7278
23.5682 57.4899
23.7505 49.8183
23.9329 46.5052
24.1154 45.3463
24.2979 44.7719
24.4805 44.1981
24.6631 44.0571
24.8458 43.5646
25.0286 44.1339
25.2114 45.9002
25.3943 45.8204
25.5773 42.1701
25.7605 41.5733
25.9436 42.0972
26.1268 42.8377
26.31 41.3453
26.4933 42.0092
26.6767 43.3169
26.8601 41.5074
27.0437 39.941
27.2272 39.6673
27.4109 39.6461
27.5946 39.4004
27.7784 38.9502
27.9623 39.4202
28.1462 39.9771
28.3304 38.1485
28.5145 36.9892
28.6987 36.5151
28.8829 36.2366
29.0673 35.6873
29.2517 35.2578
29.4361 35.209
29.6207 33.9678
29.8053 33.7204
29.99 33.5968
30.1748 33.3087
30.3597 33.173
30.5447 33.066
30.7297 33.0491
30.915 32.5561
31.1002 31.9528
31.2855 31.7192
31.4708 31.5517
31.6563 31.1729
31.8418 30.9774
32.0275 30.8118
32.2132 30.2197
32.399 29.7559
32.5848 29.2415
32.7708 28.807
32.9569 28.746
33.143 28.5375
33.3293 28.1061
33.5158 27.8015
33.7022 27.3834
33.8887 27.0146
34.0753 26.6779
34.262 26.2998
34.4488 25.9645
34.6357 25.705
34.8227 25.3556
35.0098 25.1009
35.1969 24.8848
35.3842 24.6046
35.5716 24.4079
35.759 24.0705
35.9468 23.6589
36.1345 23.511
36.3222 23.2514
36.5101 23.0149
36.6981 22.7482
36.8861 22.3631
37.0743 22.0847
37.2626 21.8734
37.451 21.5575
37.6395 21.3487
37.8281 21.0044
38.0168 20.7611
38.2056 20.5317
38.3945 20.1296
38.5837 20.0156
38.7728 19.7562
38.9621 19.41
39.1514 19.2102
39.3409 18.9594
39.5304 18.7286
39.7201 18.5318
39.9099 18.2931
40.0999 18.0108
40.2899 17.8535
40.48 17.6192
40.6703 17.4004
40.8607 17.1917
41.0512 16.9106
41.242 16.7
41.4327 16.4885
41.6236 16.2778
41.8146 16.0617
42.0057 15.8639
42.1969 15.6412
42.3882 15.4427
42.5797 15.1784
42.7713 15.0202
42.963 14.7961
43.1549 14.6046
43.3468 14.3688
43.5389 14.1896
43.7312 14.0031
43.9237 13.7778
44.1162 13.6218
44.3088 13.408
44.5016 13.26
44.6945 13.0578
44.8875 12.8567
45.0806 12.6811
45.2739 12.5102
45.4673 12.3604
45.6609 12.1839
45.8546 12.0024
46.0484 11.8066
46.2424 11.6399
46.4365 11.5366
46.631 11.3002
46.8254 11.1628
47.0199 11.0169
47.2146 10.8364
47.4095 10.6434
47.6044 10.4844
47.7996 10.3832
47.9948 10.1907
48.1902 10.0451
48.3858 9.88813
48.5815 9.78822
48.7774 9.60912
48.9734 9.49348
49.1696 9.32691
49.3661 9.1718
49.5626 9.01578
49.7592 8.93697
49.956 8.78279
50.153 8.64886
50.3501 8.50703
50.5474 8.41091
50.7448 8.25085
50.9424 8.1318
51.1402 7.98731
51.3381 7.84286
51.5362 7.75371
51.7344 7.60118
51.9328 7.50064
52.1316 7.34146
52.3304 7.28046
52.5293 7.10166
52.7284 6.97585
52.9276 6.87998
53.1271 6.81473
53.3267 6.62097
53.5265 6.53081
53.7264 6.47073
53.9266 6.33377
54.1269 6.18971
54.3274 6.0829
54.528 5.95234
54.7289 5.74975
54.9301 5.59026
55.1314 5.49529
55.3328 5.29363
55.5344 5.08989
55.7361 4.95409