File: XRD/Ni3Fe_FD0605.xy
TT I
1.27165 7.78134
1.45013 6.27907
1.62863 5.39189
1.80712 4.9334
1.98562 4.68698
2.16411 5.3125
2.34263 5.30826
2.52115 6.31495
2.69965 7.92729
2.87818 9.29382
3.05672 11.1967
3.23527 14.451
3.4138 19.0339
3.59237 23.6765
3.77094 26.4214
3.9495 30.0795
4.12809 35.1654
4.30669 157.547
4.4853 60.3214
4.6639 56.1342
4.84253 68.1669
5.02118 88.4614
5.19981 395.029
5.37848 197.427
5.55716 103.412
5.73586 93.3073
5.91455 95.9115
6.09328 4250.6
6.27201 83.3376
6.45075 68.2508
6.62952 62.8908
6.8083 59.1424
6.98711 56.1029
7.16591 55.694
7.34475 79.8983
7.5236 55.0527
7.70247 56.5692
7.88135 58.3324
8.06026 63.4321
8.23919 69.9223
8.41812 85.7902
8.59709 1230.24
8.77609 100.791
8.9551 90.7168
9.13412 83.0513
9.31318 83.5892
9.49226 85.3911
9.67134 97.1659
9.85047 100.828
10.0296 364.402
10.2088 414.553
10.388 105.597
10.5672 502.871
10.7465 87.0097
10.9257 78.6044
11.105 72.2549
11.2844 69.9943
11.4637 65.5585
11.6431 63.9668
11.8225 63.0612
12.002 64.4511
12.1814 155.549
12.3609 69.7083
12.5405 64.9738
12.72 69.3227
12.8996 71.4689
13.0792 80.0501
13.2589 250.684
13.4386 128.969
13.6183 252.167
13.7981 100.642
13.9779 76.4916
14.1577 72.9373
14.3376 71.5501
14.5175 69.5964
14.6974 70.8486
14.8774 115.096
15.0574 151.538
15.2374 70.9812
15.4175 66.9711
15.5976 66.4186
15.7778 98.2956
15.958 153.855
16.1382 62.6104
16.3185 58.9101
16.4988 56.0103
16.6792 55.0666
16.8596 55.4311
17.04 56.3317
17.2205 67.7324
17.401 72.5283
17.5815 59.6081
17.7622 61.8885
17.9428 75.0254
18.1237 138.018
18.3044 92.1276
18.4852 79.3604
18.666 60.837
18.8469 58.2877
19.0278 57.3763
19.2088 60.0411
19.3898 75.4641
19.5709 54.7618
19.752 53.8976
19.9332 56.9212
20.1144 69.5975
20.2957 63.8923
20.477 54.1536
20.6586 50.0757
20.84 49.2648
21.0215 49.1572
21.203 51.3253
21.3846 49.3865
21.5662 49.1318
21.7479 53.3801
21.9297 64.4465
22.1115 56.3266
22.2933 50.4363
22.4753 49.2697
22.6572 49.3589
22.8393 52.6046
23.0214 57.5481
23.2037 49.1553
23.3859 50.2351
23.5682 56.9908
23.7505 48.8671
23.9329 45.6525
24.1154 44.3255
24.2979 43.7748
24.4805 43.3034
24.6631 43.1136
24.8458 42.7072
25.0286 43.3143
25.2114 44.9652
25.3943 44.8598
25.5773 41.1135
25.7605 40.6649
25.9436 41.2341
26.1268 41.855
26.31 40.457
26.4933 41.1242
26.6767 42.4072
26.8601 40.752
27.0437 39.198
27.2272 38.9204
27.4109 38.6321
27.5946 38.6446
27.7784 38.1094
27.9623 38.8257
28.1462 39.0522
28.3304 37.4011
28.5145 36.195
28.6987 35.7898
28.8829 35.6688
29.0673 34.8817
29.2517 34.7017
29.4361 34.2696
29.6207 33.346
29.8053 33.1115
29.99 32.7958
30.1748 32.7165
30.3597 32.4358
30.5447 32.4925
30.7297 32.4455
30.915 31.8206
31.1002 31.3608
31.2855 31.0671
31.4708 31.1652
31.6563 30.583
31.8418 30.3956
32.0275 30.1791
32.2132 29.5752
32.399 29.1587
32.5848 28.748
32.7708 28.3643
32.9569 28.2189
33.143 28.0715
33.3293 27.5142
33.5158 27.2647
33.7022 26.7572
33.8887 26.5525
34.0753 26.1672
34.262 25.8354
34.4488 25.4609
34.6357 25.1906
34.8227 24.8885
35.0098 24.6944
35.1969 24.3181
35.3842 24.1514
35.5716 24.0138
35.759 23.6544
35.9468 23.3174
36.1345 23.0705
36.3222 22.8311
36.5101 22.5874
36.6981 22.2504
36.8861 21.9126
37.0743 21.662
37.2626 21.4316
37.451 21.1512
37.6395 21.0333
37.8281 20.6069
38.0168 20.3884
38.2056 20.1394
38.3945 19.8843
38.5837 19.5924
38.7728 19.289
38.9621 19.0991
39.1514 18.8913
39.3409 18.5889
39.5304 18.4017
39.7201 18.2321
39.9099 17.9811
40.0999 17.7757
40.2899 17.4395
40.48 17.2521
40.6703 17.0185
40.8607 16.8487
41.0512 16.6347
41.242 16.3565
41.4327 16.184
41.6236 15.9524
41.8146 15.7904
42.0057 15.524
42.1969 15.3043
42.3882 15.1077
42.5797 14.9369
42.7713 14.7247
42.963 14.5508
43.1549 14.3039
43.3468 14.1215
43.5389 13.942
43.7312 13.7472
43.9237 13.5841
44.1162 13.3711
44.3088 13.1543
44.5016 13.0026
44.6945 12.8186
44.8875 12.6095
45.0806 12.4711
45.2739 12.2788
45.4673 12.1427
45.6609 11.9331
45.8546 11.7268
46.0484 11.6295
46.2424 11.4911
46.4365 11.2849
46.631 11.0948
46.8254 10.9379
47.0199 10.7738
47.2146 10.6414
47.4095 10.4666
47.6044 10.2672
47.7996 10.1673
47.9948 10.0264
48.1902 9.85741
48.3858 9.72549
48.5815 9.60032
48.7774 9.4652
48.9734 9.28129
49.1696 9.20382
49.3661 9.00947
49.5626 8.86602
49.7592 8.7929
49.956 8.62627
50.153 8.49986
50.3501 8.36052
50.5474 8.25154
50.7448 8.14247
50.9424 7.98547
51.1402 7.87272
51.3381 7.71563
51.5362 7.57401
51.7344 7.48886
51.9328 7.35223
52.1316 7.23243
52.3304 7.10888
52.5293 6.99599
52.7284 6.8369
52.9276 6.72866
53.1271 6.64132
53.3267 6.55748
53.5265 6.4462
53.7264 6.2967
53.9266 6.1983
54.1269 6.0572
54.3274 5.97392
54.528 5.82711
54.7289 5.64639
54.9301 5.52982
55.1314 5.37899
55.3328 5.20297
55.5344 4.97341
55.7361 4.91591