File: XRD/Ni3Fe_FD0153.xy
TT I
1.27165 7.70904
1.45013 6.80721
1.62863 5.73328
1.80712 5.57849
1.98562 5.1671
2.16411 4.30715
2.34263 4.34813
2.52115 4.32754
2.69965 5.10827
2.87818 7.95128
3.05672 11.6961
3.23527 14.9759
3.4138 19.1677
3.59237 21.9907
3.77094 24.7632
3.9495 28.7047
4.12809 32.5981
4.30669 37.4369
4.4853 44.7173
4.6639 53.5303
4.84253 65.8924
5.02118 90.457
5.19981 545.115
5.37848 452.64
5.55716 107.5
5.73586 94.9679
5.91455 104.902
6.09328 2721.71
6.27201 88.9691
6.45075 66.1454
6.62952 59.4319
6.8083 55.4669
6.98711 53.2993
7.16591 52.1734
7.34475 51.9926
7.5236 55.8834
7.70247 53.8919
7.88135 56.2788
8.06026 60.4116
8.23919 67.7537
8.41812 83.3996
8.59709 888.928
8.77609 116.194
8.9551 85.077
9.13412 81.3925
9.31318 86.3488
9.49226 83.2987
9.67134 88.3713
9.85047 98.8133
10.0296 543.469
10.2088 983.498
10.388 104.194
10.5672 329.637
10.7465 90.6518
10.9257 75.7853
11.105 70.1676
11.2844 66.0172
11.4637 63.4171
11.6431 62.0853
11.8225 61.0331
12.002 65.3184
12.1814 117.772
12.3609 75.0187
12.5405 62.9044
12.72 64.9465
12.8996 69.6138
13.0792 79.0929
13.2589 204.723
13.4386 212.139
13.6183 192.78
13.7981 152.441
13.9779 75.9065
14.1577 74.0173
14.3376 69.043
14.5175 68.4297
14.6974 69.5759
14.8774 120.734
15.0574 203.548
15.2374 69.0005
15.4175 66.1334
15.5976 65.5067
15.7778 107.298
15.958 184.693
16.1382 61.6459
16.3185 57.0969
16.4988 54.9687
16.6792 53.7773
16.8596 54.1267
17.04 55.2027
17.2205 65.2489
17.401 80.5449
17.5815 58.8313
17.7622 61.1935
17.9428 83.3123
18.1237 115.18
18.3044 88.1888
18.4852 94.9415
18.666 60.8745
18.8469 58.1068
19.0278 56.6704
19.2088 61.6573
19.3898 69.0459
19.5709 56.2764
19.752 53.2141
19.9332 58.16
20.1144 66.533
20.2957 60.9266
20.477 58.7884
20.6586 49.842
20.84 48.9462
21.0215 48.9059
21.203 49.8007
21.3846 50.3004
21.5662 48.8678
21.7479 54.0305
21.9297 62.0732
22.1115 56.2778
22.2933 52.4787
22.4753 48.8052
22.6572 49.1119
22.8393 52.1373
23.0214 57.1367
23.2037 49.7055
23.3859 51.7005
23.5682 53.434
23.7505 53.2813
23.9329 45.6804
24.1154 44.3067
24.2979 43.606
24.4805 42.9368
24.6631 43.1323
24.8458 42.3437
25.0286 43.1342
25.2114 44.5733
25.3943 44.7826
25.5773 41.6968
25.7605 40.7563
25.9436 40.9241
26.1268 41.6333
26.31 41.0225
26.4933 40.8499
26.6767 42.014
26.8601 41.2617
27.0437 39.4613
27.2272 38.92
27.4109 38.6134
27.5946 38.7389
27.7784 38.4165
27.9623 38.4346
28.1462 39.4283
28.3304 38.0925
28.5145 36.3013
28.6987 35.9581
28.8829 35.6032
29.0673 35.2105
29.2517 34.491
29.4361 34.3793
29.6207 33.4827
29.8053 32.9997
29.99 32.7312
30.1748 32.5609
30.3597 32.6231
30.5447 32.3338
30.7297 32.337
30.915 32.1138
31.1002 31.5348
31.2855 31.141
31.4708 31.026
31.6563 30.9547
31.8418 30.3725
32.0275 30.1909
32.2132 29.7654
32.399 29.1693
32.5848 28.6968
32.7708 28.3673
32.9569 28.3108
33.143 27.9964
33.3293 27.6138
33.5158 27.3498
33.7022 26.8166
33.8887 26.4937
34.0753 26.1948
34.262 25.7264
34.4488 25.4834
34.6357 25.1696
34.8227 24.7806
35.0098 24.6342
35.1969 24.3527
35.3842 24.1665
35.5716 23.9447
35.759 23.7063
35.9468 23.3299
36.1345 23.007
36.3222 22.8433
36.5101 22.5532
36.6981 22.2781
36.8861 21.9817
37.0743 21.5933
37.2626 21.3224
37.451 21.1234
37.6395 21.0271
37.8281 20.6857
38.0168 20.4531
38.2056 20.0991
38.3945 19.8474
38.5837 19.6126
38.7728 19.3608
38.9621 19.1235
39.1514 18.8448
39.3409 18.5634
39.5304 18.3522
39.7201 18.1936
39.9099 17.9879
40.0999 17.711
40.2899 17.5013
40.48 17.3052
40.6703 17.0757
40.8607 16.8879
41.0512 16.5934
41.242 16.3564
41.4327 16.1439
41.6236 15.9745
41.8146 15.7854
42.0057 15.5002
42.1969 15.3427
42.3882 15.1556
42.5797 14.9132
42.7713 14.7328
42.963 14.54
43.1549 14.3218
43.3468 14.1361
43.5389 13.9434
43.7312 13.7508
43.9237 13.5707
44.1162 13.2996
44.3088 13.1383
44.5016 12.9604
44.6945 12.815
44.8875 12.6251
45.0806 12.4606
45.2739 12.2543
45.4673 12.1287
45.6609 11.9183
45.8546 11.7891
46.0484 11.6083
46.2424 11.4256
46.4365 11.2629
46.631 11.0785
46.8254 10.9182
47.0199 10.7916
47.2146 10.6061
47.4095 10.4603
47.6044 10.3033
47.7996 10.1665
47.9948 10.0039
48.1902 9.88631
48.3858 9.73109
48.5815 9.58855
48.7774 9.46638
48.9734 9.30743
49.1696 9.1793
49.3661 9.00603
49.5626 8.89159
49.7592 8.71822
49.956 8.64429
50.153 8.47973
50.3501 8.37454
50.5474 8.2651
50.7448 8.09879
50.9424 7.96709
51.1402 7.86369
51.3381 7.71695
51.5362 7.62233
51.7344 7.46333
51.9328 7.36933
52.1316 7.21664
52.3304 7.14886
52.5293 7.00342
52.7284 6.88753
52.9276 6.77797
53.1271 6.66633
53.3267 6.58509
53.5265 6.42666
53.7264 6.34825
53.9266 6.24484
54.1269 6.10958
54.3274 5.95851
54.528 5.78279
54.7289 5.61398
54.9301 5.44504
55.1314 5.31288
55.3328 5.05898
55.5344 4.89634
55.7361 4.79639