File: XRD/Ni3Fe_FD0079.xy
TT I
1.27165 10.8945
1.45013 8.75511
1.62863 7.31162
1.80712 6.23452
1.98562 6.86346
2.16411 6.49595
2.34263 5.02347
2.52115 4.53142
2.69965 5.65723
2.87818 8.10862
3.05672 11.7931
3.23527 15.3812
3.4138 18.8999
3.59237 21.8217
3.77094 24.3437
3.9495 27.8863
4.12809 31.9719
4.30669 37.1081
4.4853 43.6108
4.6639 52.5808
4.84253 65.6976
5.02118 99.4161
5.19981 752.09
5.37848 1425.08
5.55716 121.405
5.73586 102.265
5.91455 123.218
6.09328 1357.94
6.27201 112.855
6.45075 66.7854
6.62952 58.0436
6.8083 53.4007
6.98711 51.3119
7.16591 50.3521
7.34475 49.9397
7.5236 75.357
7.70247 52.7169
7.88135 53.4509
8.06026 57.6276
8.23919 65.1447
8.41812 84.1279
8.59709 530.625
8.77609 163.954
8.9551 84.5243
9.13412 81.0369
9.31318 153.143
9.49226 80.984
9.67134 84.6417
9.85047 95.8885
10.0296 543.674
10.2088 1455.83
10.388 106.051
10.5672 168.097
10.7465 116.504
10.9257 72.4834
11.105 66.3769
11.2844 62.4961
11.4637 60.0997
11.6431 58.6766
11.8225 58.5022
12.002 92.8541
12.1814 83.3925
12.3609 94.7379
12.5405 59.6018
12.72 61.1543
12.8996 65.2934
13.0792 78.1629
13.2589 147.383
13.4386 317.898
13.6183 130.276
13.7981 239.617
13.9779 73.043
14.1577 91.5403
14.3376 66.1597
14.5175 64.5614
14.6974 66.0159
14.8774 108.097
15.0574 193.468
15.2374 67.045
15.4175 62.3651
15.5976 62.2248
15.7778 98.4679
15.958 147.242
16.1382 65.9733
16.3185 54.5132
16.4988 51.9944
16.6792 50.9233
16.8596 51.3111
17.04 53.3653
17.2205 58.1475
17.401 76.4956
17.5815 55.4121
17.7622 59.293
17.9428 80.1791
18.1237 77.4366
18.3044 88.4195
18.4852 101.224
18.666 58.7772
18.8469 54.9721
19.0278 53.6436
19.2088 58.4616
19.3898 60.3494
19.5709 58.1532
19.752 50.3442
19.9332 54.5923
20.1144 55.9645
20.2957 57.0802
20.477 61.7662
20.6586 47.0258
20.84 47.561
21.0215 46.0282
21.203 45.5292
21.3846 48.5708
21.5662 46.1866
21.7479 50.031
21.9297 51.4447
22.1115 55.5227
22.2933 52.5074
22.4753 45.9663
22.6572 46.1444
22.8393 47.9557
23.0214 49.0038
23.2037 48.8698
23.3859 48.914
23.5682 46.5791
23.7505 55.1383
23.9329 43.1938
24.1154 41.9186
24.2979 41.0502
24.4805 40.2932
24.6631 40.7705
24.8458 40.0925
25.0286 40.1639
25.2114 40.5791
25.3943 40.9961
25.5773 40.5206
25.7605 38.3882
25.9436 38.367
26.1268 38.1685
26.31 39.2344
26.4933 38.0128
26.6767 37.9909
26.8601 39.3542
27.0437 37.6817
27.2272 36.6261
27.4109 36.1624
27.5946 36.0437
27.7784 36.4318
27.9623 35.8377
28.1462 36.3259
28.3304 35.7918
28.5145 34.3221
28.6987 33.6837
28.8829 33.1205
29.0673 33.1603
29.2517 32.2347
29.4361 31.8725
29.6207 31.7578
29.8053 31.0596
29.99 30.7321
30.1748 30.387
30.3597 30.6754
30.5447 30.2745
30.7297 29.8776
30.915 30.1724
31.1002 29.574
31.2855 29.0471
31.4708 28.8497
31.6563 28.9933
31.8418 28.3353
32.0275 28.0344
32.2132 27.901
32.399 27.3364
32.5848 26.8192
32.7708 26.5761
32.9569 26.3281
33.143 26.0212
33.3293 25.7483
33.5158 25.7121
33.7022 24.9963
33.8887 24.7774
34.0753 24.5183
34.262 24.0942
34.4488 23.7733
34.6357 23.5839
34.8227 23.306
35.0098 22.9605
35.1969 22.7182
35.3842 22.4791
35.5716 22.3747
35.759 22.1292
35.9468 21.7864
36.1345 21.5177
36.3222 21.2918
36.5101 21.0687
36.6981 20.8277
36.8861 20.576
37.0743 20.171
37.2626 20.0076
37.451 19.7367
37.6395 19.5985
37.8281 19.3256
38.0168 19.0515
38.2056 18.7535
38.3945 18.5047
38.5837 18.3205
38.7728 18.0824
38.9621 17.8604
39.1514 17.6005
39.3409 17.3582
39.5304 17.2304
39.7201 17.0005
39.9099 16.8261
40.0999 16.5393
40.2899 16.3611
40.48 16.1325
40.6703 15.9555
40.8607 15.793
41.0512 15.5957
41.242 15.3856
41.4327 15.1153
41.6236 14.9453
41.8146 14.7657
42.0057 14.5511
42.1969 14.3603
42.3882 14.1598
42.5797 13.9842
42.7713 13.8085
42.963 13.6077
43.1549 13.4509
43.3468 13.261
43.5389 13.0854
43.7312 12.8618
43.9237 12.6639
44.1162 12.508
44.3088 12.3159
44.5016 12.1643
44.6945 12.0413
44.8875 11.8486
45.0806 11.6624
45.2739 11.5372
45.4673 11.3792
45.6609 11.2129
45.8546 11.044
46.0484 10.8531
46.2424 10.6953
46.4365 10.5953
46.631 10.4142
46.8254 10.2554
47.0199 10.1232
47.2146 9.98917
47.4095 9.8312
47.6044 9.65238
47.7996 9.51262
47.9948 9.3902
48.1902 9.26532
48.3858 9.13724
48.5815 9.03121
48.7774 8.88675
48.9734 8.7045
49.1696 8.60661
49.3661 8.47397
49.5626 8.37839
49.7592 8.25168
49.956 8.13306
50.153 7.98908
50.3501 7.87155
50.5474 7.78467
50.7448 7.65053
50.9424 7.5394
51.1402 7.41451
51.3381 7.27753
51.5362 7.18315
51.7344 7.06972
51.9328 6.92985
52.1316 6.78879
52.3304 6.70639
52.5293 6.59788
52.7284 6.47265
52.9276 6.38824
53.1271 6.29535
53.3267 6.17581
53.5265 6.01548
53.7264 5.96654
53.9266 5.84539
54.1269 5.72824
54.3274 5.58175
54.528 5.42375
54.7289 5.24785
54.9301 5.02628
55.1314 4.94092
55.3328 4.70521
55.5344 4.58003
55.7361 4.43586