File: XRD/Ni3Fe_FD0449.xy
TT I
1.27165 7.37017
1.45013 6.59882
1.62863 5.39817
1.80712 4.79208
1.98562 4.37208
2.16411 5.23585
2.34263 4.7994
2.52115 6.86735
2.69965 7.3553
2.87818 8.51254
3.05672 11.4928
3.23527 15.0968
3.4138 19.4301
3.59237 23.3293
3.77094 26.4072
3.9495 29.9999
4.12809 34.8751
4.30669 149.66
4.4853 59.7761
4.6639 56.324
4.84253 68.9222
5.02118 89.9142
5.19981 500.577
5.37848 201.944
5.55716 104.908
5.73586 95.0062
5.91455 98.526
6.09328 4333.38
6.27201 84.2302
6.45075 68.8831
6.62952 63.3603
6.8083 59.3668
6.98711 56.4944
7.16591 55.9206
7.34475 78.4291
7.5236 55.3982
7.70247 57.0026
7.88135 58.5437
8.06026 63.4392
8.23919 70.9
8.41812 87.4061
8.59709 1240.21
8.77609 102.223
8.9551 90.9704
9.13412 83.8924
9.31318 84.5889
9.49226 86.3968
9.67134 97.7022
9.85047 102.225
10.0296 404.927
10.2088 413.982
10.388 107.608
10.5672 504.016
10.7465 88.3507
10.9257 78.9626
11.105 73.1503
11.2844 70.9757
11.4637 65.7769
11.6431 64.5767
11.8225 63.549
12.002 65.5165
12.1814 156.52
12.3609 69.702
12.5405 65.5766
12.72 70.0711
12.8996 72.4922
13.0792 81.8338
13.2589 249.496
13.4386 125.33
13.6183 252.179
13.7981 98.0175
13.9779 77.2985
14.1577 73.4555
14.3376 72.3406
14.5175 70.3837
14.6974 71.9421
14.8774 117.623
15.0574 149.589
15.2374 71.5962
15.4175 67.7668
15.5976 67.2645
15.7778 100.967
15.958 155.843
16.1382 63.1392
16.3185 59.4566
16.4988 56.1595
16.6792 55.4698
16.8596 56.2702
17.04 57.1176
17.2205 68.4358
17.401 71.7516
17.5815 60.3835
17.7622 62.5705
17.9428 77.006
18.1237 138.687
18.3044 91.7259
18.4852 77.867
18.666 61.4453
18.8469 59.0317
19.0278 57.8517
19.2088 61.055
19.3898 76.8343
19.5709 55.1273
19.752 54.2322
19.9332 57.6739
20.1144 70.5972
20.2957 64.3824
20.477 54.2599
20.6586 50.5647
20.84 49.8325
21.0215 49.6553
21.203 51.5341
21.3846 49.8519
21.5662 49.9426
21.7479 53.9782
21.9297 65.338
22.1115 56.6364
22.2933 50.668
22.4753 49.7483
22.6572 49.8739
22.8393 53.1194
23.0214 58.0543
23.2037 49.632
23.3859 50.7435
23.5682 57.4486
23.7505 48.9626
23.9329 45.9816
24.1154 44.8999
24.2979 44.2372
24.4805 43.7424
24.6631 43.6076
24.8458 43.0342
25.0286 43.7079
25.2114 45.4694
25.3943 45.2069
25.5773 41.5577
25.7605 41.1824
25.9436 41.6251
26.1268 42.424
26.31 40.7565
26.4933 41.419
26.6767 42.8193
26.8601 41.0258
27.0437 39.5583
27.2272 39.2597
27.4109 39.0514
27.5946 39.0016
27.7784 38.4478
27.9623 39.0718
28.1462 39.3299
28.3304 37.7919
28.5145 36.6252
28.6987 36.1648
28.8829 36.0053
29.0673 35.2639
29.2517 34.9497
29.4361 34.7024
29.6207 33.7317
29.8053 33.4443
29.99 33.1716
30.1748 33.0427
30.3597 32.6978
30.5447 32.7461
30.7297 32.7168
30.915 32.1141
31.1002 31.6605
31.2855 31.4443
31.4708 31.2986
31.6563 30.8282
31.8418 30.7318
32.0275 30.4373
32.2132 29.8869
32.399 29.3582
32.5848 28.8536
32.7708 28.654
32.9569 28.4403
33.143 28.329
33.3293 27.8453
33.5158 27.5105
33.7022 27.053
33.8887 26.7738
34.0753 26.4312
34.262 26.067
34.4488 25.7669
34.6357 25.3725
34.8227 25.0912
35.0098 24.9205
35.1969 24.5827
35.3842 24.3765
35.5716 24.0983
35.759 23.826
35.9468 23.4658
36.1345 23.2356
36.3222 23.0364
36.5101 22.8751
36.6981 22.4675
36.8861 22.1157
37.0743 21.846
37.2626 21.6336
37.451 21.3467
37.6395 21.2248
37.8281 20.8431
38.0168 20.4862
38.2056 20.2671
38.3945 20.0121
38.5837 19.7297
38.7728 19.5602
38.9621 19.2311
39.1514 19.0359
39.3409 18.7477
39.5304 18.5776
39.7201 18.3388
39.9099 18.1129
40.0999 17.8838
40.2899 17.6065
40.48 17.3746
40.6703 17.1545
40.8607 17.0343
41.0512 16.7916
41.242 16.5945
41.4327 16.3278
41.6236 16.0925
41.8146 15.9469
42.0057 15.6871
42.1969 15.431
42.3882 15.2853
42.5797 15.0394
42.7713 14.9388
42.963 14.6058
43.1549 14.4777
43.3468 14.205
43.5389 14.0432
43.7312 13.8118
43.9237 13.5972
44.1162 13.464
44.3088 13.2843
44.5016 13.0768
44.6945 12.9316
44.8875 12.7372
45.0806 12.5449
45.2739 12.4079
45.4673 12.2448
45.6609 12.0747
45.8546 11.8872
46.0484 11.6916
46.2424 11.5483
46.4365 11.4394
46.631 11.2102
46.8254 11.0217
47.0199 10.8926
47.2146 10.6853
47.4095 10.5294
47.6044 10.3894
47.7996 10.2611
47.9948 10.0791
48.1902 9.98016
48.3858 9.81087
48.5815 9.6793
48.7774 9.56457
48.9734 9.39127
49.1696 9.25281
49.3661 9.12107
49.5626 8.94922
49.7592 8.84124
49.956 8.70971
50.153 8.59527
50.3501 8.4186
50.5474 8.2956
50.7448 8.18414
50.9424 8.04206
51.1402 7.89294
51.3381 7.79056
51.5362 7.68764
51.7344 7.49392
51.9328 7.4065
52.1316 7.30999
52.3304 7.19785
52.5293 7.03177
52.7284 6.97502
52.9276 6.81223
53.1271 6.73771
53.3267 6.62049
53.5265 6.50272
53.7264 6.34994
53.9266 6.26247
54.1269 6.15108
54.3274 6.06464
54.528 5.89325
54.7289 5.72477
54.9301 5.53153
55.1314 5.46342
55.3328 5.24068
55.5344 5.05175
55.7361 4.86705