File: XRD/Ni3Fe_FD0462.xy
TT I
1.27165 7.52836
1.45013 6.38389
1.62863 5.90178
1.80712 5.26021
1.98562 4.64662
2.16411 5.0951
2.34263 5.74303
2.52115 6.85976
2.69965 7.8222
2.87818 9.13214
3.05672 11.4098
3.23527 15.279
3.4138 19.2509
3.59237 23.4438
3.77094 25.9625
3.9495 30.0756
4.12809 34.7349
4.30669 131.567
4.4853 57.3122
4.6639 56.518
4.84253 68.9426
5.02118 89.853
5.19981 523.668
5.37848 206.002
5.55716 105.081
5.73586 95.1378
5.91455 98.6741
6.09328 4229.66
6.27201 83.5811
6.45075 68.9736
6.62952 63.1861
6.8083 59.2276
6.98711 56.2285
7.16591 55.8019
7.34475 74.9738
7.5236 54.7926
7.70247 57.0091
7.88135 58.9011
8.06026 63.442
8.23919 70.5787
8.41812 86.9513
8.59709 1217.17
8.77609 101.84
8.9551 90.9579
9.13412 83.5511
9.31318 84.7965
9.49226 86.1442
9.67134 96.703
9.85047 102.433
10.0296 410.273
10.2088 411.758
10.388 108.334
10.5672 491.067
10.7465 88.0055
10.9257 78.8657
11.105 72.6901
11.2844 70.2057
11.4637 65.9533
11.6431 64.4904
11.8225 63.326
12.002 65.5579
12.1814 155.669
12.3609 69.654
12.5405 65.6956
12.72 69.7512
12.8996 72.1979
13.0792 82.0474
13.2589 250.522
13.4386 124.838
13.6183 253.374
13.7981 97.3654
13.9779 77.1368
14.1577 73.1923
14.3376 71.9842
14.5175 70.2328
14.6974 71.9573
14.8774 118.042
15.0574 148.203
15.2374 71.2177
15.4175 67.5502
15.5976 67.2622
15.7778 100.734
15.958 155.303
16.1382 62.917
16.3185 59.0339
16.4988 56.4916
16.6792 55.3542
16.8596 55.9013
17.04 57.0678
17.2205 68.4433
17.401 71.8921
17.5815 60.0978
17.7622 62.6031
17.9428 77.0924
18.1237 139.666
18.3044 91.9692
18.4852 77.9659
18.666 61.3306
18.8469 59.0655
19.0278 57.6651
19.2088 60.9182
19.3898 76.4932
19.5709 55.3057
19.752 54.2867
19.9332 57.7658
20.1144 70.4675
20.2957 64.46
20.477 54.2822
20.6586 50.4562
20.84 49.6379
21.0215 49.6572
21.203 51.3676
21.3846 49.5588
21.5662 49.887
21.7479 53.9836
21.9297 65.4866
22.1115 56.7613
22.2933 50.5532
22.4753 49.5662
22.6572 49.7298
22.8393 53.0889
23.0214 57.981
23.2037 49.7702
23.3859 50.7833
23.5682 57.4618
23.7505 48.8518
23.9329 45.9009
24.1154 44.8446
24.2979 44.1243
24.4805 43.5679
24.6631 43.436
24.8458 42.9918
25.0286 43.6697
25.2114 45.464
25.3943 45.2337
25.5773 41.6312
25.7605 41.1783
25.9436 41.61
26.1268 42.3392
26.31 40.7703
26.4933 41.6323
26.6767 42.8134
26.8601 41.0795
27.0437 39.6017
27.2272 39.1751
27.4109 39.0792
27.5946 39.036
27.7784 38.5331
27.9623 39.0276
28.1462 39.5229
28.3304 37.7164
28.5145 36.6049
28.6987 36.1408
28.8829 35.9709
29.0673 35.2947
29.2517 34.9668
29.4361 34.7258
29.6207 33.6154
29.8053 33.4121
29.99 33.1211
30.1748 32.9406
30.3597 32.809
30.5447 32.7245
30.7297 32.7939
30.915 32.215
31.1002 31.6485
31.2855 31.4402
31.4708 31.3541
31.6563 30.8601
31.8418 30.6064
32.0275 30.3589
32.2132 29.8988
32.399 29.39
32.5848 28.9604
32.7708 28.5738
32.9569 28.4483
33.143 28.248
33.3293 27.8554
33.5158 27.3938
33.7022 27.1425
33.8887 26.8208
34.0753 26.4607
34.262 26.0814
34.4488 25.6939
34.6357 25.3335
34.8227 25.1347
35.0098 24.8787
35.1969 24.5916
35.3842 24.4059
35.5716 24.2203
35.759 23.8668
35.9468 23.5333
36.1345 23.2765
36.3222 22.9986
36.5101 22.8061
36.6981 22.5142
36.8861 22.1655
37.0743 21.8336
37.2626 21.5817
37.451 21.3074
37.6395 21.2019
37.8281 20.8697
38.0168 20.5504
38.2056 20.2423
38.3945 19.9399
38.5837 19.738
38.7728 19.5362
38.9621 19.2797
39.1514 18.9801
39.3409 18.7407
39.5304 18.5797
39.7201 18.3062
39.9099 18.0794
40.0999 17.8311
40.2899 17.6166
40.48 17.3875
40.6703 17.1828
40.8607 16.9663
41.0512 16.725
41.242 16.4577
41.4327 16.2867
41.6236 16.0671
41.8146 15.8952
42.0057 15.624
42.1969 15.4591
42.3882 15.2907
42.5797 15.0549
42.7713 14.8138
42.963 14.6171
43.1549 14.4197
43.3468 14.2352
43.5389 14.0379
43.7312 13.839
43.9237 13.6867
44.1162 13.4628
44.3088 13.33
44.5016 13.0823
44.6945 12.9371
44.8875 12.7755
45.0806 12.542
45.2739 12.4322
45.4673 12.1935
45.6609 12.0092
45.8546 11.8509
46.0484 11.7004
46.2424 11.5092
46.4365 11.3711
46.631 11.1735
46.8254 11.0509
47.0199 10.8899
47.2146 10.7013
47.4095 10.5079
47.6044 10.3953
47.7996 10.2616
47.9948 10.0844
48.1902 9.94601
48.3858 9.80742
48.5815 9.68164
48.7774 9.53704
48.9734 9.38142
49.1696 9.25704
49.3661 9.10612
49.5626 8.96533
49.7592 8.83703
49.956 8.71008
50.153 8.56573
50.3501 8.42048
50.5474 8.2843
50.7448 8.18902
50.9424 8.04756
51.1402 7.91039
51.3381 7.76665
51.5362 7.6556
51.7344 7.53739
51.9328 7.4156
52.1316 7.27739
52.3304 7.15617
52.5293 7.02678
52.7284 6.94857
52.9276 6.82927
53.1271 6.74426
53.3267 6.5903
53.5265 6.52422
53.7264 6.31143
53.9266 6.25848
54.1269 6.13567
54.3274 6.00546
54.528 5.87065
54.7289 5.71904
54.9301 5.52905
55.1314 5.45471
55.3328 5.21659
55.5344 5.06131
55.7361 4.8909