File: XRD/Ni3Fe_FD0105.xy
TT I
1.27165 8.44018
1.45013 6.63703
1.62863 5.58184
1.80712 5.56046
1.98562 5.06133
2.16411 4.82395
2.34263 4.29297
2.52115 4.38746
2.69965 5.41774
2.87818 7.59954
3.05672 10.9595
3.23527 14.6687
3.4138 18.4071
3.59237 21.4352
3.77094 24.9729
3.9495 28.2461
4.12809 32.3562
4.30669 37.0153
4.4853 44.437
4.6639 53.5729
4.84253 65.6691
5.02118 92.1729
5.19981 648.295
5.37848 628.214
5.55716 110.834
5.73586 97.0896
5.91455 110.247
6.09328 2266.22
6.27201 94.3648
6.45075 67.0478
6.62952 59.1104
6.8083 55.4921
6.98711 52.5312
7.16591 51.5379
7.34475 51.229
7.5236 57.7334
7.70247 53.1845
7.88135 55.1889
8.06026 59.9479
8.23919 67.1636
8.41812 84.1742
8.59709 779.26
8.77609 126.361
8.9551 84.8323
9.13412 80.5725
9.31318 92.6315
9.49226 82.4492
9.67134 87.9107
9.85047 98.2316
10.0296 584.091
10.2088 1140.36
10.388 104.983
10.5672 274.687
10.7465 93.8773
10.9257 75.003
11.105 69.3858
11.2844 65.4058
11.4637 62.7788
11.6431 61.3879
11.8225 60.1997
12.002 67.924
12.1814 106.72
12.3609 79.8074
12.5405 61.9987
12.72 64.157
12.8996 68.709
13.0792 78.9062
13.2589 187.603
13.4386 243.581
13.6183 172.252
13.7981 176.482
13.9779 75.3685
14.1577 76.0051
14.3376 67.8384
14.5175 67.2906
14.6974 68.7205
14.8774 119.952
15.0574 206.203
15.2374 68.5281
15.4175 65.445
15.5976 64.7628
15.7778 107.74
15.958 176.653
16.1382 61.8512
16.3185 56.5151
16.4988 54.1007
16.6792 53.2936
16.8596 53.5008
17.04 54.6307
17.2205 63.3662
17.401 81.0778
17.5815 58.2783
17.7622 60.6773
17.9428 84.6175
18.1237 102.894
18.3044 87.2761
18.4852 98.1905
18.666 60.0403
18.8469 57.3597
19.0278 55.857
19.2088 61.4863
19.3898 65.6274
19.5709 56.6904
19.752 52.5576
19.9332 57.839
20.1144 63.9774
20.2957 59.592
20.477 60.3311
20.6586 49.2337
20.84 48.5283
21.0215 48.4522
21.203 48.6452
21.3846 50.139
21.5662 48.2946
21.7479 53.4954
21.9297 59.1468
22.1115 55.8406
22.2933 52.6499
22.4753 48.098
22.6572 48.3408
22.8393 50.9235
23.0214 54.9021
23.2037 49.459
23.3859 51.3537
23.5682 51.4389
23.7505 54.1587
23.9329 45.2879
24.1154 43.6651
24.2979 43.045
24.4805 42.4591
24.6631 42.5797
24.8458 41.8954
25.0286 42.3257
25.2114 43.5685
25.3943 43.8108
25.5773 41.3743
25.7605 40.3538
25.9436 40.5433
26.1268 40.6914
26.31 40.7086
26.4933 40.3292
26.6767 41.1291
26.8601 40.9813
27.0437 39.1639
27.2272 38.437
27.4109 38.0342
27.5946 38.1722
27.7784 38.0631
27.9623 37.7708
28.1462 38.5366
28.3304 37.6663
28.5145 35.9872
28.6987 35.4203
28.8829 35.0076
29.0673 34.6356
29.2517 34.1059
29.4361 33.7436
29.6207 33.19
29.8053 32.6654
29.99 32.4319
30.1748 32.0802
30.3597 32.0901
30.5447 31.8895
30.7297 31.7961
30.915 31.679
31.1002 31.0488
31.2855 30.7078
31.4708 30.4211
31.6563 30.5496
31.8418 29.9478
32.0275 29.7064
32.2132 29.3436
32.399 28.7084
32.5848 28.2831
32.7708 28.0246
32.9569 27.8536
33.143 27.4876
33.3293 27.2199
33.5158 27.0185
33.7022 26.3661
33.8887 26.0989
34.0753 25.8705
34.262 25.3953
34.4488 25.1525
34.6357 24.806
34.8227 24.4995
35.0098 24.2614
35.1969 23.9973
35.3842 23.7535
35.5716 23.5863
35.759 23.2931
35.9468 22.9198
36.1345 22.7103
36.3222 22.4664
36.5101 22.1783
36.6981 21.9686
36.8861 21.609
37.0743 21.3007
37.2626 21.1467
37.451 20.7835
37.6395 20.6236
37.8281 20.2503
38.0168 20.0637
38.2056 19.7664
38.3945 19.5188
38.5837 19.2508
38.7728 19.0878
38.9621 18.8015
39.1514 18.4697
39.3409 18.2857
39.5304 18.1443
39.7201 17.9613
39.9099 17.6808
40.0999 17.441
40.2899 17.2146
40.48 16.9505
40.6703 16.7876
40.8607 16.565
41.0512 16.4144
41.242 16.1703
41.4327 15.9404
41.6236 15.7069
41.8146 15.5257
42.0057 15.2848
42.1969 15.1395
42.3882 14.8987
42.5797 14.7277
42.7713 14.5039
42.963 14.2597
43.1549 14.0961
43.3468 13.8678
43.5389 13.7039
43.7312 13.53
43.9237 13.3637
44.1162 13.1508
44.3088 12.971
44.5016 12.7552
44.6945 12.6369
44.8875 12.4374
45.0806 12.2494
45.2739 12.1133
45.4673 11.9064
45.6609 11.7158
45.8546 11.575
46.0484 11.4121
46.2424 11.2502
46.4365 11.1188
46.631 10.953
46.8254 10.7564
47.0199 10.6215
47.2146 10.5066
47.4095 10.2858
47.6044 10.1506
47.7996 9.99932
47.9948 9.86468
48.1902 9.72699
48.3858 9.57858
48.5815 9.45007
48.7774 9.35046
48.9734 9.18386
49.1696 9.04272
49.3661 8.90343
49.5626 8.77005
49.7592 8.64013
49.956 8.53141
50.153 8.3811
50.3501 8.26942
50.5474 8.12435
50.7448 8.01841
50.9424 7.86637
51.1402 7.74579
51.3381 7.63006
51.5362 7.50531
51.7344 7.39325
51.9328 7.25791
52.1316 7.1326
52.3304 7.02798
52.5293 6.90168
52.7284 6.8091
52.9276 6.72105
53.1271 6.58101
53.3267 6.47604
53.5265 6.34955
53.7264 6.22018
53.9266 6.14336
54.1269 6.01747
54.3274 5.87928
54.528 5.71327
54.7289 5.53758
54.9301 5.38452
55.1314 5.23357
55.3328 4.96384
55.5344 4.80087
55.7361 4.74065