File: XRD/Ni3Fe_FD0051.xy
TT I
1.27165 33.0656
1.45013 26.9821
1.62863 23.4565
1.80712 21.5915
1.98562 20.4401
2.16411 20.2621
2.34263 21.3031
2.52115 21.6065
2.69965 25.7252
2.87818 36.3123
3.05672 63.5692
3.23527 66.7657
3.4138 34.3553
3.59237 26.657
3.77094 25.7589
3.9495 26.8893
4.12809 29.0622
4.30669 37.8744
4.4853 37.4454
4.6639 42.1365
4.84253 54.4127
5.02118 104.049
5.19981 310.206
5.37848 3182.24
5.55716 151.855
5.73586 102.954
5.91455 118.858
6.09328 563.785
6.27201 222.902
6.45075 64.3327
6.62952 47.2319
6.8083 41.4233
6.98711 40.6801
7.16591 43.8353
7.34475 39.3055
7.5236 58.7198
7.70247 43.8041
7.88135 38.4564
8.06026 40.5824
8.23919 46.2545
8.41812 58.9966
8.59709 184.401
8.77609 380.154
8.9551 74.5246
9.13412 64.9694
9.31318 330.344
9.49226 58.6848
9.67134 57.2045
9.85047 63.1895
10.0296 118.174
10.2088 683.022
10.388 100.728
10.5672 98.055
10.7465 202.069
10.9257 51.5795
11.105 44.904
11.2844 42.7776
11.4637 39.8742
11.6431 39.0136
11.8225 39.8811
12.002 114.803
12.1814 50.3463
12.3609 86.4685
12.5405 42.3166
12.72 39.7466
12.8996 41.4289
13.0792 47.7701
13.2589 68.6142
13.4386 188.817
13.6183 81.1963
13.7981 184.749
13.9779 54.9131
14.1577 63.8266
14.3376 46.7683
14.5175 41.4908
14.6974 41.3067
14.8774 48.6496
15.0574 76.6115
15.2374 61.4816
15.4175 41.9304
15.5976 40.7421
15.7778 45.7394
15.958 63.9807
16.1382 81.3702
16.3185 38.316
16.4988 35.0203
16.6792 33.6611
16.8596 33.9929
17.04 42.4212
17.2205 35.6945
17.401 40.75
17.5815 39.5133
17.7622 38.0713
17.9428 41.0674
18.1237 45.7169
18.3044 83.2732
18.4852 56.0361
18.666 49.4137
18.8469 37.2417
19.0278 35.4301
19.2088 35.6149
19.3898 47.3079
19.5709 44.7138
19.752 34.4413
19.9332 33.4039
20.1144 34.3556
20.2957 42.8168
20.477 39.5341
20.6586 33.3862
20.84 35.0124
21.0215 30.4113
21.203 30.1212
21.3846 31.1015
21.5662 31.6543
21.7479 30.9534
21.9297 32.338
22.1115 41.2039
22.2933 37.5471
22.4753 31.9062
22.6572 30.7058
22.8393 31.9482
23.0214 31.8887
23.2037 37.3792
23.3859 31.8506
23.5682 33.5461
23.7505 35.7678
23.9329 31.9436
24.1154 29.6265
24.2979 27.9791
24.4805 27.4052
24.6631 27.6529
24.8458 27.5442
25.0286 26.9079
25.2114 27.1589
25.3943 28.6734
25.5773 29.2858
25.7605 26.5972
25.9436 26.8293
26.1268 25.8719
26.31 26.9215
26.4933 26.2156
26.6767 25.8514
26.8601 27.5863
27.0437 27.7287
27.2272 25.6065
27.4109 24.904
27.5946 24.9959
27.7784 25.1194
27.9623 24.5829
28.1462 25.4039
28.3304 25.8974
28.5145 24.6711
28.6987 23.8387
28.8829 23.0577
29.0673 22.8614
29.2517 22.7179
29.4361 22.0848
29.6207 22.1372
29.8053 21.7049
29.99 21.4156
30.1748 21.5569
30.3597 21.1674
30.5447 21.1153
30.7297 20.86
30.915 21.1265
31.1002 21.1689
31.2855 20.53
31.4708 20.2816
31.6563 20.3609
31.8418 20.3325
32.0275 19.8897
32.2132 20.0374
32.399 19.5673
32.5848 19.1391
32.7708 18.8246
32.9569 18.7797
33.143 18.4959
33.3293 18.2254
33.5158 18.3261
33.7022 17.9752
33.8887 17.5862
34.0753 17.4641
34.262 17.2347
34.4488 17.038
34.6357 16.851
34.8227 16.5621
35.0098 16.3686
35.1969 16.2279
35.3842 16.1192
35.5716 15.9331
35.759 15.9873
35.9468 15.7385
36.1345 15.4925
36.3222 15.3189
36.5101 15.2827
36.6981 14.9709
36.8861 14.8222
37.0743 14.5869
37.2626 14.4281
37.451 14.2495
37.6395 14.1062
37.8281 13.9434
38.0168 13.752
38.2056 13.4992
38.3945 13.328
38.5837 13.2017
38.7728 13.1033
38.9621 12.9435
39.1514 12.7366
39.3409 12.6305
39.5304 12.4456
39.7201 12.3294
39.9099 12.1845
40.0999 12.0321
40.2899 11.8987
40.48 11.6991
40.6703 11.632
40.8607 11.4932
41.0512 11.3745
41.242 11.1393
41.4327 11.0976
41.6236 10.864
41.8146 10.7768
42.0057 10.6463
42.1969 10.5056
42.3882 10.3527
42.5797 10.2378
42.7713 10.0995
42.963 9.98771
43.1549 9.78804
43.3468 9.67202
43.5389 9.55867
43.7312 9.47614
43.9237 9.28689
44.1162 9.23458
44.3088 9.12593
44.5016 8.94921
44.6945 8.84862
44.8875 8.71708
45.0806 8.62471
45.2739 8.514
45.4673 8.3853
45.6609 8.2552
45.8546 8.16763
46.0484 8.05455
46.2424 7.91997
46.4365 7.84868
46.631 7.72328
46.8254 7.60577
47.0199 7.44618
47.2146 7.3943
47.4095 7.29759
47.6044 7.20842
47.7996 7.08986
47.9948 6.97731
48.1902 6.87692
48.3858 6.77544
48.5815 6.70102
48.7774 6.60666
48.9734 6.51705
49.1696 6.4121
49.3661 6.3141
49.5626 6.23295
49.7592 6.16522
49.956 6.07331
50.153 5.96403
50.3501 5.90033
50.5474 5.80305
50.7448 5.73183
50.9424 5.62039
51.1402 5.56213
51.3381 5.43548
51.5362 5.38103
51.7344 5.30025
51.9328 5.20014
52.1316 5.10903
52.3304 5.01256
52.5293 4.97726
52.7284 4.88913
52.9276 4.80923
53.1271 4.75722
53.3267 4.6714
53.5265 4.54221
53.7264 4.4919
53.9266 4.42689
54.1269 4.34244
54.3274 4.23081
54.528 4.10702
54.7289 3.95331
54.9301 3.84784
55.1314 3.78144
55.3328 3.57533
55.5344 3.41248
55.7361 3.36245