File: XRD/Ni3Fe_FD0946.xy
TT I
1.27165 7.26963
1.45013 6.50933
1.62863 5.26992
1.80712 4.86797
1.98562 4.57939
2.16411 4.37915
2.34263 5.26592
2.52115 7.75233
2.69965 8.54753
2.87818 9.26505
3.05672 11.0982
3.23527 14.906
3.4138 18.6399
3.59237 23.2353
3.77094 25.3742
3.9495 29.1546
4.12809 33.8614
4.30669 83.569
4.4853 51.3558
4.6639 54.9674
4.84253 68.0131
5.02118 86.1575
5.19981 371.074
5.37848 199.062
5.55716 101.295
5.73586 92.2814
5.91455 94.4747
6.09328 4610.96
6.27201 78.591
6.45075 70.2725
6.62952 62.6989
6.8083 59.4399
6.98711 54.5241
7.16591 56.2073
7.34475 62.5574
7.5236 53.1107
7.70247 56.5991
7.88135 56.9082
8.06026 62.0426
8.23919 68.5035
8.41812 82.2116
8.59709 1204.04
8.77609 95.3651
8.9551 88.6787
9.13412 82.6036
9.31318 84.7661
9.49226 83.7206
9.67134 94.1876
9.85047 100.987
10.0296 331.237
10.2088 327.914
10.388 103.462
10.5672 551.766
10.7465 84.8632
10.9257 76.8892
11.105 70.2772
11.2844 67.2644
11.4637 64.0633
11.6431 62.2123
11.8225 62.0041
12.002 63.4805
12.1814 160.87
12.3609 65.2823
12.5405 64.2915
12.72 66.8349
12.8996 70.8541
13.0792 79.5609
13.2589 247.462
13.4386 114.348
13.6183 259.746
13.7981 91.2338
13.9779 74.9152
14.1577 70.9292
14.3376 68.9783
14.5175 67.7906
14.6974 69.6784
14.8774 111.015
15.0574 135.383
15.2374 68.3572
15.4175 65.3278
15.5976 64.8581
15.7778 94.2637
15.958 143.913
16.1382 60.1495
16.3185 56.8883
16.4988 54.4747
16.6792 53.5331
16.8596 54.0371
17.04 55.1645
17.2205 66.2027
17.401 67.7838
17.5815 58.31
17.7622 60.4088
17.9428 72.4824
18.1237 141.065
18.3044 90.7546
18.4852 72.8953
18.666 59.2132
18.8469 57.19
19.0278 55.7449
19.2088 58.3441
19.3898 75.0575
19.5709 52.9981
19.752 52.4277
19.9332 55.1963
20.1144 69.4576
20.2957 64.3721
20.477 51.677
20.6586 48.7906
20.84 47.8931
21.0215 47.7635
21.203 50.062
21.3846 48.0383
21.5662 48.1939
21.7479 51.8487
21.9297 64.2053
22.1115 55.4957
22.2933 48.6411
22.4753 47.8185
22.6572 48.1221
22.8393 51.3354
23.0214 55.9885
23.2037 47.9624
23.3859 48.8776
23.5682 57.0239
23.7505 46.8695
23.9329 44.3348
24.1154 43.2639
24.2979 42.7656
24.4805 42.193
24.6631 42.0098
24.8458 41.4501
25.0286 42.1102
25.2114 43.9546
25.3943 43.7502
25.5773 40.1381
25.7605 39.7175
25.9436 40.1331
26.1268 41.1244
26.31 39.3881
26.4933 40.1656
26.6767 41.4807
26.8601 39.6802
27.0437 38.1539
27.2272 37.8852
27.4109 37.8594
27.5946 37.7961
27.7784 37.1886
27.9623 37.9498
28.1462 38.126
28.3304 36.4058
28.5145 35.4166
28.6987 35.0553
28.8829 34.8113
29.0673 34.0559
29.2517 33.7622
29.4361 33.508
29.6207 32.5155
29.8053 32.3299
29.99 32.0182
30.1748 31.9305
30.3597 31.7739
30.5447 31.6298
30.7297 31.7999
30.915 31.1636
31.1002 30.6492
31.2855 30.297
31.4708 30.2105
31.6563 29.912
31.8418 29.667
32.0275 29.4319
32.2132 28.8374
32.399 28.4901
32.5848 28.0127
32.7708 27.8156
32.9569 27.5025
33.143 27.2578
33.3293 26.876
33.5158 26.5247
33.7022 26.095
33.8887 25.9399
34.0753 25.5537
34.262 25.1807
34.4488 24.8134
34.6357 24.5562
34.8227 24.2704
35.0098 24.1087
35.1969 23.7676
35.3842 23.6368
35.5716 23.4082
35.759 23.0465
35.9468 22.8154
36.1345 22.5144
36.3222 22.2305
36.5101 22.0065
36.6981 21.7848
36.8861 21.4034
37.0743 21.1337
37.2626 20.9233
37.451 20.6623
37.6395 20.5165
37.8281 20.206
38.0168 19.9206
38.2056 19.6169
38.3945 19.3113
38.5837 19.1022
38.7728 18.9057
38.9621 18.6002
39.1514 18.3778
39.3409 18.1793
39.5304 17.8981
39.7201 17.7455
39.9099 17.5429
40.0999 17.2617
40.2899 17.113
40.48 16.8221
40.6703 16.6398
40.8607 16.4256
41.0512 16.2484
41.242 15.9474
41.4327 15.7515
41.6236 15.6058
41.8146 15.4026
42.0057 15.1218
42.1969 14.9627
42.3882 14.7749
42.5797 14.5564
42.7713 14.3767
42.963 14.1607
43.1549 13.9757
43.3468 13.7506
43.5389 13.5787
43.7312 13.399
43.9237 13.2582
44.1162 13.0666
44.3088 12.8619
44.5016 12.6802
44.6945 12.5136
44.8875 12.3277
45.0806 12.1391
45.2739 12.0226
45.4673 11.8349
45.6609 11.6512
45.8546 11.5254
46.0484 11.359
46.2424 11.1468
46.4365 10.9849
46.631 10.843
46.8254 10.6634
47.0199 10.5338
47.2146 10.3703
47.4095 10.1908
47.6044 10.0684
47.7996 9.93269
47.9948 9.76232
48.1902 9.62483
48.3858 9.46801
48.5815 9.39672
48.7774 9.19959
48.9734 9.08787
49.1696 8.94725
49.3661 8.77799
49.5626 8.63101
49.7592 8.54064
49.956 8.44744
50.153 8.31011
50.3501 8.14542
50.5474 8.03603
50.7448 7.91628
50.9424 7.78001
51.1402 7.66879
51.3381 7.52967
51.5362 7.40211
51.7344 7.27394
51.9328 7.20184
52.1316 7.0239
52.3304 6.95649
52.5293 6.82854
52.7284 6.72627
52.9276 6.63736
53.1271 6.50626
53.3267 6.42054
53.5265 6.30171
53.7264 6.16077
53.9266 6.10663
54.1269 5.92567
54.3274 5.83655
54.528 5.68311
54.7289 5.50134
54.9301 5.42374
55.1314 5.28831
55.3328 5.07194
55.5344 4.85067
55.7361 4.76978