File: XRD/Ni3Fe_FD0788.xy
TT I
1.27165 6.91152
1.45013 6.87347
1.62863 4.95804
1.80712 4.74046
1.98562 4.73117
2.16411 4.41379
2.34263 5.5411
2.52115 6.80291
2.69965 8.79432
2.87818 8.83062
3.05672 11.0386
3.23527 15.1818
3.4138 18.5716
3.59237 23.5702
3.77094 25.9441
3.9495 29.3153
4.12809 34.4942
4.30669 157.004
4.4853 58.9493
4.6639 55.3402
4.84253 66.6314
5.02118 86.0897
5.19981 354.131
5.37848 178.244
5.55716 100.498
5.73586 91.2727
5.91455 93.348
6.09328 4526.88
6.27201 80.1319
6.45075 66.6089
6.62952 61.7041
6.8083 57.9839
6.98711 55.3358
7.16591 54.476
7.34475 78.2918
7.5236 53.6952
7.70247 55.4078
7.88135 57.1323
8.06026 61.8002
8.23919 69.0134
8.41812 83.8622
8.59709 1209.34
8.77609 96.9068
8.9551 89.2045
9.13412 81.2363
9.31318 82.2889
9.49226 83.9533
9.67134 95.0313
9.85047 98.7164
10.0296 341.091
10.2088 347.313
10.388 103.411
10.5672 532.451
10.7465 85.0456
10.9257 77.3999
11.105 70.8139
11.2844 68.6961
11.4637 63.8013
11.6431 62.7313
11.8225 61.8232
12.002 63.1295
12.1814 157.567
12.3609 67.7271
12.5405 63.5957
12.72 68.0956
12.8996 70.1498
13.0792 78.5733
13.2589 244.63
13.4386 117.419
13.6183 254.695
13.7981 92.727
13.9779 74.8172
14.1577 71.3642
14.3376 70.2092
14.5175 68.1222
14.6974 69.512
14.8774 110.401
15.0574 141.982
15.2374 69.3113
15.4175 65.6315
15.5976 65.4381
15.7778 94.0606
15.958 147.904
16.1382 61.3902
16.3185 57.4379
16.4988 54.8406
16.6792 53.9103
16.8596 54.3913
17.04 55.2536
17.2205 66.6521
17.401 68.9231
17.5815 58.5571
17.7622 60.8168
17.9428 73.0874
18.1237 141.694
18.3044 90.7189
18.4852 74.443
18.666 59.5814
18.8469 57.4449
19.0278 56.2244
19.2088 58.6971
19.3898 76.0079
19.5709 53.6758
19.752 52.8923
19.9332 55.6628
20.1144 69.705
20.2957 64.036
20.477 52.3677
20.6586 48.9786
20.84 48.263
21.0215 48.1079
21.203 50.5453
21.3846 48.1303
21.5662 48.1808
21.7479 52.1503
21.9297 64.0284
22.1115 55.6478
22.2933 49.1398
22.4753 48.3742
22.6572 48.4743
22.8393 51.6187
23.0214 56.6077
23.2037 48.3177
23.3859 49.2733
23.5682 56.9887
23.7505 47.4699
23.9329 44.7449
24.1154 43.5928
24.2979 42.8918
24.4805 42.4071
24.6631 42.3566
24.8458 41.7699
25.0286 42.5622
25.2114 44.2003
25.3943 44.2353
25.5773 40.5334
25.7605 40.068
25.9436 40.5243
26.1268 41.2959
26.31 39.6759
26.4933 40.325
26.6767 41.7979
26.8601 40.0008
27.0437 38.4474
27.2272 38.2885
27.4109 37.9211
27.5946 37.9397
27.7784 37.4824
27.9623 38.0118
28.1462 38.4921
28.3304 36.6742
28.5145 35.6167
28.6987 35.2949
28.8829 35.0531
29.0673 34.3248
29.2517 34.0813
29.4361 33.9202
29.6207 32.7337
29.8053 32.5946
29.99 32.2888
30.1748 32.1225
30.3597 31.9705
30.5447 31.8549
30.7297 31.9403
30.915 31.2536
31.1002 30.8067
31.2855 30.4579
31.4708 30.6001
31.6563 30.0367
31.8418 29.8105
32.0275 29.6178
32.2132 28.9864
32.399 28.6369
32.5848 28.2493
32.7708 27.9193
32.9569 27.7173
33.143 27.5237
33.3293 27.0791
33.5158 26.74
33.7022 26.3226
33.8887 25.9957
34.0753 25.7099
34.262 25.3509
34.4488 25.0015
34.6357 24.7768
34.8227 24.4229
35.0098 24.2493
35.1969 23.961
35.3842 23.7391
35.5716 23.5135
35.759 23.2801
35.9468 22.8867
36.1345 22.6595
36.3222 22.446
36.5101 22.1973
36.6981 21.8514
36.8861 21.594
37.0743 21.3597
37.2626 21.0371
37.451 20.7079
37.6395 20.6042
37.8281 20.2553
38.0168 20.0363
38.2056 19.7797
38.3945 19.4488
38.5837 19.2071
38.7728 19.0296
38.9621 18.7217
39.1514 18.56
39.3409 18.2264
39.5304 18.0419
39.7201 17.8162
39.9099 17.6564
40.0999 17.3756
40.2899 17.1825
40.48 16.8981
40.6703 16.6701
40.8607 16.5504
41.0512 16.3985
41.242 16.0742
41.4327 15.8777
41.6236 15.6665
41.8146 15.5284
42.0057 15.2823
42.1969 15.0245
42.3882 14.9029
42.5797 14.6277
42.7713 14.4777
42.963 14.2789
43.1549 14.158
43.3468 13.8501
43.5389 13.6708
43.7312 13.5049
43.9237 13.3057
44.1162 13.1355
44.3088 12.9831
44.5016 12.7655
44.6945 12.6016
44.8875 12.3962
45.0806 12.2356
45.2739 12.0515
45.4673 11.8934
45.6609 11.7145
45.8546 11.6373
46.0484 11.4005
46.2424 11.247
46.4365 11.0886
46.631 10.9056
46.8254 10.7743
47.0199 10.6021
47.2146 10.4784
47.4095 10.3214
47.6044 10.139
47.7996 10.0004
47.9948 9.8586
48.1902 9.6843
48.3858 9.58049
48.5815 9.44022
48.7774 9.34482
48.9734 9.18187
49.1696 8.9957
49.3661 8.86503
49.5626 8.74582
49.7592 8.60442
49.956 8.50275
50.153 8.36022
50.3501 8.19027
50.5474 8.09506
50.7448 7.99894
50.9424 7.88947
51.1402 7.69931
51.3381 7.5878
51.5362 7.47168
51.7344 7.33361
51.9328 7.20671
52.1316 7.06974
52.3304 6.98404
52.5293 6.86655
52.7284 6.77952
52.9276 6.64119
53.1271 6.56145
53.3267 6.44821
53.5265 6.35031
53.7264 6.2196
53.9266 6.12237
54.1269 6.00717
54.3274 5.88241
54.528 5.67649
54.7289 5.59994
54.9301 5.4505
55.1314 5.33758
55.3328 5.06878
55.5344 4.93568
55.7361 4.80507