File: XRD/Ni3Fe_FD0092.xy
TT I
1.27165 9.02559
1.45013 7.77571
1.62863 6.14023
1.80712 5.49105
1.98562 5.95247
2.16411 5.01962
2.34263 4.44775
2.52115 3.53826
2.69965 5.10257
2.87818 7.49834
3.05672 11.1499
3.23527 14.9155
3.4138 18.7705
3.59237 21.535
3.77094 24.5871
3.9495 27.7431
4.12809 32.3493
4.30669 37.2425
4.4853 44.5519
4.6639 53.565
4.84253 65.9922
5.02118 95.5925
5.19981 711.775
5.37848 833.546
5.55716 114.613
5.73586 99.6575
5.91455 115.496
6.09328 1939.79
6.27201 100.383
6.45075 66.9207
6.62952 59.4311
6.8083 54.8206
6.98711 52.9419
7.16591 51.8802
7.34475 51.309
7.5236 61.2244
7.70247 53.4075
7.88135 55.3425
8.06026 60.1813
8.23919 67.0703
8.41812 84.6765
8.59709 708.685
8.77609 137.771
8.9551 85.5529
9.13412 81.4302
9.31318 103.297
9.49226 82.3817
9.67134 87.5414
9.85047 98.6878
10.0296 604.534
10.2088 1299.72
10.388 106.411
10.5672 235.609
10.7465 98.9333
10.9257 75.1516
11.105 69.122
11.2844 65.0087
11.4637 62.2829
11.6431 61.2139
11.8225 60.3042
12.002 72.7189
12.1814 99.1199
12.3609 85.6843
12.5405 62.0896
12.72 63.8158
12.8996 68.2957
13.0792 78.9
13.2589 177.291
13.4386 277.275
13.6183 159.333
13.7981 202.186
13.9779 75.0909
14.1577 79.3429
14.3376 67.7765
14.5175 67.2432
14.6974 68.4511
14.8774 119.886
15.0574 207.608
15.2374 68.6454
15.4175 65.0885
15.5976 64.5046
15.7778 108.29
15.958 170.106
16.1382 63.1059
16.3185 56.3202
16.4988 54.0982
16.6792 52.9961
16.8596 53.2613
17.04 54.6233
17.2205 62.7143
17.401 80.7899
17.5815 57.9441
17.7622 60.7197
17.9428 85.6445
18.1237 94.2646
18.3044 88.4664
18.4852 101.482
18.666 60.3127
18.8469 57.0657
19.0278 55.7006
19.2088 61.5732
19.3898 63.8264
19.5709 57.917
19.752 52.3688
19.9332 57.6814
20.1144 62.0897
20.2957 59.3342
20.477 61.8514
20.6586 48.8797
20.84 48.4874
21.0215 48.1658
21.203 48.222
21.3846 50.3737
21.5662 48.1737
21.7479 53.3514
21.9297 57.1975
22.1115 56.4145
22.2933 53.3722
22.4753 48.1607
22.6572 48.2587
22.8393 50.6212
23.0214 53.3898
23.2037 49.9781
23.3859 51.1582
23.5682 50.2204
23.7505 55.6011
23.9329 44.9102
24.1154 43.6924
24.2979 42.8837
24.4805 42.1651
24.6631 42.3098
24.8458 41.7545
25.0286 42.2593
25.2114 43.0395
25.3943 43.4343
25.5773 41.7038
25.7605 40.0274
25.9436 40.2028
26.1268 40.2927
26.31 40.7139
26.4933 40.0353
26.6767 40.5301
26.8601 40.7856
27.0437 39.1056
27.2272 38.3161
27.4109 37.7646
27.5946 37.924
27.7784 38.0404
27.9623 37.668
28.1462 38.2191
28.3304 37.3773
28.5145 35.7534
28.6987 35.1626
28.8829 34.8384
29.0673 34.6579
29.2517 33.8307
29.4361 33.5279
29.6207 33.0786
29.8053 32.4179
29.99 32.1314
30.1748 31.8871
30.3597 31.894
30.5447 31.7167
30.7297 31.5169
30.915 31.5366
31.1002 30.8882
31.2855 30.547
31.4708 30.1965
31.6563 30.3376
31.8418 29.6114
32.0275 29.5283
32.2132 29.2621
32.399 28.6463
32.5848 28.1415
32.7708 27.7995
32.9569 27.6992
33.143 27.3253
33.3293 27.148
33.5158 26.8504
33.7022 26.3098
33.8887 25.8949
34.0753 25.6653
34.262 25.3001
34.4488 24.9575
34.6357 24.6864
34.8227 24.3799
35.0098 24.187
35.1969 23.8838
35.3842 23.633
35.5716 23.4462
35.759 23.2334
35.9468 22.8225
36.1345 22.595
36.3222 22.3268
36.5101 22.1397
36.6981 21.8349
36.8861 21.616
37.0743 21.2256
37.2626 20.9935
37.451 20.7635
37.6395 20.5806
37.8281 20.256
38.0168 19.9438
38.2056 19.66
38.3945 19.4303
38.5837 19.1649
38.7728 18.9304
38.9621 18.7215
39.1514 18.509
39.3409 18.2438
39.5304 18.0942
39.7201 17.7869
39.9099 17.6185
40.0999 17.3867
40.2899 17.1462
40.48 16.905
40.6703 16.6957
40.8607 16.5416
41.0512 16.3163
41.242 16.1087
41.4327 15.8616
41.6236 15.6581
41.8146 15.4258
42.0057 15.3057
42.1969 15.0596
42.3882 14.8815
42.5797 14.6754
42.7713 14.4788
42.963 14.1988
43.1549 14.0142
43.3468 13.8348
43.5389 13.6881
43.7312 13.4839
43.9237 13.3209
44.1162 13.107
44.3088 12.9382
44.5016 12.7438
44.6945 12.5724
44.8875 12.4281
45.0806 12.2411
45.2739 12.0281
45.4673 11.9314
45.6609 11.7494
45.8546 11.5284
46.0484 11.4223
46.2424 11.2125
46.4365 11.0639
46.631 10.9075
46.8254 10.7525
47.0199 10.5815
47.2146 10.4589
47.4095 10.3142
47.6044 10.1232
47.7996 9.9984
47.9948 9.82395
48.1902 9.6737
48.3858 9.53072
48.5815 9.42303
48.7774 9.30361
48.9734 9.14058
49.1696 9.03991
49.3661 8.87096
49.5626 8.75049
49.7592 8.59031
49.956 8.46748
50.153 8.35795
50.3501 8.23765
50.5474 8.1261
50.7448 7.98605
50.9424 7.86532
51.1402 7.73682
51.3381 7.60062
51.5362 7.45937
51.7344 7.35782
51.9328 7.2008
52.1316 7.09237
52.3304 7.02179
52.5293 6.8582
52.7284 6.78926
52.9276 6.65264
53.1271 6.53452
53.3267 6.45236
53.5265 6.36428
53.7264 6.19405
53.9266 6.12606
54.1269 5.91205
54.3274 5.83134
54.528 5.65807
54.7289 5.47817
54.9301 5.29648
55.1314 5.13797
55.3328 4.94564
55.5344 4.77277
55.7361 4.6268