File: XRD/Ni3Fe_FD0479.xy
TT I
1.27165 7.87426
1.45013 6.08144
1.62863 5.59531
1.80712 5.2884
1.98562 4.35851
2.16411 4.61142
2.34263 5.15463
2.52115 6.52559
2.69965 7.69275
2.87818 8.62447
3.05672 10.9051
3.23527 15.1731
3.4138 19.0238
3.59237 23.1145
3.77094 26.2853
3.9495 29.9703
4.12809 34.7614
4.30669 111.879
4.4853 55.0382
4.6639 56.4717
4.84253 69.1089
5.02118 89.926
5.19981 536.71
5.37848 208.198
5.55716 105.026
5.73586 95.0656
5.91455 99.4884
6.09328 4250.95
6.27201 83.3222
6.45075 69.3456
6.62952 63.564
6.8083 59.3258
6.98711 56.3671
7.16591 56.0811
7.34475 69.951
7.5236 55.1143
7.70247 57.014
7.88135 58.3367
8.06026 63.3087
8.23919 70.8921
8.41812 86.5605
8.59709 1240.18
8.77609 101.528
8.9551 90.5951
9.13412 83.6837
9.31318 85.1491
9.49226 86.4677
9.67134 96.0967
9.85047 102.698
10.0296 413.393
10.2088 403.795
10.388 108.287
10.5672 500.143
10.7465 87.9706
10.9257 78.775
11.105 72.6338
11.2844 69.6302
11.4637 65.9284
11.6431 64.6012
11.8225 63.5271
12.002 65.8114
12.1814 156.12
12.3609 68.5632
12.5405 65.4931
12.72 69.4694
12.8996 72.4206
13.0792 82.1664
13.2589 252.115
13.4386 125.154
13.6183 255.576
13.7981 97.5848
13.9779 76.9358
14.1577 73.2528
14.3376 71.307
14.5175 70.2128
14.6974 71.9429
14.8774 118.612
15.0574 148.599
15.2374 70.8281
15.4175 67.7827
15.5976 67.0441
15.7778 101.519
15.958 154.517
16.1382 62.5453
16.3185 58.8022
16.4988 56.396
16.6792 55.5837
16.8596 55.8611
17.04 57.245
17.2205 68.7119
17.401 71.505
17.5815 59.9857
17.7622 62.5552
17.9428 77.2103
18.1237 140.611
18.3044 92.2978
18.4852 77.8928
18.666 61.3241
18.8469 58.8779
19.0278 57.6527
19.2088 60.7618
19.3898 76.5872
19.5709 54.9631
19.752 54.1807
19.9332 57.8946
20.1144 70.7681
20.2957 64.2682
20.477 54.0992
20.6586 50.3958
20.84 49.6168
21.0215 49.3116
21.203 51.5667
21.3846 49.6904
21.5662 49.9739
21.7479 54.0486
21.9297 65.5272
22.1115 56.5253
22.2933 50.6328
22.4753 49.5573
22.6572 49.8963
22.8393 53.129
23.0214 57.9898
23.2037 49.5026
23.3859 50.744
23.5682 57.3038
23.7505 48.9735
23.9329 45.9332
24.1154 44.8552
24.2979 43.9416
24.4805 43.5116
24.6631 43.4058
24.8458 42.8056
25.0286 43.7799
25.2114 45.3725
25.3943 45.0941
25.5773 41.5878
25.7605 41.0975
25.9436 41.6082
26.1268 42.283
26.31 40.812
26.4933 41.4697
26.6767 42.7498
26.8601 41.0779
27.0437 39.5273
27.2272 39.0391
27.4109 38.8526
27.5946 39.0412
27.7784 38.4963
27.9623 38.9609
28.1462 39.4259
28.3304 37.6027
28.5145 36.4401
28.6987 36.1926
28.8829 35.9428
29.0673 35.1513
29.2517 34.7588
29.4361 34.6594
29.6207 33.6678
29.8053 33.3944
29.99 33.0652
30.1748 32.8483
30.3597 32.7724
30.5447 32.6355
30.7297 32.6663
30.915 32.255
31.1002 31.5381
31.2855 31.3284
31.4708 31.309
31.6563 30.8085
31.8418 30.5254
32.0275 30.3589
32.2132 29.8372
32.399 29.3802
32.5848 28.9336
32.7708 28.6032
32.9569 28.4219
33.143 28.2609
33.3293 27.8184
33.5158 27.4242
33.7022 26.8446
33.8887 26.7502
34.0753 26.4633
34.262 26.043
34.4488 25.7002
34.6357 25.324
34.8227 24.9943
35.0098 24.9248
35.1969 24.5024
35.3842 24.3599
35.5716 24.0858
35.759 23.8056
35.9468 23.4848
36.1345 23.1992
36.3222 23.0201
36.5101 22.7891
36.6981 22.4788
36.8861 22.1717
37.0743 21.8589
37.2626 21.5798
37.451 21.267
37.6395 21.1135
37.8281 20.7167
38.0168 20.45
38.2056 20.2374
38.3945 19.8822
38.5837 19.7316
38.7728 19.4945
38.9621 19.2593
39.1514 18.9834
39.3409 18.7525
39.5304 18.5136
39.7201 18.3489
39.9099 18.1557
40.0999 17.8545
40.2899 17.5798
40.48 17.2999
40.6703 17.1462
40.8607 16.9579
41.0512 16.7289
41.242 16.498
41.4327 16.3079
41.6236 16.0113
41.8146 15.8581
42.0057 15.6589
42.1969 15.401
42.3882 15.2356
42.5797 15.0448
42.7713 14.8385
42.963 14.6236
43.1549 14.4281
43.3468 14.1905
43.5389 13.9896
43.7312 13.7923
43.9237 13.6716
44.1162 13.4177
44.3088 13.3178
44.5016 13.0561
44.6945 12.888
44.8875 12.6486
45.0806 12.5688
45.2739 12.3376
45.4673 12.213
45.6609 12.005
45.8546 11.8529
46.0484 11.6884
46.2424 11.5175
46.4365 11.3562
46.631 11.1671
46.8254 10.9977
47.0199 10.8572
47.2146 10.7119
47.4095 10.5287
47.6044 10.3569
47.7996 10.2184
47.9948 10.0603
48.1902 9.92611
48.3858 9.74477
48.5815 9.63126
48.7774 9.52791
48.9734 9.33597
49.1696 9.20308
49.3661 9.0867
49.5626 8.88625
49.7592 8.82232
49.956 8.66904
50.153 8.55189
50.3501 8.39812
50.5474 8.28974
50.7448 8.15313
50.9424 8.02282
51.1402 7.89646
51.3381 7.74896
51.5362 7.64768
51.7344 7.52306
51.9328 7.3917
52.1316 7.25924
52.3304 7.19708
52.5293 7.00391
52.7284 6.92274
52.9276 6.79128
53.1271 6.6852
53.3267 6.58917
53.5265 6.48121
53.7264 6.36688
53.9266 6.23675
54.1269 6.1079
54.3274 5.95998
54.528 5.89671
54.7289 5.72829
54.9301 5.56982
55.1314 5.45705
55.3328 5.22222
55.5344 4.99575
55.7361 4.86119