File: XRD/Ni3Fe_FD0287.xy
TT I
1.27165 7.65818
1.45013 6.13093
1.62863 5.97988
1.80712 4.95599
1.98562 5.07669
2.16411 4.78014
2.34263 5.53309
2.52115 6.23128
2.69965 7.11298
2.87818 7.88069
3.05672 11.4827
3.23527 15.3234
3.4138 19.2067
3.59237 24.9952
3.77094 26.8884
3.9495 30.4872
4.12809 36.172
4.30669 264.188
4.4853 71.3197
4.6639 56.89
4.84253 69.3125
5.02118 91.2456
5.19981 505.727
5.37848 261.1
5.55716 108.114
5.73586 96.83
5.91455 101.811
6.09328 3687.45
6.27201 90.2653
6.45075 70.7316
6.62952 65.6798
6.8083 61.2652
6.98711 58.0677
7.16591 58.1618
7.34475 104.093
7.5236 56.3545
7.70247 58.3597
7.88135 59.9719
8.06026 64.6753
8.23919 72.2047
8.41812 89.393
8.59709 1032.14
8.77609 108.464
8.9551 96.7226
9.13412 84.9804
9.31318 86.0479
9.49226 87.7185
9.67134 104.33
9.85047 104.053
10.0296 395.651
10.2088 608.36
10.388 110.849
10.5672 453.21
10.7465 90.992
10.9257 81.989
11.105 74.6033
11.2844 74.0609
11.4637 67.59
11.6431 66.1964
11.8225 65.1498
12.002 66.4708
12.1814 139.424
12.3609 76.3417
12.5405 67.3648
12.72 73.8641
12.8996 73.6434
13.0792 81.787
13.2589 216.192
13.4386 150.647
13.6183 219.179
13.7981 113.344
13.9779 78.9243
14.1577 75.5993
14.3376 75.1052
14.5175 71.4229
14.6974 73.4138
14.8774 111.102
15.0574 175.571
15.2374 74.7806
15.4175 69.0215
15.5976 68.5321
15.7778 96.643
15.958 177.299
16.1382 66.1744
16.3185 61.2974
16.4988 57.821
16.6792 56.5541
16.8596 57.4182
17.04 58.1641
17.2205 67.4734
17.401 78.1993
17.5815 61.5066
17.7622 63.811
17.9428 77.9861
18.1237 137.255
18.3044 89.6966
18.4852 85.8939
18.666 62.7856
18.8469 60.2615
19.0278 59.1905
19.2088 62.3036
19.3898 78.0497
19.5709 56.7486
19.752 55.33
19.9332 58.4884
20.1144 71.5147
20.2957 64.274
20.477 57.0689
20.6586 51.6507
20.84 50.7374
21.0215 50.5585
21.203 52.3716
21.3846 51.2845
21.5662 50.619
21.7479 54.3756
21.9297 66.3387
22.1115 57.6768
22.2933 52.4319
22.4753 50.9007
22.6572 50.7784
22.8393 53.1729
23.0214 60.0799
23.2037 50.7859
23.3859 51.7094
23.5682 57.4947
23.7505 51.232
23.9329 47.0068
24.1154 45.8093
24.2979 45.2444
24.4805 44.534
24.6631 44.5298
24.8458 44.0339
25.0286 44.3997
25.2114 46.1213
25.3943 46.5892
25.5773 42.7476
25.7605 42.0768
25.9436 42.3353
26.1268 43.3137
26.31 41.756
26.4933 42.1379
26.6767 43.6264
26.8601 42.0531
27.0437 40.3982
27.2272 40.0111
27.4109 39.865
27.5946 39.8739
27.7784 39.3922
27.9623 39.6626
28.1462 40.3427
28.3304 38.7016
28.5145 37.3045
28.6987 37.0798
28.8829 36.7821
29.0673 36.0143
29.2517 35.5408
29.4361 35.5564
29.6207 34.4929
29.8053 34.2535
29.99 33.9188
30.1748 33.6347
30.3597 33.5567
30.5447 33.2691
30.7297 33.3425
30.915 32.8597
31.1002 32.2923
31.2855 32.0059
31.4708 32.0239
31.6563 31.5792
31.8418 31.2598
32.0275 31.1848
32.2132 30.595
32.399 30.0422
32.5848 29.6066
32.7708 29.2533
32.9569 29.112
33.143 28.7866
33.3293 28.4574
33.5158 28.1317
33.7022 27.6905
33.8887 27.3415
34.0753 26.9825
34.262 26.6651
34.4488 26.3052
34.6357 26.0417
34.8227 25.6745
35.0098 25.4832
35.1969 25.1082
35.3842 24.9957
35.5716 24.6811
35.759 24.3498
35.9468 23.9566
36.1345 23.7019
36.3222 23.5464
36.5101 23.292
36.6981 22.9569
36.8861 22.7618
37.0743 22.3657
37.2626 22.105
37.451 21.8596
37.6395 21.694
37.8281 21.3183
38.0168 20.9878
38.2056 20.772
38.3945 20.4687
38.5837 20.1917
38.7728 20.0257
38.9621 19.8005
39.1514 19.4271
39.3409 19.1617
39.5304 18.9667
39.7201 18.7166
39.9099 18.4977
40.0999 18.2173
40.2899 17.9705
40.48 17.7835
40.6703 17.5759
40.8607 17.4459
41.0512 17.1826
41.242 16.9137
41.4327 16.6918
41.6236 16.3956
41.8146 16.2769
42.0057 15.9788
42.1969 15.7733
42.3882 15.6133
42.5797 15.3987
42.7713 15.1837
42.963 14.984
43.1549 14.7484
43.3468 14.5186
43.5389 14.4256
43.7312 14.1677
43.9237 13.9679
44.1162 13.7975
44.3088 13.5367
44.5016 13.3987
44.6945 13.2331
44.8875 13.0733
45.0806 12.8376
45.2739 12.6757
45.4673 12.4974
45.6609 12.3129
45.8546 12.1613
46.0484 11.9744
46.2424 11.8002
46.4365 11.6613
46.631 11.4199
46.8254 11.2828
47.0199 11.0698
47.2146 10.9443
47.4095 10.7871
47.6044 10.6562
47.7996 10.459
47.9948 10.3006
48.1902 10.1436
48.3858 10.0106
48.5815 9.92875
48.7774 9.73214
48.9734 9.62916
49.1696 9.4812
49.3661 9.28825
49.5626 9.1807
49.7592 9.03113
49.956 8.91241
50.153 8.76634
50.3501 8.6071
50.5474 8.49909
50.7448 8.40339
50.9424 8.25673
51.1402 8.12192
51.3381 7.95037
51.5362 7.85761
51.7344 7.69362
51.9328 7.58956
52.1316 7.43414
52.3304 7.34673
52.5293 7.23935
52.7284 7.1018
52.9276 6.95121
53.1271 6.87758
53.3267 6.75635
53.5265 6.63372
53.7264 6.52185
53.9266 6.42379
54.1269 6.31117
54.3274 6.17338
54.528 6.01712
54.7289 5.81171
54.9301 5.706
55.1314 5.56541
55.3328 5.31936
55.5344 5.11836
55.7361 5.03211