File: XRD/Ni3Fe_FD0598.xy
TT I
1.27165 7.20125
1.45013 5.69459
1.62863 5.25897
1.80712 4.8826
1.98562 5.02032
2.16411 4.02569
2.34263 5.61583
2.52115 7.10634
2.69965 8.07172
2.87818 8.68286
3.05672 10.7677
3.23527 15.296
3.4138 18.8223
3.59237 23.0452
3.77094 26.2658
3.9495 29.3454
4.12809 34.4664
4.30669 103.013
4.4853 54.3376
4.6639 55.9881
4.84253 68.7589
5.02118 88.9747
5.19981 479.919
5.37848 203.793
5.55716 103.386
5.73586 93.9406
5.91455 97.5083
6.09328 4390.56
6.27201 82.0041
6.45075 69.5835
6.62952 63.1847
6.8083 59.4721
6.98711 56.004
7.16591 56.0519
7.34475 67.9039
7.5236 54.5271
7.70247 56.9789
7.88135 57.8615
8.06026 62.8451
8.23919 69.8059
8.41812 85.1019
8.59709 1258.8
8.77609 99.8657
8.9551 90.0117
9.13412 83.6102
9.31318 85.1438
9.49226 85.5961
9.67134 96.0558
9.85047 102.085
10.0296 382.23
10.2088 361.768
10.388 106.95
10.5672 514.402
10.7465 87.0264
10.9257 78.4012
11.105 72.0159
11.2844 68.9298
11.4637 65.0723
11.6431 63.8742
11.8225 63.1218
12.002 65.3195
12.1814 156.832
12.3609 67.355
12.5405 65.6444
12.72 68.6536
12.8996 72.0652
13.0792 81.4191
13.2589 253.676
13.4386 122.124
13.6183 255.971
13.7981 96.6015
13.9779 76.3815
14.1577 72.3626
14.3376 70.8451
14.5175 69.4543
14.6974 71.2982
14.8774 116.84
15.0574 143.512
15.2374 70.3641
15.4175 66.9479
15.5976 66.8407
15.7778 99.7651
15.958 149.607
16.1382 61.6944
16.3185 58.3108
16.4988 55.8597
16.6792 54.8757
16.8596 55.2913
17.04 56.6597
17.2205 68.0847
17.401 71.2016
17.5815 59.8649
17.7622 61.9349
17.9428 75.6682
18.1237 141.594
18.3044 92.2857
18.4852 76.5812
18.666 60.8064
18.8469 58.5378
19.0278 57.1852
19.2088 60.0099
19.3898 75.9064
19.5709 54.4081
19.752 53.8217
19.9332 56.9572
20.1144 70.1124
20.2957 64.0557
20.477 53.5576
20.6586 50.0689
20.84 49.1646
21.0215 49.0028
21.203 51.2784
21.3846 49.1687
21.5662 49.4261
21.7479 53.3024
21.9297 65.1072
22.1115 56.2987
22.2933 50.0388
22.4753 48.9957
22.6572 49.3852
22.8393 52.6882
23.0214 57.4231
23.2037 49.128
23.3859 50.5615
23.5682 57.2084
23.7505 48.293
23.9329 45.5798
24.1154 44.3802
24.2979 43.6615
24.4805 43.2509
24.6631 43.0737
24.8458 42.6261
25.0286 43.2633
25.2114 44.9527
25.3943 44.7261
25.5773 41.1456
25.7605 40.6468
25.9436 41.1733
26.1268 42.0404
26.31 40.4364
26.4933 41.1202
26.6767 42.4418
26.8601 40.7098
27.0437 39.1052
27.2272 38.7622
27.4109 38.5782
27.5946 38.7691
27.7784 38.0748
27.9623 38.6605
28.1462 39.0786
28.3304 37.3816
28.5145 36.2395
28.6987 35.8402
28.8829 35.6471
29.0673 34.8559
29.2517 34.5329
29.4361 34.3484
29.6207 33.3543
29.8053 33.1557
29.99 32.7715
30.1748 32.7252
30.3597 32.4508
30.5447 32.3788
30.7297 32.4371
30.915 31.8166
31.1002 31.3714
31.2855 31.0678
31.4708 31.0762
31.6563 30.4622
31.8418 30.3783
32.0275 30.0421
32.2132 29.5654
32.399 29.0065
32.5848 28.6398
32.7708 28.316
32.9569 28.1991
33.143 27.9617
33.3293 27.5579
33.5158 27.1883
33.7022 26.7404
33.8887 26.5117
34.0753 26.1564
34.262 25.8522
34.4488 25.4197
34.6357 25.2157
34.8227 24.9025
35.0098 24.6771
35.1969 24.3183
35.3842 24.064
35.5716 23.8847
35.759 23.597
35.9468 23.2434
36.1345 23.0364
36.3222 22.7704
36.5101 22.5168
36.6981 22.255
36.8861 21.8576
37.0743 21.6491
37.2626 21.3435
37.451 21.054
37.6395 20.9
37.8281 20.5906
38.0168 20.361
38.2056 20.0833
38.3945 19.8122
38.5837 19.5263
38.7728 19.3181
38.9621 19.0057
39.1514 18.8534
39.3409 18.5757
39.5304 18.3436
39.7201 18.1556
39.9099 17.9677
40.0999 17.7203
40.2899 17.4338
40.48 17.2086
40.6703 16.9751
40.8607 16.8504
41.0512 16.5354
41.242 16.3134
41.4327 16.1005
41.6236 15.9679
41.8146 15.7208
42.0057 15.4965
42.1969 15.2939
42.3882 15.1118
42.5797 14.924
42.7713 14.7327
42.963 14.5145
43.1549 14.3285
43.3468 14.0901
43.5389 13.9402
43.7312 13.6801
43.9237 13.5385
44.1162 13.3753
44.3088 13.1086
44.5016 12.9819
44.6945 12.8188
44.8875 12.624
45.0806 12.4182
45.2739 12.2181
45.4673 12.1239
45.6609 11.8956
45.8546 11.7025
46.0484 11.5519
46.2424 11.4507
46.4365 11.2693
46.631 11.0643
46.8254 10.9114
47.0199 10.7844
47.2146 10.5778
47.4095 10.4729
47.6044 10.3636
47.7996 10.1213
47.9948 9.9621
48.1902 9.82996
48.3858 9.69448
48.5815 9.58237
48.7774 9.45635
48.9734 9.28786
49.1696 9.1487
49.3661 9.00851
49.5626 8.83935
49.7592 8.73532
49.956 8.59272
50.153 8.48162
50.3501 8.35623
50.5474 8.18501
50.7448 8.09715
50.9424 7.9453
51.1402 7.80365
51.3381 7.70127
51.5362 7.59697
51.7344 7.47003
51.9328 7.31572
52.1316 7.18836
52.3304 7.08981
52.5293 6.9642
52.7284 6.86248
52.9276 6.76448
53.1271 6.65806
53.3267 6.50396
53.5265 6.43648
53.7264 6.31416
53.9266 6.1873
54.1269 6.05656
54.3274 5.96629
54.528 5.79043
54.7289 5.64333
54.9301 5.52919
55.1314 5.39885
55.3328 5.18428
55.5344 5.01629
55.7361 4.89787