File: XRD/Ni3Fe_FD0814.xy
TT I
1.27165 7.42244
1.45013 5.76334
1.62863 5.84249
1.80712 4.78022
1.98562 4.57438
2.16411 4.80403
2.34263 5.27824
2.52115 7.59083
2.69965 8.45394
2.87818 9.07332
3.05672 11.2117
3.23527 15.0958
3.4138 18.2078
3.59237 23.1544
3.77094 25.4903
3.9495 29.5651
4.12809 34.3601
4.30669 108.193
4.4853 53.9462
4.6639 55.3265
4.84253 67.8444
5.02118 86.4296
5.19981 396.745
5.37848 190.277
5.55716 101.412
5.73586 92.2538
5.91455 94.1694
6.09328 4593.02
6.27201 79.5195
6.45075 69.0311
6.62952 62.3992
6.8083 58.9933
6.98711 55.2048
7.16591 55.7051
7.34475 68.4761
7.5236 53.9425
7.70247 56.184
7.88135 57.122
8.06026 61.9239
8.23919 68.6897
8.41812 82.9242
8.59709 1215.4
8.77609 96.7449
8.9551 89.3149
9.13412 82.2329
9.31318 83.9437
9.49226 84.3177
9.67134 94.8781
9.85047 101.161
10.0296 341.824
10.2088 346.082
10.388 104.052
10.5672 536.542
10.7465 85.2944
10.9257 77.105
11.105 70.9409
11.2844 68.0873
11.4637 64.0721
11.6431 62.8245
11.8225 62.139
12.002 63.7368
12.1814 159.915
12.3609 66.1267
12.5405 64.2525
12.72 67.2365
12.8996 70.7776
13.0792 79.9643
13.2589 247.758
13.4386 117.989
13.6183 257.925
13.7981 92.9046
13.9779 74.8685
14.1577 71.0559
14.3376 69.7487
14.5175 68.31
14.6974 69.9711
14.8774 111.686
15.0574 140.993
15.2374 68.8473
15.4175 65.5992
15.5976 65.284
15.7778 95.2789
15.958 146.341
16.1382 60.8734
16.3185 57.1537
16.4988 54.7563
16.6792 53.7208
16.8596 54.2768
17.04 55.3312
17.2205 66.7919
17.401 68.5318
17.5815 58.7755
17.7622 60.7078
17.9428 73.2002
18.1237 140.938
18.3044 91.0029
18.4852 74.0157
18.666 59.5333
18.8469 57.4975
19.0278 56.1694
19.2088 58.6095
19.3898 75.6824
19.5709 53.4501
19.752 53.033
19.9332 55.6725
20.1144 69.6772
20.2957 63.9337
20.477 52.367
20.6586 48.9959
20.84 48.3613
21.0215 48.06
21.203 50.48
21.3846 48.2826
21.5662 48.6814
21.7479 52.1489
21.9297 64.1217
22.1115 55.7727
22.2933 49.1486
22.4753 48.2226
22.6572 48.4579
22.8393 51.6702
23.0214 56.469
23.2037 48.2456
23.3859 49.1035
23.5682 57.1471
23.7505 47.2382
23.9329 44.7286
24.1154 43.5542
24.2979 42.8697
24.4805 42.3999
24.6631 42.4609
24.8458 41.7909
25.0286 42.4498
25.2114 44.1117
25.3943 44.1455
25.5773 40.5627
25.7605 40.0528
25.9436 40.5592
26.1268 41.3107
26.31 39.5845
26.4933 40.3225
26.6767 41.7169
26.8601 39.9522
27.0437 38.4042
27.2272 38.0536
27.4109 37.9271
27.5946 37.9382
27.7784 37.4954
27.9623 37.9665
28.1462 38.4169
28.3304 36.7013
28.5145 35.6485
28.6987 35.1689
28.8829 34.9771
29.0673 34.2254
29.2517 33.9782
29.4361 33.8172
29.6207 32.7772
29.8053 32.5218
29.99 32.1504
30.1748 32.0739
30.3597 31.9438
30.5447 31.8569
30.7297 31.8804
30.915 31.2485
31.1002 30.7357
31.2855 30.5901
31.4708 30.4516
31.6563 29.9858
31.8418 29.8785
32.0275 29.5329
32.2132 29.0616
32.399 28.6094
32.5848 28.2287
32.7708 27.8543
32.9569 27.661
33.143 27.4962
33.3293 27.0971
33.5158 26.7181
33.7022 26.2873
33.8887 25.9961
34.0753 25.6241
34.262 25.3864
34.4488 25.0392
34.6357 24.7444
34.8227 24.5333
35.0098 24.2897
35.1969 23.9661
35.3842 23.7169
35.5716 23.5783
35.759 23.3024
35.9468 22.8497
36.1345 22.6871
36.3222 22.4675
36.5101 22.2096
36.6981 21.8608
36.8861 21.569
37.0743 21.2776
37.2626 21.0588
37.451 20.7439
37.6395 20.6145
37.8281 20.2293
38.0168 20.014
38.2056 19.7835
38.3945 19.456
38.5837 19.2276
38.7728 18.995
38.9621 18.7585
39.1514 18.474
39.3409 18.3018
39.5304 18.0721
39.7201 17.9273
39.9099 17.6788
40.0999 17.38
40.2899 17.1692
40.48 16.8875
40.6703 16.7595
40.8607 16.5922
41.0512 16.3163
41.242 16.087
41.4327 15.9242
41.6236 15.6468
41.8146 15.4187
42.0057 15.2238
42.1969 14.9823
42.3882 14.8715
42.5797 14.6472
42.7713 14.4675
42.963 14.2914
43.1549 14.0597
43.3468 13.84
43.5389 13.6962
43.7312 13.5199
43.9237 13.3121
44.1162 13.1049
44.3088 12.9148
44.5016 12.7125
44.6945 12.5893
44.8875 12.4423
45.0806 12.2618
45.2739 12.0431
45.4673 11.9061
45.6609 11.7069
45.8546 11.581
46.0484 11.3435
46.2424 11.2156
46.4365 11.1115
46.631 10.8912
46.8254 10.7368
47.0199 10.5803
47.2146 10.4028
47.4095 10.3036
47.6044 10.1344
47.7996 9.93587
47.9948 9.82088
48.1902 9.7065
48.3858 9.52541
48.5815 9.43193
48.7774 9.3108
48.9734 9.13794
49.1696 8.99384
49.3661 8.85525
49.5626 8.68873
49.7592 8.59514
49.956 8.48905
50.153 8.37563
50.3501 8.17317
50.5474 8.07127
50.7448 8.02228
50.9424 7.84384
51.1402 7.72495
51.3381 7.571
51.5362 7.47062
51.7344 7.35546
51.9328 7.22282
52.1316 7.09899
52.3304 6.99238
52.5293 6.84035
52.7284 6.72351
52.9276 6.67978
53.1271 6.55803
53.3267 6.43158
53.5265 6.31156
53.7264 6.20539
53.9266 6.09231
54.1269 5.99249
54.3274 5.89249
54.528 5.75627
54.7289 5.61061
54.9301 5.39901
55.1314 5.3
55.3328 5.1106
55.5344 4.91243
55.7361 4.76576