File: XRD/Ni3Fe_FD0340.xy
TT I
1.27165 7.68889
1.45013 6.05578
1.62863 5.12867
1.80712 4.79885
1.98562 4.64447
2.16411 4.51074
2.34263 4.62259
2.52115 6.09751
2.69965 7.39328
2.87818 8.09572
3.05672 10.7069
3.23527 15.012
3.4138 18.9364
3.59237 24.0876
3.77094 26.5967
3.9495 30.6737
4.12809 35.5035
4.30669 149.077
4.4853 59.8019
4.6639 57.1147
4.84253 69.5999
5.02118 91.8216
5.19981 583.175
5.37848 225.629
5.55716 106.925
5.73586 96.5303
5.91455 101.332
6.09328 4072.64
6.27201 86.2358
6.45075 69.518
6.62952 64.061
6.8083 59.895
6.98711 57.1906
7.16591 56.4527
7.34475 79.546
7.5236 55.8964
7.70247 57.5713
7.88135 59.1797
8.06026 63.857
8.23919 71.8374
8.41812 88.5805
8.59709 1170.96
8.77609 104.274
8.9551 92.0991
9.13412 84.5341
9.31318 85.8022
9.49226 87.2243
9.67134 98.7078
9.85047 103.841
10.0296 434.565
10.2088 484.68
10.388 110.138
10.5672 484.915
10.7465 89.4846
10.9257 80.0315
11.105 73.9911
11.2844 71.5021
11.4637 66.5417
11.6431 65.483
11.8225 64.1811
12.002 66.1891
12.1814 149.889
12.3609 71.1723
12.5405 66.2021
12.72 70.9431
12.8996 73.2356
13.0792 83.176
13.2589 245.519
13.4386 133.327
13.6183 243.014
13.7981 102.645
13.9779 78.1975
14.1577 74.2911
14.3376 73.0304
14.5175 70.9547
14.6974 72.7139
14.8774 119.25
15.0574 155.877
15.2374 72.1514
15.4175 68.5937
15.5976 67.913
15.7778 102.286
15.958 165.02
16.1382 63.916
16.3185 59.9399
16.4988 57.1214
16.6792 55.9587
16.8596 56.76
17.04 57.8132
17.2205 69.0062
17.401 73.8317
17.5815 61.154
17.7622 63.2578
17.9428 78.8145
18.1237 140.203
18.3044 91.8229
18.4852 80.3062
18.666 62.1674
18.8469 59.817
19.0278 58.5916
19.2088 62.0682
19.3898 77.1452
19.5709 55.9572
19.752 54.9672
19.9332 58.5569
20.1144 71.3579
20.2957 64.3481
20.477 55.4394
20.6586 51.3121
20.84 50.3743
21.0215 50.0877
21.203 52.1299
21.3846 50.657
21.5662 50.5436
21.7479 54.7316
21.9297 66.2665
22.1115 57.4138
22.2933 51.5396
22.4753 50.1534
22.6572 50.7544
22.8393 53.7039
23.0214 58.9624
23.2037 50.5606
23.3859 51.6206
23.5682 57.6658
23.7505 49.8718
23.9329 46.5646
24.1154 45.4146
24.2979 44.7962
24.4805 44.3452
24.6631 44.2701
24.8458 43.5262
25.0286 44.2612
25.2114 45.9095
25.3943 46.0046
25.5773 42.1017
25.7605 41.7905
25.9436 42.1036
26.1268 42.7584
26.31 41.4155
26.4933 42.0392
26.6767 43.358
26.8601 41.6928
27.0437 40.0789
27.2272 39.6068
27.4109 39.5365
27.5946 39.6126
27.7784 39.0254
27.9623 39.628
28.1462 39.9832
28.3304 38.4136
28.5145 36.9073
28.6987 36.6119
28.8829 36.4266
29.0673 35.7676
29.2517 35.2441
29.4361 35.1141
29.6207 34.0953
29.8053 33.881
29.99 33.4194
30.1748 33.4042
30.3597 33.2773
30.5447 33.0344
30.7297 33.2479
30.915 32.4904
31.1002 32.034
31.2855 31.7608
31.4708 31.7258
31.6563 31.3793
31.8418 31.0635
32.0275 30.7535
32.2132 30.2345
32.399 29.7442
32.5848 29.3495
32.7708 28.9456
32.9569 28.8407
33.143 28.6018
33.3293 28.1528
33.5158 27.7903
33.7022 27.419
33.8887 27.0285
34.0753 26.7508
34.262 26.352
34.4488 26.051
34.6357 25.6631
34.8227 25.4628
35.0098 25.2177
35.1969 24.9022
35.3842 24.7437
35.5716 24.5171
35.759 24.1292
35.9468 23.7766
36.1345 23.5707
36.3222 23.317
36.5101 23.0421
36.6981 22.7414
36.8861 22.4402
37.0743 22.0776
37.2626 21.9133
37.451 21.5757
37.6395 21.4025
37.8281 21.0859
38.0168 20.8378
38.2056 20.536
38.3945 20.1982
38.5837 20.0178
38.7728 19.7703
38.9621 19.4721
39.1514 19.2428
39.3409 18.996
39.5304 18.8454
39.7201 18.6018
39.9099 18.3067
40.0999 18.1212
40.2899 17.8883
40.48 17.6418
40.6703 17.4643
40.8607 17.2114
41.0512 17.0478
41.242 16.6713
41.4327 16.5513
41.6236 16.2906
41.8146 16.11
42.0057 15.8479
42.1969 15.6727
42.3882 15.4168
42.5797 15.2261
42.7713 15.0133
42.963 14.8241
43.1549 14.6308
43.3468 14.3949
43.5389 14.2245
43.7312 13.9873
43.9237 13.8296
44.1162 13.6883
44.3088 13.4491
44.5016 13.2304
44.6945 13.0744
44.8875 12.9347
45.0806 12.7276
45.2739 12.5531
45.4673 12.3452
45.6609 12.1687
45.8546 12.038
46.0484 11.8694
46.2424 11.675
46.4365 11.5161
46.631 11.3224
46.8254 11.1977
47.0199 11.0131
47.2146 10.8382
47.4095 10.6554
47.6044 10.5182
47.7996 10.3623
47.9948 10.2433
48.1902 10.0469
48.3858 9.94855
48.5815 9.84667
48.7774 9.6401
48.9734 9.54008
49.1696 9.3524
49.3661 9.19858
49.5626 9.06527
49.7592 8.94083
49.956 8.79992
50.153 8.62898
50.3501 8.56026
50.5474 8.42268
50.7448 8.26338
50.9424 8.16134
51.1402 8.03409
51.3381 7.85239
51.5362 7.77556
51.7344 7.61291
51.9328 7.47952
52.1316 7.35301
52.3304 7.27483
52.5293 7.11595
52.7284 7.03307
52.9276 6.87562
53.1271 6.78791
53.3267 6.69969
53.5265 6.54857
53.7264 6.4316
53.9266 6.30734
54.1269 6.26079
54.3274 6.09713
54.528 5.9509
54.7289 5.83956
54.9301 5.65474
55.1314 5.51187
55.3328 5.27147
55.5344 5.10776
55.7361 4.94928