File: XRD/Ni3Fe_FD0607.xy
TT I
1.27165 7.72624
1.45013 6.51023
1.62863 5.29924
1.80712 4.96167
1.98562 4.91693
2.16411 4.91428
2.34263 5.90796
2.52115 6.32327
2.69965 8.52861
2.87818 9.02374
3.05672 11.0329
3.23527 15.4006
3.4138 18.8865
3.59237 23.2773
3.77094 26.1039
3.9495 29.9525
4.12809 34.4251
4.30669 169.523
4.4853 61.1054
4.6639 55.7809
4.84253 67.8561
5.02118 87.8745
5.19981 381.634
5.37848 196.271
5.55716 103.883
5.73586 93.4297
5.91455 95.9205
6.09328 4284.06
6.27201 83.2732
6.45075 67.7765
6.62952 63.0594
6.8083 59.1329
6.98711 55.8773
7.16591 55.5935
7.34475 82.048
7.5236 55.1965
7.70247 56.5834
7.88135 58.1777
8.06026 62.7135
8.23919 69.7445
8.41812 85.7661
8.59709 1224.83
8.77609 100.558
8.9551 90.5064
9.13412 82.6853
9.31318 83.4648
9.49226 85.4007
9.67134 97.3074
9.85047 101.088
10.0296 360.713
10.2088 415.451
10.388 105.217
10.5672 504.974
10.7465 87.2557
10.9257 78.7386
11.105 72.2162
11.2844 70.1326
11.4637 65.4822
11.6431 64.0849
11.8225 63.0058
12.002 63.9477
12.1814 154.325
12.3609 70.1688
12.5405 64.695
12.72 69.5095
12.8996 71.4039
13.0792 79.5891
13.2589 248.096
13.4386 128.94
13.6183 252.246
13.7981 100.71
13.9779 76.486
14.1577 72.8606
14.3376 71.8451
14.5175 69.3705
14.6974 70.9708
14.8774 113.961
15.0574 151.038
15.2374 71.1582
15.4175 66.8366
15.5976 66.294
15.7778 97.5504
15.958 154.839
16.1382 62.6321
16.3185 58.9573
16.4988 56.0176
16.6792 55.0557
16.8596 55.5471
17.04 56.4021
17.2205 67.555
17.401 72.7194
17.5815 59.6979
17.7622 61.6709
17.9428 74.6759
18.1237 137.848
18.3044 92.0783
18.4852 79.4438
18.666 61.1059
18.8469 58.2486
19.0278 57.2826
19.2088 60.0413
19.3898 75.9603
19.5709 54.8201
19.752 53.8053
19.9332 56.9212
20.1144 69.5239
20.2957 63.9953
20.477 54.1764
20.6586 50.0258
20.84 49.2375
21.0215 48.9724
21.203 51.1257
21.3846 49.442
21.5662 49.0947
21.7479 53.1626
21.9297 64.3664
22.1115 56.329
22.2933 50.253
22.4753 49.2005
22.6572 49.2833
22.8393 52.426
23.0214 57.285
23.2037 49.0852
23.3859 50.2149
23.5682 56.8932
23.7505 48.9983
23.9329 45.5147
24.1154 44.3984
24.2979 43.7608
24.4805 43.2967
24.6631 43.1053
24.8458 42.3779
25.0286 43.1774
25.2114 45.1306
25.3943 44.7532
25.5773 41.2132
25.7605 40.6593
25.9436 41.1456
26.1268 41.9696
26.31 40.3209
26.4933 41.0197
26.6767 42.3772
26.8601 40.7388
27.0437 39.0875
27.2272 38.7543
27.4109 38.8544
27.5946 38.6326
27.7784 38.1374
27.9623 38.7091
28.1462 39.1066
28.3304 37.371
28.5145 36.28
28.6987 35.8974
28.8829 35.5958
29.0673 34.8933
29.2517 34.5489
29.4361 34.3642
29.6207 33.4719
29.8053 33.0317
29.99 32.7761
30.1748 32.6072
30.3597 32.4741
30.5447 32.4817
30.7297 32.3911
30.915 31.7505
31.1002 31.3378
31.2855 31.1554
31.4708 30.9725
31.6563 30.5678
31.8418 30.4203
32.0275 30.2404
32.2132 29.6411
32.399 29.1786
32.5848 28.7088
32.7708 28.3575
32.9569 28.191
33.143 28.0353
33.3293 27.5855
33.5158 27.1628
33.7022 26.8858
33.8887 26.5225
34.0753 26.2625
34.262 25.796
34.4488 25.448
34.6357 25.1085
34.8227 24.8887
35.0098 24.6103
35.1969 24.4006
35.3842 24.1781
35.5716 23.9785
35.759 23.684
35.9468 23.296
36.1345 22.9863
36.3222 22.8389
36.5101 22.6883
36.6981 22.2922
36.8861 22.0181
37.0743 21.6663
37.2626 21.4425
37.451 21.123
37.6395 20.9602
37.8281 20.5962
38.0168 20.3499
38.2056 20.116
38.3945 19.7611
38.5837 19.5569
38.7728 19.3269
38.9621 19.0471
39.1514 18.8595
39.3409 18.5591
39.5304 18.3902
39.7201 18.1589
39.9099 17.9507
40.0999 17.6975
40.2899 17.5452
40.48 17.2583
40.6703 17.0294
40.8607 16.8718
41.0512 16.6122
41.242 16.3352
41.4327 16.1581
41.6236 15.9598
41.8146 15.7719
42.0057 15.5202
42.1969 15.319
42.3882 15.1217
42.5797 14.9214
42.7713 14.737
42.963 14.4775
43.1549 14.3147
43.3468 14.1161
43.5389 13.9344
43.7312 13.7549
43.9237 13.5759
44.1162 13.3693
44.3088 13.1889
44.5016 13.0224
44.6945 12.7943
44.8875 12.6316
45.0806 12.4255
45.2739 12.2887
45.4673 12.1088
45.6609 11.9117
45.8546 11.7698
46.0484 11.6033
46.2424 11.4266
46.4365 11.3044
46.631 11.0953
46.8254 10.9281
47.0199 10.7666
47.2146 10.6593
47.4095 10.4762
47.6044 10.3176
47.7996 10.1621
47.9948 10.0072
48.1902 9.87243
48.3858 9.7543
48.5815 9.56391
48.7774 9.46423
48.9734 9.31922
49.1696 9.16166
49.3661 9.03448
49.5626 8.86823
49.7592 8.75632
49.956 8.65096
50.153 8.49617
50.3501 8.35118
50.5474 8.24955
50.7448 8.11595
50.9424 7.97941
51.1402 7.84202
51.3381 7.70708
51.5362 7.61325
51.7344 7.49883
51.9328 7.33499
52.1316 7.18579
52.3304 7.10771
52.5293 6.9788
52.7284 6.91071
52.9276 6.80134
53.1271 6.65275
53.3267 6.5359
53.5265 6.4251
53.7264 6.31041
53.9266 6.18363
54.1269 6.08818
54.3274 6.00198
54.528 5.7893
54.7289 5.66972
54.9301 5.50544
55.1314 5.34476
55.3328 5.15133
55.5344 4.96825
55.7361 4.80309