File: XRD/Ni3Fe_FD1014.xy
TT I
1.27165 6.87458
1.45013 5.56579
1.62863 4.91526
1.80712 4.62349
1.98562 4.38637
2.16411 4.29069
2.34263 5.54497
2.52115 7.58603
2.69965 8.86196
2.87818 8.96552
3.05672 10.9801
3.23527 14.8841
3.4138 18.4382
3.59237 21.119
3.77094 24.6522
3.9495 28.0483
4.12809 32.3067
4.30669 60.35
4.4853 46.3535
4.6639 51.9766
4.84253 63.521
5.02118 81.828
5.19981 222.387
5.37848 248.474
5.55716 96.6197
5.73586 86.5779
5.91455 87.6361
6.09328 4352.21
6.27201 75.0564
6.45075 62.5764
6.62952 57.6628
6.8083 53.9474
6.98711 52.3585
7.16591 51.4353
7.34475 56.6929
7.5236 64.0388
7.70247 52.5584
7.88135 53.922
8.06026 58.2527
8.23919 64.8766
8.41812 76.5594
8.59709 1031.0
8.77609 94.2429
8.9551 81.4743
9.13412 78.7343
9.31318 97.1786
9.49226 79.9318
9.67134 85.1841
9.85047 92.3086
10.0296 301.3
10.2088 467.142
10.388 96.3291
10.5672 491.989
10.7465 88.1396
10.9257 72.6559
11.105 67.4694
11.2844 64.1465
11.4637 61.3028
11.6431 59.7224
11.8225 58.8237
12.002 70.6111
12.1814 140.769
12.3609 63.9172
12.5405 60.4342
12.72 63.1335
12.8996 66.7547
13.0792 75.7712
13.2589 214.392
13.4386 126.741
13.6183 225.629
13.7981 99.5285
13.9779 72.4773
14.1577 79.3436
14.3376 66.3552
14.5175 65.4302
14.6974 66.2059
14.8774 102.825
15.0574 158.387
15.2374 65.8099
15.4175 62.9449
15.5976 62.4545
15.7778 88.4595
15.958 172.335
16.1382 59.8417
16.3185 54.9236
16.4988 52.6262
16.6792 51.7065
16.8596 52.2886
17.04 53.0412
17.2205 62.938
17.401 71.3557
17.5815 56.2899
17.7622 59.6014
17.9428 70.0049
18.1237 140.502
18.3044 86.8192
18.4852 77.9862
18.666 58.0667
18.8469 55.6344
19.0278 54.1858
19.2088 56.6697
19.3898 76.0644
19.5709 52.1737
19.752 50.9048
19.9332 53.7548
20.1144 69.4559
20.2957 62.3805
20.477 52.3053
20.6586 47.5854
20.84 47.4317
21.0215 46.5235
21.203 48.724
21.3846 47.1974
21.5662 46.7663
21.7479 50.3754
21.9297 64.3781
22.1115 55.3423
22.2933 48.2993
22.4753 46.6926
22.6572 46.7829
22.8393 50.2807
23.0214 56.7862
23.2037 47.1114
23.3859 48.2204
23.5682 56.3521
23.7505 47.5173
23.9329 43.5485
24.1154 42.447
24.2979 41.6606
24.4805 41.3423
24.6631 41.5445
24.8458 40.6716
25.0286 41.325
25.2114 43.542
25.3943 43.8208
25.5773 39.6538
25.7605 39.0442
25.9436 39.3562
26.1268 40.7488
26.31 38.7445
26.4933 39.3133
26.6767 41.2541
26.8601 39.5691
27.0437 37.8168
27.2272 37.3348
27.4109 37.1899
27.5946 37.3692
27.7784 36.7019
27.9623 37.2956
28.1462 38.078
28.3304 36.2842
28.5145 34.8224
28.6987 34.4768
28.8829 34.3525
29.0673 33.5566
29.2517 33.1491
29.4361 33.1327
29.6207 32.1689
29.8053 31.7934
29.99 31.6076
30.1748 31.4958
30.3597 31.1649
30.5447 31.1558
30.7297 31.3593
30.915 30.709
31.1002 30.1657
31.2855 29.8761
31.4708 29.9764
31.6563 29.492
31.8418 29.2396
32.0275 29.1085
32.2132 28.5431
32.399 28.009
32.5848 27.6347
32.7708 27.3212
32.9569 27.2016
33.143 27.01
33.3293 26.6961
33.5158 26.2875
33.7022 25.7446
33.8887 25.5867
34.0753 25.1784
34.262 24.8444
34.4488 24.5393
34.6357 24.1566
34.8227 23.9917
35.0098 23.691
35.1969 23.5009
35.3842 23.275
35.5716 23.1277
35.759 22.779
35.9468 22.386
36.1345 22.2336
36.3222 21.9879
36.5101 21.7226
36.6981 21.4326
36.8861 21.1215
37.0743 20.8913
37.2626 20.6609
37.451 20.3383
37.6395 20.2157
37.8281 19.88
38.0168 19.5651
38.2056 19.3421
38.3945 19.0739
38.5837 18.8568
38.7728 18.6764
38.9621 18.425
39.1514 18.158
39.3409 17.8836
39.5304 17.6457
39.7201 17.5118
39.9099 17.3325
40.0999 17.0705
40.2899 16.8895
40.48 16.6326
40.6703 16.4512
40.8607 16.3159
41.0512 16.0148
41.242 15.7538
41.4327 15.6084
41.6236 15.3529
41.8146 15.1594
42.0057 14.9756
42.1969 14.7992
42.3882 14.6578
42.5797 14.3691
42.7713 14.1668
42.963 14.0244
43.1549 13.7967
43.3468 13.6118
43.5389 13.4674
43.7312 13.2054
43.9237 13.0523
44.1162 12.8691
44.3088 12.7038
44.5016 12.4901
44.6945 12.3711
44.8875 12.1922
45.0806 12.0
45.2739 11.8191
45.4673 11.6857
45.6609 11.4999
45.8546 11.381
46.0484 11.2006
46.2424 11.0336
46.4365 10.9033
46.631 10.6946
46.8254 10.5494
47.0199 10.3833
47.2146 10.2683
47.4095 10.0769
47.6044 9.9322
47.7996 9.7583
47.9948 9.63979
48.1902 9.50417
48.3858 9.36848
48.5815 9.28498
48.7774 9.07632
48.9734 8.95326
49.1696 8.84059
49.3661 8.71787
49.5626 8.52882
49.7592 8.43309
49.956 8.3541
50.153 8.17196
50.3501 8.03105
50.5474 7.96462
50.7448 7.80131
50.9424 7.67191
51.1402 7.5979
51.3381 7.44994
51.5362 7.3307
51.7344 7.19431
51.9328 7.12761
52.1316 6.94144
52.3304 6.87251
52.5293 6.72391
52.7284 6.66827
52.9276 6.51987
53.1271 6.44422
53.3267 6.29824
53.5265 6.20948
53.7264 6.09532
53.9266 6.00635
54.1269 5.91534
54.3274 5.81461
54.528 5.64924
54.7289 5.49996
54.9301 5.31316
55.1314 5.26101
55.3328 4.99942
55.5344 4.81627
55.7361 4.65333