File: XRD/Ni3Fe_FD0091.xy
TT I
1.27165 9.06381
1.45013 7.47623
1.62863 5.91521
1.80712 5.84098
1.98562 5.62317
2.16411 5.59126
2.34263 4.67059
2.52115 3.8125
2.69965 4.62023
2.87818 7.68358
3.05672 10.7902
3.23527 14.8549
3.4138 18.7116
3.59237 21.0572
3.77094 24.3065
3.9495 27.9416
4.12809 32.2313
4.30669 38.0863
4.4853 44.5218
4.6639 53.1996
4.84253 66.1428
5.02118 95.897
5.19981 723.598
5.37848 857.555
5.55716 115.132
5.73586 99.7433
5.91455 116.415
6.09328 1905.85
6.27201 101.687
6.45075 67.7668
6.62952 59.3753
6.8083 55.0312
6.98711 52.6335
7.16591 51.97
7.34475 51.3525
7.5236 61.8835
7.70247 53.163
7.88135 55.2022
8.06026 59.5235
8.23919 67.1442
8.41812 85.2114
8.59709 699.982
8.77609 138.72
8.9551 85.6826
9.13412 81.251
9.31318 104.229
9.49226 82.539
9.67134 87.6148
9.85047 98.5727
10.0296 606.132
10.2088 1302.47
10.388 106.768
10.5672 231.679
10.7465 99.4805
10.9257 74.9199
11.105 69.0856
11.2844 64.8932
11.4637 62.2871
11.6431 60.8796
11.8225 60.2951
12.002 73.9607
12.1814 98.4099
12.3609 85.681
12.5405 62.216
12.72 63.991
12.8996 68.406
13.0792 79.3641
13.2589 175.949
13.4386 278.109
13.6183 157.873
13.7981 202.309
13.9779 75.4536
14.1577 80.0727
14.3376 68.136
14.5175 67.2696
14.6974 68.5276
14.8774 119.919
15.0574 207.976
15.2374 68.807
15.4175 64.9445
15.5976 64.6686
15.7778 108.052
15.958 169.578
16.1382 63.3183
16.3185 56.372
16.4988 53.8627
16.6792 52.943
16.8596 53.3733
17.04 54.6651
17.2205 62.7018
17.401 80.998
17.5815 57.9573
17.7622 60.6861
17.9428 85.7969
18.1237 93.7441
18.3044 88.2146
18.4852 101.768
18.666 60.2901
18.8469 57.433
19.0278 55.9116
19.2088 61.4217
19.3898 63.6491
19.5709 58.0592
19.752 52.5168
19.9332 57.7748
20.1144 61.9393
20.2957 59.343
20.477 61.9418
20.6586 48.9724
20.84 48.4835
21.0215 48.2449
21.203 48.1845
21.3846 50.3264
21.5662 48.0084
21.7479 53.2102
21.9297 57.0336
22.1115 56.2991
22.2933 53.4785
22.4753 48.0073
22.6572 48.1172
22.8393 50.6612
23.0214 53.3995
23.2037 49.878
23.3859 51.3603
23.5682 50.076
23.7505 55.386
23.9329 44.9526
24.1154 43.6369
24.2979 42.9023
24.4805 42.1362
24.6631 42.3946
24.8458 41.7346
25.0286 42.1179
25.2114 43.0736
25.3943 43.2937
25.5773 41.7254
25.7605 40.1246
25.9436 40.2276
26.1268 40.2632
26.31 40.6424
26.4933 39.9429
26.6767 40.495
26.8601 40.9141
27.0437 39.1351
27.2272 38.1912
27.4109 37.7803
27.5946 37.8054
27.7784 38.1392
27.9623 37.5718
28.1462 38.2323
28.3304 37.3911
28.5145 35.8575
28.6987 35.2769
28.8829 34.724
29.0673 34.6502
29.2517 33.807
29.4361 33.4755
29.6207 33.1133
29.8053 32.4129
29.99 32.1693
30.1748 31.8391
30.3597 31.9388
30.5447 31.7038
30.7297 31.5199
30.915 31.5796
31.1002 30.9105
31.2855 30.4687
31.4708 30.2839
31.6563 30.3066
31.8418 29.7778
32.0275 29.5034
32.2132 29.1208
32.399 28.5924
32.5848 28.1241
32.7708 27.8094
32.9569 27.6125
33.143 27.3389
33.3293 27.0595
33.5158 26.8688
33.7022 26.2479
33.8887 25.9243
34.0753 25.6743
34.262 25.2747
34.4488 24.9165
34.6357 24.7132
34.8227 24.3056
35.0098 24.1374
35.1969 23.8282
35.3842 23.6178
35.5716 23.4093
35.759 23.1463
35.9468 22.7811
36.1345 22.5716
36.3222 22.3896
36.5101 22.0594
36.6981 21.8347
36.8861 21.5863
37.0743 21.2263
37.2626 20.986
37.451 20.7331
37.6395 20.5469
37.8281 20.2027
38.0168 19.9129
38.2056 19.6544
38.3945 19.491
38.5837 19.1385
38.7728 18.9507
38.9621 18.7706
39.1514 18.4857
39.3409 18.1437
39.5304 18.0205
39.7201 17.8117
39.9099 17.6078
40.0999 17.3994
40.2899 17.1552
40.48 16.8651
40.6703 16.7125
40.8607 16.5552
41.0512 16.3414
41.242 16.1019
41.4327 15.8659
41.6236 15.6436
41.8146 15.5406
42.0057 15.1844
42.1969 15.081
42.3882 14.8454
42.5797 14.6442
42.7713 14.4645
42.963 14.2405
43.1549 14.0452
43.3468 13.8724
43.5389 13.6898
43.7312 13.4669
43.9237 13.354
44.1162 13.0634
44.3088 13.0023
44.5016 12.7484
44.6945 12.5486
44.8875 12.4223
45.0806 12.1937
45.2739 12.0275
45.4673 11.8441
45.6609 11.7171
45.8546 11.5279
46.0484 11.3669
46.2424 11.246
46.4365 11.0888
46.631 10.8646
46.8254 10.7294
47.0199 10.5771
47.2146 10.4083
47.4095 10.2543
47.6044 10.0986
47.7996 9.96659
47.9948 9.81579
48.1902 9.66371
48.3858 9.52946
48.5815 9.41247
48.7774 9.30859
48.9734 9.12859
49.1696 8.99202
49.3661 8.87136
49.5626 8.69289
49.7592 8.59869
49.956 8.49035
50.153 8.34544
50.3501 8.2333
50.5474 8.09477
50.7448 8.00733
50.9424 7.86459
51.1402 7.75769
51.3381 7.62593
51.5362 7.51014
51.7344 7.37311
51.9328 7.2233
52.1316 7.11447
52.3304 7.02915
52.5293 6.91233
52.7284 6.76213
52.9276 6.6372
53.1271 6.57411
53.3267 6.42982
53.5265 6.31267
53.7264 6.21671
53.9266 6.07985
54.1269 5.94725
54.3274 5.84213
54.528 5.6387
54.7289 5.48836
54.9301 5.34125
55.1314 5.11945
55.3328 4.94848
55.5344 4.79737
55.7361 4.65295