File: XRD/Ni3Fe_FD0922.xy
TT I
1.27165 7.29988
1.45013 6.43512
1.62863 4.89802
1.80712 4.57392
1.98562 5.06087
2.16411 4.44091
2.34263 5.86148
2.52115 7.41237
2.69965 8.72928
2.87818 8.67499
3.05672 11.1535
3.23527 15.8268
3.4138 18.9119
3.59237 23.089
3.77094 25.5648
3.9495 29.3755
4.12809 33.7116
4.30669 106.761
4.4853 53.7014
4.6639 55.146
4.84253 67.5667
5.02118 85.8906
5.19981 367.785
5.37848 190.35
5.55716 101.318
5.73586 91.514
5.91455 93.8039
6.09328 4664.04
6.27201 79.0783
6.45075 69.1444
6.62952 62.4492
6.8083 58.5952
6.98711 54.8191
7.16591 55.3419
7.34475 67.1988
7.5236 53.5221
7.70247 55.8883
7.88135 56.7194
8.06026 61.7999
8.23919 68.3585
8.41812 82.4837
8.59709 1201.9
8.77609 95.8461
8.9551 88.9428
9.13412 81.8496
9.31318 83.793
9.49226 83.9007
9.67134 94.4444
9.85047 100.295
10.0296 330.781
10.2088 323.992
10.388 103.292
10.5672 547.028
10.7465 84.7742
10.9257 77.0419
11.105 70.1225
11.2844 67.5031
11.4637 63.7764
11.6431 62.4733
11.8225 61.7929
12.002 63.4263
12.1814 158.498
12.3609 65.7837
12.5405 63.8768
12.72 67.032
12.8996 70.3209
13.0792 78.7758
13.2589 246.214
13.4386 114.493
13.6183 257.998
13.7981 91.4457
13.9779 74.4776
14.1577 70.8388
14.3376 69.0721
14.5175 67.6085
14.6974 69.645
14.8774 109.981
15.0574 137.868
15.2374 68.5437
15.4175 65.5239
15.5976 64.8683
15.7778 93.8569
15.958 145.049
16.1382 60.3057
16.3185 56.9009
16.4988 54.4733
16.6792 53.6349
16.8596 54.006
17.04 55.1316
17.2205 65.9322
17.401 67.375
17.5815 58.0847
17.7622 60.3217
17.9428 72.3494
18.1237 139.728
18.3044 90.7943
18.4852 72.9854
18.666 59.3313
18.8469 57.0702
19.0278 55.7937
19.2088 58.2961
19.3898 74.6686
19.5709 53.1129
19.752 52.4734
19.9332 55.2386
20.1144 69.508
20.2957 64.1332
20.477 51.8792
20.6586 48.6058
20.84 48.1091
21.0215 47.9525
21.203 50.0724
21.3846 48.0677
21.5662 48.2815
21.7479 51.8806
21.9297 64.1229
22.1115 55.5726
22.2933 48.733
22.4753 47.757
22.6572 48.0927
22.8393 51.4021
23.0214 56.029
23.2037 47.9148
23.3859 48.8322
23.5682 56.9374
23.7505 47.1104
23.9329 44.3682
24.1154 43.3928
24.2979 42.6404
24.4805 42.276
24.6631 42.2181
24.8458 41.551
25.0286 42.1893
25.2114 44.0799
25.3943 43.8295
25.5773 40.1316
25.7605 39.7237
25.9436 40.2339
26.1268 41.2197
26.31 39.4507
26.4933 40.0622
26.6767 41.5422
26.8601 39.6685
27.0437 38.1891
27.2272 37.8631
27.4109 37.7542
27.5946 37.7924
27.7784 37.3476
27.9623 37.9387
28.1462 38.0377
28.3304 36.4895
28.5145 35.2574
28.6987 34.9852
28.8829 34.9949
29.0673 34.084
29.2517 33.7946
29.4361 33.4401
29.6207 32.532
29.8053 32.3988
29.99 31.976
30.1748 31.989
30.3597 31.71
30.5447 31.508
30.7297 31.8013
30.915 31.0211
31.1002 30.6069
31.2855 30.4043
31.4708 30.3707
31.6563 29.8837
31.8418 29.6838
32.0275 29.4632
32.2132 28.889
32.399 28.4604
32.5848 28.0411
32.7708 27.751
32.9569 27.5623
33.143 27.4286
33.3293 26.937
33.5158 26.5309
33.7022 26.1548
33.8887 25.8778
34.0753 25.5438
34.262 25.2
34.4488 24.8351
34.6357 24.5624
34.8227 24.2967
35.0098 24.1247
35.1969 23.7365
35.3842 23.6271
35.5716 23.3718
35.759 23.0526
35.9468 22.7926
36.1345 22.5701
36.3222 22.2991
36.5101 22.0858
36.6981 21.8138
36.8861 21.4843
37.0743 21.1989
37.2626 20.8695
37.451 20.6474
37.6395 20.5115
37.8281 20.1401
38.0168 19.8824
38.2056 19.6613
38.3945 19.3153
38.5837 19.118
38.7728 18.8558
38.9621 18.6295
39.1514 18.3718
39.3409 18.1073
39.5304 17.9453
39.7201 17.7364
39.9099 17.5358
40.0999 17.2796
40.2899 17.0322
40.48 16.7607
40.6703 16.6877
40.8607 16.4414
41.0512 16.2119
41.242 15.9928
41.4327 15.8371
41.6236 15.6132
41.8146 15.3932
42.0057 15.1735
42.1969 14.9537
42.3882 14.7747
42.5797 14.6035
42.7713 14.4015
42.963 14.1702
43.1549 13.9772
43.3468 13.7574
43.5389 13.6076
43.7312 13.4041
43.9237 13.1956
44.1162 13.042
44.3088 12.8447
44.5016 12.6901
44.6945 12.4897
44.8875 12.3037
45.0806 12.1384
45.2739 11.9794
45.4673 11.8523
45.6609 11.6426
45.8546 11.5156
46.0484 11.311
46.2424 11.1352
46.4365 11.0496
46.631 10.8177
46.8254 10.6768
47.0199 10.5428
47.2146 10.4047
47.4095 10.2215
47.6044 10.0902
47.7996 9.89815
47.9948 9.7528
48.1902 9.66081
48.3858 9.50229
48.5815 9.35426
48.7774 9.19036
48.9734 9.09067
49.1696 8.94913
49.3661 8.80954
49.5626 8.66659
49.7592 8.56717
49.956 8.4182
50.153 8.27447
50.3501 8.13712
50.5474 8.03837
50.7448 7.89815
50.9424 7.76753
51.1402 7.65644
51.3381 7.5355
51.5362 7.41637
51.7344 7.29428
51.9328 7.16732
52.1316 7.05578
52.3304 6.96876
52.5293 6.79538
52.7284 6.7384
52.9276 6.62652
53.1271 6.50785
53.3267 6.40652
53.5265 6.2897
53.7264 6.18534
53.9266 6.07039
54.1269 5.93927
54.3274 5.82475
54.528 5.74086
54.7289 5.50504
54.9301 5.44515
55.1314 5.24621
55.3328 5.09918
55.5344 4.9013
55.7361 4.74023