File: XRD/Ni3Fe_FD0785.xy
TT I
1.27165 7.12469
1.45013 6.19169
1.62863 5.59827
1.80712 5.0756
1.98562 4.83798
2.16411 4.5472
2.34263 5.40625
2.52115 7.37674
2.69965 7.94688
2.87818 8.80256
3.05672 11.4943
3.23527 14.6752
3.4138 18.9474
3.59237 23.5179
3.77094 26.0298
3.9495 29.5889
4.12809 34.7488
4.30669 164.731
4.4853 59.649
4.6639 55.2035
4.84253 66.9325
5.02118 86.3063
5.19981 347.653
5.37848 175.542
5.55716 101.276
5.73586 91.5762
5.91455 93.4044
6.09328 4516.64
6.27201 80.7296
6.45075 66.4159
6.62952 61.6335
6.8083 57.9364
6.98711 55.251
7.16591 54.4638
7.34475 80.2656
7.5236 54.1476
7.70247 55.3308
7.88135 57.2743
8.06026 61.4793
8.23919 69.0729
8.41812 83.8486
8.59709 1205.28
8.77609 97.0478
8.9551 89.0319
9.13412 80.9578
9.31318 81.7765
9.49226 83.6504
9.67134 95.0957
9.85047 98.8223
10.0296 339.814
10.2088 343.075
10.388 103.208
10.5672 533.655
10.7465 85.2708
10.9257 77.0533
11.105 70.8484
11.2844 68.9252
11.4637 64.461
11.6431 63.0206
11.8225 61.7263
12.002 62.8723
12.1814 156.824
12.3609 67.5573
12.5405 63.5458
12.72 68.3573
12.8996 70.268
13.0792 78.7843
13.2589 244.27
13.4386 116.941
13.6183 254.004
13.7981 92.4197
13.9779 75.071
14.1577 71.1867
14.3376 70.2793
14.5175 67.96
14.6974 69.7346
14.8774 110.291
15.0574 142.589
15.2374 69.4951
15.4175 65.5547
15.5976 65.0926
15.7778 93.9331
15.958 148.565
16.1382 61.4869
16.3185 57.716
16.4988 54.7576
16.6792 53.8954
16.8596 54.586
17.04 55.3723
17.2205 66.3688
17.401 68.9147
17.5815 58.6104
17.7622 60.739
17.9428 72.9746
18.1237 141.363
18.3044 90.7778
18.4852 74.3982
18.666 59.7145
18.8469 57.3567
19.0278 56.1976
19.2088 58.864
19.3898 76.0222
19.5709 53.3999
19.752 52.8005
19.9332 55.7406
20.1144 69.5281
20.2957 64.0974
20.477 52.5312
20.6586 49.0366
20.84 48.3423
21.0215 48.0371
21.203 50.6512
21.3846 48.3037
21.5662 48.3302
21.7479 52.1243
21.9297 64.1028
22.1115 55.6418
22.2933 49.2032
22.4753 48.2445
22.6572 48.3991
22.8393 51.3748
23.0214 56.2976
23.2037 48.2507
23.3859 49.1723
23.5682 57.0007
23.7505 47.4393
23.9329 44.7806
24.1154 43.5708
24.2979 42.9456
24.4805 42.4454
24.6631 42.3855
24.8458 41.8665
25.0286 42.3697
25.2114 44.4432
25.3943 44.1608
25.5773 40.4398
25.7605 39.9819
25.9436 40.4248
26.1268 41.4101
26.31 39.7751
26.4933 40.3654
26.6767 41.7321
26.8601 39.9854
27.0437 38.4567
27.2272 38.0608
27.4109 37.9975
27.5946 37.906
27.7784 37.4489
27.9623 38.1452
28.1462 38.3188
28.3304 36.6494
28.5145 35.597
28.6987 35.241
28.8829 35.0817
29.0673 34.2677
29.2517 34.0322
29.4361 33.8127
29.6207 32.7089
29.8053 32.6242
29.99 32.2353
30.1748 32.2361
30.3597 31.9186
30.5447 31.8755
30.7297 31.8879
30.915 31.3751
31.1002 30.8694
31.2855 30.551
31.4708 30.6257
31.6563 29.9653
31.8418 29.9627
32.0275 29.566
32.2132 29.0596
32.399 28.5975
32.5848 28.1985
32.7708 27.8615
32.9569 27.7463
33.143 27.5579
33.3293 27.1189
33.5158 26.7114
33.7022 26.2891
33.8887 25.9646
34.0753 25.7561
34.262 25.3966
34.4488 24.9829
34.6357 24.7329
34.8227 24.4267
35.0098 24.247
35.1969 23.986
35.3842 23.6616
35.5716 23.5403
35.759 23.2335
35.9468 22.8889
36.1345 22.6255
36.3222 22.4337
36.5101 22.1794
36.6981 21.8788
36.8861 21.6294
37.0743 21.2753
37.2626 21.0636
37.451 20.6904
37.6395 20.6048
37.8281 20.2744
38.0168 19.9494
38.2056 19.7094
38.3945 19.4874
38.5837 19.2317
38.7728 19.0153
38.9621 18.791
39.1514 18.5196
39.3409 18.2486
39.5304 18.0925
39.7201 17.8389
39.9099 17.6558
40.0999 17.3958
40.2899 17.1897
40.48 16.9297
40.6703 16.6849
40.8607 16.5781
41.0512 16.3469
41.242 16.0835
41.4327 15.9539
41.6236 15.6525
41.8146 15.5471
42.0057 15.3069
42.1969 15.0562
42.3882 14.905
42.5797 14.6829
42.7713 14.4853
42.963 14.2479
43.1549 14.0876
43.3468 13.8573
43.5389 13.7205
43.7312 13.4835
43.9237 13.3049
44.1162 13.129
44.3088 12.9721
44.5016 12.783
44.6945 12.6136
44.8875 12.4364
45.0806 12.2423
45.2739 12.0798
45.4673 11.9589
45.6609 11.7546
45.8546 11.5969
46.0484 11.4235
46.2424 11.2702
46.4365 11.0671
46.631 10.9169
46.8254 10.7888
47.0199 10.5986
47.2146 10.4541
47.4095 10.282
47.6044 10.1675
47.7996 9.97994
47.9948 9.84223
48.1902 9.67735
48.3858 9.52737
48.5815 9.43925
48.7774 9.27612
48.9734 9.17076
49.1696 9.01728
49.3661 8.81913
49.5626 8.70902
49.7592 8.6308
49.956 8.46249
50.153 8.33897
50.3501 8.23215
50.5474 8.08762
50.7448 7.96902
50.9424 7.86956
51.1402 7.76659
51.3381 7.57567
51.5362 7.47258
51.7344 7.37978
51.9328 7.2228
52.1316 7.09411
52.3304 6.99835
52.5293 6.87575
52.7284 6.71411
52.9276 6.64881
53.1271 6.55233
53.3267 6.39038
53.5265 6.36682
53.7264 6.23745
53.9266 6.11475
54.1269 5.99448
54.3274 5.84514
54.528 5.78811
54.7289 5.56155
54.9301 5.4284
55.1314 5.29231
55.3328 5.0841
55.5344 4.89937
55.7361 4.78203