File: XRD/Ni3Fe_FD0185.xy
TT I
1.27165 7.50735
1.45013 6.73666
1.62863 5.49379
1.80712 5.44809
1.98562 4.93813
2.16411 4.68699
2.34263 4.54523
2.52115 4.84536
2.69965 6.06448
2.87818 8.10436
3.05672 11.3432
3.23527 15.1901
3.4138 18.9107
3.59237 21.9173
3.77094 25.4148
3.9495 28.9641
4.12809 33.3251
4.30669 37.7359
4.4853 45.1763
4.6639 54.4066
4.84253 66.6004
5.02118 91.0511
5.19981 519.041
5.37848 411.231
5.55716 107.885
5.73586 95.8983
5.91455 104.625
6.09328 2909.86
6.27201 88.4235
6.45075 66.8394
6.62952 60.4406
6.8083 56.3533
6.98711 54.1978
7.16591 53.0064
7.34475 52.7198
7.5236 55.9879
7.70247 54.6389
7.88135 56.4296
8.06026 61.3631
8.23919 68.3141
8.41812 84.2042
8.59709 929.208
8.77609 114.618
8.9551 86.1479
9.13412 82.1357
9.31318 86.3039
9.49226 84.1231
9.67134 89.4419
9.85047 99.6523
10.0296 533.631
10.2088 929.881
10.388 104.993
10.5672 348.314
10.7465 90.5618
10.9257 76.3604
11.105 70.8911
11.2844 66.9047
11.4637 64.1946
11.6431 62.8315
11.8225 61.6063
12.002 65.3556
12.1814 122.248
12.3609 74.1307
12.5405 63.8285
12.72 65.9216
12.8996 70.3359
13.0792 79.6122
13.2589 211.04
13.4386 200.852
13.6183 200.55
13.7981 147.86
13.9779 76.6083
14.1577 74.145
14.3376 69.6667
14.5175 69.0021
14.6974 70.3315
14.8774 122.222
15.0574 204.379
15.2374 69.5996
15.4175 66.6888
15.5976 66.2608
15.7778 107.551
15.958 187.879
16.1382 62.3634
16.3185 57.9041
16.4988 55.6868
16.6792 54.4806
16.8596 54.6518
17.04 55.8381
17.2205 66.2452
17.401 81.8327
17.5815 59.5662
17.7622 62.094
17.9428 83.8753
18.1237 119.711
18.3044 89.6231
18.4852 94.4235
18.666 61.5139
18.8469 58.6605
19.0278 57.2947
19.2088 62.2576
19.3898 70.485
19.5709 56.5395
19.752 54.0139
19.9332 58.7499
20.1144 68.1509
20.2957 61.9834
20.477 58.9991
20.6586 50.3437
20.84 49.5111
21.0215 49.2985
21.203 50.301
21.3846 50.971
21.5662 49.5525
21.7479 54.5731
21.9297 63.3402
22.1115 56.974
22.2933 52.7249
22.4753 49.4665
22.6572 49.5338
22.8393 52.756
23.0214 58.3061
23.2037 50.4765
23.3859 52.2098
23.5682 54.7278
23.7505 53.4275
23.9329 46.2315
24.1154 44.8399
24.2979 44.1084
24.4805 43.5327
24.6631 43.5552
24.8458 42.9135
25.0286 43.5692
25.2114 45.3375
25.3943 45.3222
25.5773 42.2367
25.7605 41.1549
25.9436 41.434
26.1268 42.2309
26.31 41.4184
26.4933 41.4586
26.6767 42.7422
26.8601 41.7382
27.0437 39.9407
27.2272 39.3835
27.4109 39.0666
27.5946 39.1923
27.7784 38.8696
27.9623 39.0421
28.1462 39.943
28.3304 38.5261
28.5145 36.7415
28.6987 36.3751
28.8829 35.9827
29.0673 35.6746
29.2517 34.9589
29.4361 34.7743
29.6207 33.9466
29.8053 33.4617
29.99 33.1457
30.1748 33.0331
30.3597 33.051
30.5447 32.9254
30.7297 32.8116
30.915 32.4832
31.1002 31.9685
31.2855 31.5
31.4708 31.3354
31.6563 31.2479
31.8418 30.8213
32.0275 30.5682
32.2132 30.0583
32.399 29.4296
32.5848 29.0768
32.7708 28.7868
32.9569 28.5521
33.143 28.3626
33.3293 27.9797
33.5158 27.6266
33.7022 27.0826
33.8887 26.8735
34.0753 26.5866
34.262 26.0795
34.4488 25.8555
34.6357 25.4469
34.8227 25.2213
35.0098 25.0139
35.1969 24.6576
35.3842 24.4084
35.5716 24.2604
35.759 23.9464
35.9468 23.58
36.1345 23.3196
36.3222 23.1319
36.5101 22.9044
36.6981 22.6221
36.8861 22.2419
37.0743 21.9523
37.2626 21.6747
37.451 21.3951
37.6395 21.2365
37.8281 20.9011
38.0168 20.6827
38.2056 20.2362
38.3945 20.0884
38.5837 19.8624
38.7728 19.5581
38.9621 19.3017
39.1514 19.0985
39.3409 18.835
39.5304 18.6537
39.7201 18.4499
39.9099 18.1432
40.0999 17.8827
40.2899 17.6682
40.48 17.4686
40.6703 17.2748
40.8607 17.0646
41.0512 16.7678
41.242 16.5974
41.4327 16.309
41.6236 16.1314
41.8146 15.9679
42.0057 15.7513
42.1969 15.4913
42.3882 15.3464
42.5797 15.0904
42.7713 14.9201
42.963 14.6713
43.1549 14.4838
43.3468 14.2837
43.5389 14.0656
43.7312 13.9085
43.9237 13.705
44.1162 13.5248
44.3088 13.3298
44.5016 13.1362
44.6945 12.9702
44.8875 12.8158
45.0806 12.5983
45.2739 12.4316
45.4673 12.2707
45.6609 12.1006
45.8546 11.883
46.0484 11.7701
46.2424 11.5619
46.4365 11.4113
46.631 11.2279
46.8254 11.0503
47.0199 10.8675
47.2146 10.7725
47.4095 10.5736
47.6044 10.4364
47.7996 10.2687
47.9948 10.1124
48.1902 9.97623
48.3858 9.8341
48.5815 9.6651
48.7774 9.58825
48.9734 9.40616
49.1696 9.2876
49.3661 9.1219
49.5626 8.97236
49.7592 8.86649
49.956 8.73871
50.153 8.61947
50.3501 8.43253
50.5474 8.34299
50.7448 8.2449
50.9424 8.1007
51.1402 7.95374
51.3381 7.81731
51.5362 7.72232
51.7344 7.56092
51.9328 7.4164
52.1316 7.30465
52.3304 7.20828
52.5293 7.07529
52.7284 6.96033
52.9276 6.85598
53.1271 6.75968
53.3267 6.62255
53.5265 6.51003
53.7264 6.38946
53.9266 6.28472
54.1269 6.18792
54.3274 6.03406
54.528 5.85332
54.7289 5.67923
54.9301 5.53578
55.1314 5.44025
55.3328 5.15375
55.5344 4.93278
55.7361 4.84526