File: XRD/Ni3Fe_FD0998.xy
TT I
1.27165 7.19323
1.45013 5.6682
1.62863 5.22354
1.80712 4.9075
1.98562 4.19652
2.16411 4.84775
2.34263 5.60751
2.52115 7.60174
2.69965 8.40896
2.87818 8.98522
3.05672 11.2976
3.23527 15.116
3.4138 19.1418
3.59237 24.6581
3.77094 26.3372
3.9495 29.7342
4.12809 34.6822
4.30669 259.615
4.4853 69.7444
4.6639 54.2839
4.84253 65.6978
5.02118 83.7091
5.19981 266.855
5.37848 173.534
5.55716 99.3741
5.73586 89.4737
5.91455 89.6494
6.09328 4531.23
6.27201 81.2948
6.45075 66.1233
6.62952 62.2722
6.8083 58.2149
6.98711 55.2168
7.16591 54.3965
7.34475 100.862
7.5236 53.957
7.70247 55.3682
7.88135 56.9816
8.06026 61.2992
8.23919 68.0697
8.41812 83.0793
8.59709 1096.77
8.77609 96.8638
8.9551 91.3942
9.13412 80.213
9.31318 80.6746
9.49226 82.7042
9.67134 98.4485
9.85047 97.4937
10.0296 280.716
10.2088 373.033
10.388 102.25
10.5672 528.884
10.7465 84.803
10.9257 77.5642
11.105 70.2828
11.2844 69.8233
11.4637 63.9405
11.6431 62.7211
11.8225 61.3785
12.002 61.9886
12.1814 147.604
12.3609 70.4954
12.5405 63.3584
12.72 69.7238
12.8996 69.2709
13.0792 76.4137
13.2589 221.563
13.4386 121.432
13.6183 235.029
13.7981 94.7417
13.9779 74.2233
14.1577 71.2762
14.3376 70.597
14.5175 67.2521
14.6974 68.7067
14.8774 102.231
15.0574 150.166
15.2374 70.165
15.4175 64.9055
15.5976 64.2627
15.7778 88.2668
15.958 153.533
16.1382 61.9859
16.3185 57.8187
16.4988 54.3423
16.6792 53.4259
16.8596 54.2871
17.04 54.5079
17.2205 64.5319
17.401 69.0052
17.5815 57.9363
17.7622 59.7929
17.9428 69.7676
18.1237 138.828
18.3044 87.7732
18.4852 75.7695
18.666 59.0841
18.8469 56.8846
19.0278 55.7315
19.2088 57.8083
19.3898 75.721
19.5709 53.1862
19.752 52.0235
19.9332 54.4903
20.1144 69.0968
20.2957 62.8711
20.477 52.5778
20.6586 48.6906
20.84 47.848
21.0215 47.491
21.203 49.8953
21.3846 47.8759
21.5662 47.5433
21.7479 51.0575
21.9297 63.6249
22.1115 55.2594
22.2933 48.7708
22.4753 47.8298
22.6572 47.7004
22.8393 50.4895
23.0214 56.259
23.2037 47.8703
23.3859 48.4497
23.5682 56.3183
23.7505 47.4106
23.9329 44.3011
24.1154 43.2112
24.2979 42.4596
24.4805 42.1422
24.6631 41.946
24.8458 41.2448
25.0286 41.8897
25.2114 43.6469
25.3943 43.8057
25.5773 40.1118
25.7605 39.5617
25.9436 39.8941
26.1268 40.9601
26.31 39.3235
26.4933 39.8568
26.6767 41.3502
26.8601 39.7795
27.0437 38.0465
27.2272 37.8018
27.4109 37.6481
27.5946 37.7086
27.7784 37.0353
27.9623 37.5367
28.1462 38.2257
28.3304 36.4498
28.5145 35.1657
28.6987 34.8832
28.8829 34.7158
29.0673 33.9279
29.2517 33.6826
29.4361 33.4665
29.6207 32.5013
29.8053 32.2794
29.99 31.8934
30.1748 31.803
30.3597 31.5642
30.5447 31.4816
30.7297 31.541
30.915 30.9855
31.1002 30.512
31.2855 30.265
31.4708 30.2022
31.6563 29.7806
31.8418 29.5177
32.0275 29.3329
32.2132 28.8476
32.399 28.3294
32.5848 27.9103
32.7708 27.5879
32.9569 27.4172
33.143 27.2265
33.3293 26.8561
33.5158 26.3917
33.7022 26.0948
33.8887 25.8212
34.0753 25.5012
34.262 25.1935
34.4488 24.8929
34.6357 24.5639
34.8227 24.2797
35.0098 24.0584
35.1969 23.7452
35.3842 23.5074
35.5716 23.3509
35.759 22.9811
35.9468 22.6097
36.1345 22.4599
36.3222 22.202
36.5101 21.9795
36.6981 21.6771
36.8861 21.3661
37.0743 21.1232
37.2626 20.8127
37.451 20.6111
37.6395 20.3899
37.8281 20.0857
38.0168 19.8532
38.2056 19.5377
38.3945 19.2998
38.5837 19.0418
38.7728 18.9034
38.9621 18.5607
39.1514 18.3619
39.3409 18.1483
39.5304 17.9692
39.7201 17.7285
39.9099 17.5423
40.0999 17.2625
40.2899 17.007
40.48 16.8373
40.6703 16.607
40.8607 16.422
41.0512 16.1841
41.242 15.947
41.4327 15.773
41.6236 15.5687
41.8146 15.3363
42.0057 15.1229
42.1969 14.9204
42.3882 14.7952
42.5797 14.5789
42.7713 14.3585
42.963 14.1419
43.1549 14.009
43.3468 13.7649
43.5389 13.5903
43.7312 13.4095
43.9237 13.2077
44.1162 12.9791
44.3088 12.8447
44.5016 12.6286
44.6945 12.4766
44.8875 12.3229
45.0806 12.1473
45.2739 11.9678
45.4673 11.8222
45.6609 11.6485
45.8546 11.4482
46.0484 11.3088
46.2424 11.1072
46.4365 10.9787
46.631 10.8814
46.8254 10.6521
47.0199 10.5037
47.2146 10.3641
47.4095 10.1689
47.6044 10.0694
47.7996 9.90808
47.9948 9.76437
48.1902 9.60273
48.3858 9.47706
48.5815 9.37049
48.7774 9.19086
48.9734 9.07968
49.1696 8.93224
49.3661 8.78333
49.5626 8.64118
49.7592 8.56573
49.956 8.43716
50.153 8.27979
50.3501 8.14789
50.5474 8.0216
50.7448 7.94172
50.9424 7.78187
51.1402 7.64012
51.3381 7.5244
51.5362 7.44967
51.7344 7.31055
51.9328 7.17219
52.1316 7.05
52.3304 6.94725
52.5293 6.84124
52.7284 6.70279
52.9276 6.60817
53.1271 6.52893
53.3267 6.41441
53.5265 6.23832
53.7264 6.19527
53.9266 6.08564
54.1269 5.93526
54.3274 5.82536
54.528 5.68361
54.7289 5.54196
54.9301 5.36574
55.1314 5.27714
55.3328 5.03604
55.5344 4.87277
55.7361 4.69705