File: XRD/Ni3Fe_FD0142.xy
TT I
1.27165 7.99833
1.45013 6.7201
1.62863 6.11668
1.80712 5.34203
1.98562 4.57955
2.16411 4.65499
2.34263 4.03021
2.52115 4.06728
2.69965 5.61639
2.87818 7.88386
3.05672 10.8296
3.23527 14.8486
3.4138 18.6453
3.59237 21.7106
3.77094 25.0202
3.9495 28.6393
4.12809 32.3135
4.30669 37.3133
4.4853 44.8912
4.6639 53.6188
4.84253 65.6126
5.02118 90.3871
5.19981 558.133
5.37848 472.629
5.55716 107.408
5.73586 94.7272
5.91455 105.466
6.09328 2663.43
6.27201 89.2935
6.45075 66.2414
6.62952 59.5468
6.8083 55.1433
6.98711 53.0854
7.16591 51.8859
7.34475 52.086
7.5236 55.8809
7.70247 53.8475
7.88135 55.7242
8.06026 60.1224
8.23919 67.3557
8.41812 83.4878
8.59709 868.328
8.77609 117.186
8.9551 84.7815
9.13412 80.7672
9.31318 86.9288
9.49226 82.9766
9.67134 87.9796
9.85047 98.7336
10.0296 546.923
10.2088 1014.04
10.388 104.183
10.5672 324.217
10.7465 90.516
10.9257 75.312
11.105 69.804
11.2844 65.6935
11.4637 63.0689
11.6431 61.6459
11.8225 60.7261
12.002 65.3692
12.1814 116.086
12.3609 75.5799
12.5405 62.7909
12.72 64.878
12.8996 69.4771
13.0792 79.0916
13.2589 201.616
13.4386 216.198
13.6183 189.3
13.7981 155.405
13.9779 75.7389
14.1577 73.8601
14.3376 68.4255
14.5175 68.0129
14.6974 69.5029
14.8774 120.542
15.0574 204.656
15.2374 68.7855
15.4175 65.7731
15.5976 65.2706
15.7778 107.118
15.958 184.163
16.1382 61.6804
16.3185 57.0502
16.4988 54.7663
16.6792 53.7568
16.8596 54.0988
17.04 55.0148
17.2205 64.6911
17.401 80.6772
17.5815 58.6597
17.7622 60.936
17.9428 83.4421
18.1237 112.614
18.3044 87.961
18.4852 95.301
18.666 60.6467
18.8469 57.8349
19.0278 56.5378
19.2088 61.5965
19.3898 68.4329
19.5709 56.2393
19.752 53.0091
19.9332 58.014
20.1144 66.3709
20.2957 60.6816
20.477 59.2082
20.6586 49.527
20.84 48.9224
21.0215 48.6751
21.203 49.513
21.3846 50.3833
21.5662 48.6255
21.7479 53.8871
21.9297 61.5132
22.1115 56.1202
22.2933 52.4514
22.4753 48.687
22.6572 48.7177
22.8393 51.8065
23.0214 56.7863
23.2037 49.6973
23.3859 51.6083
23.5682 53.1828
23.7505 53.2694
23.9329 45.3877
24.1154 44.2549
24.2979 43.4564
24.4805 42.7965
24.6631 42.8608
24.8458 42.2994
25.0286 42.7925
25.2114 44.4166
25.3943 44.6256
25.5773 41.6187
25.7605 40.5938
25.9436 40.8367
26.1268 41.4314
26.31 40.8344
26.4933 40.7966
26.6767 41.7509
26.8601 41.2042
27.0437 39.398
27.2272 38.8013
27.4109 38.5009
27.5946 38.5902
27.7784 38.3874
27.9623 38.2054
28.1462 39.1613
28.3304 37.8454
28.5145 36.1552
28.6987 35.7413
28.8829 35.3658
29.0673 35.0747
29.2517 34.3291
29.4361 34.15
29.6207 33.4632
29.8053 32.9918
29.99 32.6974
30.1748 32.3957
30.3597 32.5749
30.5447 32.2129
30.7297 32.3044
30.915 31.9764
31.1002 31.3396
31.2855 30.9984
31.4708 30.8829
31.6563 30.7765
31.8418 30.1994
32.0275 30.1096
32.2132 29.522
32.399 29.101
32.5848 28.5189
32.7708 28.2636
32.9569 28.1487
33.143 27.8459
33.3293 27.4742
33.5158 27.2222
33.7022 26.7269
33.8887 26.3588
34.0753 26.0925
34.262 25.7359
34.4488 25.3964
34.6357 25.0619
34.8227 24.7721
35.0098 24.5193
35.1969 24.2137
35.3842 24.0255
35.5716 23.9106
35.759 23.5673
35.9468 23.1672
36.1345 22.9566
36.3222 22.7961
36.5101 22.4576
36.6981 22.2342
36.8861 21.8862
37.0743 21.5473
37.2626 21.3707
37.451 21.0988
37.6395 20.9142
37.8281 20.6184
38.0168 20.2591
38.2056 19.9935
38.3945 19.7868
38.5837 19.5395
38.7728 19.265
38.9621 19.0404
39.1514 18.73
39.3409 18.4762
39.5304 18.3374
39.7201 18.165
39.9099 17.9033
40.0999 17.6877
40.2899 17.3902
40.48 17.2014
40.6703 16.965
40.8607 16.7414
41.0512 16.575
41.242 16.2847
41.4327 16.0839
41.6236 15.8842
41.8146 15.6973
42.0057 15.5369
42.1969 15.2278
42.3882 15.0439
42.5797 14.8518
42.7713 14.6838
42.963 14.4456
43.1549 14.224
43.3468 14.0428
43.5389 13.8881
43.7312 13.6676
43.9237 13.4936
44.1162 13.2971
44.3088 13.1358
44.5016 12.9314
44.6945 12.769
44.8875 12.5858
45.0806 12.3611
45.2739 12.2684
45.4673 12.0704
45.6609 11.8486
45.8546 11.7277
46.0484 11.5553
46.2424 11.3883
46.4365 11.2298
46.631 11.0681
46.8254 10.8941
47.0199 10.7157
47.2146 10.5714
47.4095 10.4088
47.6044 10.2642
47.7996 10.0731
47.9948 9.95312
48.1902 9.8434
48.3858 9.68183
48.5815 9.55008
48.7774 9.40243
48.9734 9.25407
49.1696 9.14894
49.3661 8.99279
49.5626 8.83168
49.7592 8.71826
49.956 8.61336
50.153 8.46647
50.3501 8.34371
50.5474 8.19474
50.7448 8.11478
50.9424 7.96059
51.1402 7.86315
51.3381 7.68823
51.5362 7.58947
51.7344 7.47304
51.9328 7.32592
52.1316 7.19158
52.3304 7.08861
52.5293 6.95391
52.7284 6.87695
52.9276 6.7327
53.1271 6.67693
53.3267 6.53358
53.5265 6.38074
53.7264 6.31002
53.9266 6.18061
54.1269 6.04975
54.3274 5.96454
54.528 5.82277
54.7289 5.63757
54.9301 5.39331
55.1314 5.27398
55.3328 5.03479
55.5344 4.87296
55.7361 4.76462