File: XRD/Ni3Fe_FD0186.xy
TT I
1.27165 8.01171
1.45013 6.60345
1.62863 6.1361
1.80712 4.66835
1.98562 4.57401
2.16411 4.68422
2.34263 4.0283
2.52115 4.27024
2.69965 5.85733
2.87818 8.27352
3.05672 10.6721
3.23527 14.9375
3.4138 18.9642
3.59237 22.0169
3.77094 25.4974
3.9495 29.0948
4.12809 33.285
4.30669 37.606
4.4853 45.16
4.6639 53.9939
4.84253 67.0488
5.02118 90.932
5.19981 520.292
5.37848 407.996
5.55716 108.386
5.73586 95.9292
5.91455 104.895
6.09328 2915.01
6.27201 88.8023
6.45075 66.8957
6.62952 60.2466
6.8083 56.0694
6.98711 54.2459
7.16591 53.3396
7.34475 52.3433
7.5236 56.2039
7.70247 54.5942
7.88135 56.9255
8.06026 61.2644
8.23919 68.7319
8.41812 83.9484
8.59709 930.901
8.77609 114.67
8.9551 86.0277
9.13412 81.9416
9.31318 86.2115
9.49226 84.3253
9.67134 89.5632
9.85047 99.9157
10.0296 535.894
10.2088 921.952
10.388 105.142
10.5672 349.701
10.7465 90.6848
10.9257 76.5957
11.105 70.6282
11.2844 66.8531
11.4637 64.1656
11.6431 62.9595
11.8225 61.9043
12.002 65.2838
12.1814 122.781
12.3609 73.8721
12.5405 63.7521
12.72 65.8429
12.8996 70.5271
13.0792 79.8998
13.2589 211.566
13.4386 200.465
13.6183 201.047
13.7981 147.097
13.9779 76.7802
14.1577 74.3717
14.3376 69.3756
14.5175 69.0335
14.6974 70.613
14.8774 121.973
15.0574 204.135
15.2374 69.5479
15.4175 66.7535
15.5976 66.1957
15.7778 107.892
15.958 187.478
16.1382 62.1724
16.3185 57.9691
16.4988 55.6493
16.6792 54.6569
16.8596 54.7156
17.04 55.7907
17.2205 66.2265
17.401 81.7954
17.5815 59.6276
17.7622 61.9008
17.9428 84.2106
18.1237 119.583
18.3044 89.1662
18.4852 94.3842
18.666 61.6434
18.8469 58.7832
19.0278 57.4663
19.2088 62.1796
19.3898 70.554
19.5709 56.6146
19.752 53.939
19.9332 58.5257
20.1144 68.3177
20.2957 62.1161
20.477 59.0262
20.6586 50.1945
20.84 49.4255
21.0215 49.409
21.203 50.2829
21.3846 51.0251
21.5662 49.4952
21.7479 54.6796
21.9297 63.369
22.1115 56.8461
22.2933 52.8117
22.4753 49.4365
22.6572 49.6914
22.8393 52.6904
23.0214 58.2467
23.2037 50.2639
23.3859 52.316
23.5682 54.6946
23.7505 53.2252
23.9329 46.1411
24.1154 44.8974
24.2979 44.2147
24.4805 43.4475
24.6631 43.6813
24.8458 43.0102
25.0286 43.5741
25.2114 45.2755
25.3943 45.5553
25.5773 42.0835
25.7605 41.2169
25.9436 41.6029
26.1268 42.2537
26.31 41.3025
26.4933 41.4625
26.6767 42.5399
26.8601 41.6688
27.0437 39.9899
27.2272 39.3012
27.4109 39.142
27.5946 39.0935
27.7784 38.9989
27.9623 38.9583
28.1462 39.8778
28.3304 38.3602
28.5145 36.7148
28.6987 36.3827
28.8829 36.0424
29.0673 35.5473
29.2517 34.986
29.4361 34.6016
29.6207 34.0032
29.8053 33.4662
29.99 33.1687
30.1748 32.9598
30.3597 33.007
30.5447 32.8137
30.7297 32.7414
30.915 32.5259
31.1002 31.8479
31.2855 31.5449
31.4708 31.3779
31.6563 31.1585
31.8418 30.7433
32.0275 30.5666
32.2132 30.0696
32.399 29.5321
32.5848 29.0849
32.7708 28.8249
32.9569 28.5104
33.143 28.2522
33.3293 27.9856
33.5158 27.6848
33.7022 27.1117
33.8887 26.8037
34.0753 26.533
34.262 26.1746
34.4488 25.7721
34.6357 25.506
34.8227 25.1748
35.0098 24.9447
35.1969 24.7616
35.3842 24.4086
35.5716 24.303
35.759 24.0154
35.9468 23.5769
36.1345 23.3524
36.3222 23.0974
36.5101 22.9159
36.6981 22.5604
36.8861 22.2803
37.0743 21.9201
37.2626 21.6859
37.451 21.3696
37.6395 21.2392
37.8281 20.8738
38.0168 20.7074
38.2056 20.3002
38.3945 20.0372
38.5837 19.7987
38.7728 19.564
38.9621 19.3313
39.1514 19.0887
39.3409 18.8092
39.5304 18.6332
39.7201 18.4033
39.9099 18.1471
40.0999 17.9853
40.2899 17.6712
40.48 17.4836
40.6703 17.2469
40.8607 17.1119
41.0512 16.8387
41.242 16.5839
41.4327 16.3746
41.6236 16.1159
41.8146 15.9425
42.0057 15.6937
42.1969 15.5048
42.3882 15.3175
42.5797 15.0864
42.7713 14.9139
42.963 14.698
43.1549 14.5215
43.3468 14.2929
43.5389 14.0748
43.7312 13.9071
43.9237 13.7152
44.1162 13.4848
44.3088 13.3606
44.5016 13.1121
44.6945 13.0017
44.8875 12.8012
45.0806 12.5752
45.2739 12.449
45.4673 12.2759
45.6609 12.0601
45.8546 11.8929
46.0484 11.7663
46.2424 11.5758
46.4365 11.4144
46.631 11.2205
46.8254 11.0496
47.0199 10.8896
47.2146 10.7317
47.4095 10.5732
47.6044 10.3906
47.7996 10.2421
47.9948 10.1186
48.1902 9.98956
48.3858 9.8514
48.5815 9.70214
48.7774 9.55969
48.9734 9.44532
49.1696 9.25728
49.3661 9.1275
49.5626 8.99107
49.7592 8.82989
49.956 8.74893
50.153 8.61057
50.3501 8.43085
50.5474 8.32806
50.7448 8.17558
50.9424 8.07743
51.1402 7.96208
51.3381 7.83172
51.5362 7.7079
51.7344 7.53458
51.9328 7.44202
52.1316 7.31689
52.3304 7.185
52.5293 7.09394
52.7284 6.98599
52.9276 6.83597
53.1271 6.78196
53.3267 6.61516
53.5265 6.50317
53.7264 6.45987
53.9266 6.32355
54.1269 6.18022
54.3274 6.01995
54.528 5.89585
54.7289 5.73982
54.9301 5.51575
55.1314 5.34556
55.3328 5.07578
55.5344 4.95957
55.7361 4.84364