File: XRD/Ni3Fe_FD0151.xy
TT I
1.27165 7.98173
1.45013 6.57482
1.62863 5.41146
1.80712 5.4428
1.98562 5.19876
2.16411 4.80414
2.34263 4.56202
2.52115 4.17708
2.69965 5.87863
2.87818 7.70876
3.05672 11.4142
3.23527 14.9677
3.4138 18.7852
3.59237 21.909
3.77094 25.0366
3.9495 28.6254
4.12809 32.7085
4.30669 37.582
4.4853 45.0511
4.6639 53.7545
4.84253 66.0095
5.02118 90.1738
5.19981 546.066
5.37848 454.049
5.55716 107.361
5.73586 95.2376
5.91455 105.039
6.09328 2706.73
6.27201 89.4626
6.45075 66.1576
6.62952 59.6722
6.8083 55.7284
6.98711 53.2529
7.16591 52.0657
7.34475 51.7543
7.5236 55.7185
7.70247 53.9978
7.88135 55.9832
8.06026 60.5175
8.23919 67.7755
8.41812 83.4515
8.59709 885.165
8.77609 116.355
8.9551 85.0004
9.13412 80.9224
9.31318 86.5093
9.49226 83.3275
9.67134 88.1726
9.85047 98.2333
10.0296 544.141
10.2088 989.986
10.388 104.578
10.5672 330.234
10.7465 90.0502
10.9257 75.5781
11.105 70.2339
11.2844 65.94
11.4637 63.1485
11.6431 61.9355
11.8225 60.8935
12.002 65.1324
12.1814 117.346
12.3609 74.6782
12.5405 62.8087
12.72 64.8679
12.8996 69.264
13.0792 79.083
13.2589 204.324
13.4386 211.009
13.6183 192.069
13.7981 154.317
13.9779 75.7063
14.1577 74.176
14.3376 68.8257
14.5175 68.2003
14.6974 69.2867
14.8774 121.156
15.0574 204.176
15.2374 68.9594
15.4175 66.0387
15.5976 65.4807
15.7778 107.781
15.958 184.373
16.1382 61.5498
16.3185 57.0661
16.4988 54.9262
16.6792 53.8335
16.8596 54.3134
17.04 55.2085
17.2205 65.2198
17.401 81.0241
17.5815 58.8023
17.7622 61.3371
17.9428 83.6803
18.1237 114.798
18.3044 88.2081
18.4852 94.9983
18.666 60.8815
18.8469 58.0806
19.0278 56.6349
19.2088 61.6682
19.3898 69.0232
19.5709 56.3186
19.752 53.1681
19.9332 57.9676
20.1144 66.8791
20.2957 61.0825
20.477 58.9636
20.6586 49.6953
20.84 48.9928
21.0215 48.8513
21.203 49.6574
21.3846 50.304
21.5662 48.7795
21.7479 53.9442
21.9297 61.8953
22.1115 56.1839
22.2933 52.3518
22.4753 48.6936
22.6572 49.1039
22.8393 51.9364
23.0214 57.2462
23.2037 49.6763
23.3859 51.7682
23.5682 53.547
23.7505 53.3933
23.9329 45.5508
24.1154 44.2878
24.2979 43.6265
24.4805 42.8225
24.6631 43.1181
24.8458 42.587
25.0286 42.9481
25.2114 44.4872
25.3943 44.8847
25.5773 41.7606
25.7605 40.697
25.9436 40.9808
26.1268 41.6139
26.31 40.8394
26.4933 40.88
26.6767 41.9974
26.8601 41.2959
27.0437 39.608
27.2272 38.9377
27.4109 38.5885
27.5946 38.8271
27.7784 38.4365
27.9623 38.4748
28.1462 39.4183
28.3304 38.0964
28.5145 36.3258
28.6987 35.8493
28.8829 35.5297
29.0673 35.1361
29.2517 34.5447
29.4361 34.2648
29.6207 33.452
29.8053 33.0503
29.99 32.7336
30.1748 32.5738
30.3597 32.5909
30.5447 32.3024
30.7297 32.3036
30.915 32.0774
31.1002 31.4583
31.2855 31.1282
31.4708 30.9723
31.6563 30.9115
31.8418 30.3023
32.0275 30.1576
32.2132 29.6734
32.399 29.052
32.5848 28.639
32.7708 28.3304
32.9569 28.2755
33.143 27.9323
33.3293 27.6391
33.5158 27.263
33.7022 26.7051
33.8887 26.4609
34.0753 26.2401
34.262 25.7376
34.4488 25.4997
34.6357 25.1175
34.8227 24.838
35.0098 24.5853
35.1969 24.3125
35.3842 24.0621
35.5716 24.0009
35.759 23.7212
35.9468 23.2761
36.1345 23.0119
36.3222 22.8534
36.5101 22.5929
36.6981 22.3177
36.8861 21.992
37.0743 21.6944
37.2626 21.3887
37.451 21.0989
37.6395 20.9025
37.8281 20.6373
38.0168 20.3853
38.2056 20.0619
38.3945 19.7658
38.5837 19.5592
38.7728 19.3333
38.9621 19.0971
39.1514 18.8784
39.3409 18.5924
39.5304 18.3863
39.7201 18.1294
39.9099 17.9641
40.0999 17.7242
40.2899 17.4843
40.48 17.2361
40.6703 17.0808
40.8607 16.8649
41.0512 16.6442
41.242 16.3765
41.4327 16.171
41.6236 15.9181
41.8146 15.7623
42.0057 15.496
42.1969 15.3822
42.3882 15.1281
42.5797 14.8979
42.7713 14.7221
42.963 14.5082
43.1549 14.3215
43.3468 14.0842
43.5389 13.9189
43.7312 13.7074
43.9237 13.5324
44.1162 13.3275
44.3088 13.1715
44.5016 12.9584
44.6945 12.8298
44.8875 12.6162
45.0806 12.4256
45.2739 12.2248
45.4673 12.1102
45.6609 11.9243
45.8546 11.7557
46.0484 11.5812
46.2424 11.4137
46.4365 11.2617
46.631 11.0636
46.8254 10.9099
47.0199 10.783
47.2146 10.5744
47.4095 10.4251
47.6044 10.2954
47.7996 10.1286
47.9948 9.96269
48.1902 9.85277
48.3858 9.72283
48.5815 9.54835
48.7774 9.45889
48.9734 9.31743
49.1696 9.15698
49.3661 8.97984
49.5626 8.89349
49.7592 8.76599
49.956 8.60789
50.153 8.51265
50.3501 8.34398
50.5474 8.23932
50.7448 8.1291
50.9424 8.00807
51.1402 7.84928
51.3381 7.72876
51.5362 7.59881
51.7344 7.48872
51.9328 7.31513
52.1316 7.22545
52.3304 7.1088
52.5293 7.00505
52.7284 6.91585
52.9276 6.78163
53.1271 6.67425
53.3267 6.54716
53.5265 6.43225
53.7264 6.31451
53.9266 6.1804
54.1269 6.10527
54.3274 5.95654
54.528 5.75024
54.7289 5.58425
54.9301 5.43966
55.1314 5.31619
55.3328 5.07075
55.5344 4.90224
55.7361 4.75099