File: XRD/Ni3Fe_FD0140.xy
TT I
1.27165 8.1847
1.45013 6.59831
1.62863 5.0626
1.80712 5.21802
1.98562 5.20378
2.16411 4.35109
2.34263 4.78867
2.52115 4.56685
2.69965 5.08823
2.87818 7.93987
3.05672 11.1418
3.23527 15.1911
3.4138 18.5454
3.59237 22.102
3.77094 24.5144
3.9495 28.6934
4.12809 32.5013
4.30669 37.5007
4.4853 44.5686
4.6639 53.4434
4.84253 65.9083
5.02118 90.8112
5.19981 555.329
5.37848 476.347
5.55716 107.602
5.73586 94.9771
5.91455 105.07
6.09328 2647.06
6.27201 89.184
6.45075 66.1397
6.62952 59.353
6.8083 55.3327
6.98711 53.2152
7.16591 51.9278
7.34475 51.7433
7.5236 56.0001
7.70247 53.7068
7.88135 55.725
8.06026 60.2883
8.23919 67.2933
8.41812 83.0836
8.59709 865.113
8.77609 118.136
8.9551 84.6211
9.13412 81.1379
9.31318 86.5855
9.49226 82.8075
9.67134 87.9972
9.85047 98.3213
10.0296 547.143
10.2088 1027.65
10.388 103.971
10.5672 321.535
10.7465 90.919
10.9257 75.1832
11.105 69.7512
11.2844 65.6592
11.4637 62.9369
11.6431 61.8164
11.8225 60.7669
12.002 65.5529
12.1814 115.657
12.3609 75.5664
12.5405 62.7257
12.72 64.8501
12.8996 69.003
13.0792 78.7927
13.2589 201.78
13.4386 219.43
13.6183 189.454
13.7981 157.465
13.9779 75.4419
14.1577 74.0797
14.3376 68.4304
14.5175 67.9489
14.6974 69.3457
14.8774 120.816
15.0574 204.833
15.2374 68.6065
15.4175 65.5333
15.5976 65.2965
15.7778 107.397
15.958 184.456
16.1382 61.5561
16.3185 56.9108
16.4988 54.7979
16.6792 53.6744
16.8596 54.0571
17.04 54.9462
17.2205 64.612
17.401 81.0679
17.5815 58.7558
17.7622 60.9897
17.9428 83.6867
18.1237 112.45
18.3044 88.1069
18.4852 96.0643
18.666 60.5898
18.8469 58.0693
19.0278 56.5034
19.2088 61.6641
19.3898 68.4394
19.5709 56.4468
19.752 52.9182
19.9332 57.9035
20.1144 66.3179
20.2957 60.795
20.477 59.4055
20.6586 49.6896
20.84 48.8903
21.0215 48.8051
21.203 49.3869
21.3846 50.3563
21.5662 48.5492
21.7479 53.8897
21.9297 61.5296
22.1115 56.2928
22.2933 52.5252
22.4753 48.7106
22.6572 48.8643
22.8393 51.9283
23.0214 56.6869
23.2037 49.829
23.3859 51.7313
23.5682 53.0957
23.7505 53.2911
23.9329 45.3549
24.1154 44.1445
24.2979 43.3931
24.4805 42.8125
24.6631 43.1104
24.8458 42.2955
25.0286 42.8744
25.2114 44.4423
25.3943 44.6597
25.5773 41.6905
25.7605 40.658
25.9436 40.73
26.1268 41.4815
26.31 40.8331
26.4933 40.7279
26.6767 41.8386
26.8601 41.2655
27.0437 39.4577
27.2272 38.7645
27.4109 38.5227
27.5946 38.606
27.7784 38.3729
27.9623 38.3713
28.1462 39.2239
28.3304 37.8979
28.5145 36.2232
28.6987 35.773
28.8829 35.4355
29.0673 34.9592
29.2517 34.4503
29.4361 34.2555
29.6207 33.4931
29.8053 32.9435
29.99 32.6581
30.1748 32.4019
30.3597 32.5103
30.5447 32.3123
30.7297 32.1822
30.915 31.9159
31.1002 31.279
31.2855 31.0599
31.4708 30.8505
31.6563 30.7405
31.8418 30.2086
32.0275 30.0422
32.2132 29.5914
32.399 29.0688
32.5848 28.6333
32.7708 28.2261
32.9569 28.1056
33.143 27.7641
33.3293 27.5661
33.5158 27.2343
33.7022 26.669
33.8887 26.4856
34.0753 26.0964
34.262 25.7527
34.4488 25.3457
34.6357 25.0788
34.8227 24.7268
35.0098 24.5744
35.1969 24.2939
35.3842 24.0554
35.5716 23.8916
35.759 23.6374
35.9468 23.1967
36.1345 23.0541
36.3222 22.7008
36.5101 22.565
36.6981 22.2482
36.8861 21.8849
37.0743 21.5306
37.2626 21.3621
37.451 21.102
37.6395 20.9474
37.8281 20.647
38.0168 20.33
38.2056 20.0089
38.3945 19.744
38.5837 19.4931
38.7728 19.2597
38.9621 19.0453
39.1514 18.7051
39.3409 18.5865
39.5304 18.3255
39.7201 18.0733
39.9099 17.9438
40.0999 17.6831
40.2899 17.3762
40.48 17.1325
40.6703 17.0017
40.8607 16.8093
41.0512 16.5855
41.242 16.357
41.4327 16.1467
41.6236 15.8864
41.8146 15.7621
42.0057 15.4907
42.1969 15.2241
42.3882 15.0764
42.5797 14.8723
42.7713 14.6863
42.963 14.4833
43.1549 14.2742
43.3468 14.0761
43.5389 13.8931
43.7312 13.6961
43.9237 13.4877
44.1162 13.3396
44.3088 13.1335
44.5016 12.9562
44.6945 12.7262
44.8875 12.5844
45.0806 12.4571
45.2739 12.2452
45.4673 12.0969
45.6609 11.8823
45.8546 11.7358
46.0484 11.5398
46.2424 11.3941
46.4365 11.2416
46.631 11.0564
46.8254 10.8686
47.0199 10.7656
47.2146 10.5927
47.4095 10.4421
47.6044 10.2344
47.7996 10.1017
47.9948 9.98691
48.1902 9.83491
48.3858 9.71681
48.5815 9.56348
48.7774 9.42537
48.9734 9.29026
49.1696 9.15317
49.3661 8.95464
49.5626 8.81734
49.7592 8.74824
49.956 8.65179
50.153 8.46193
50.3501 8.34556
50.5474 8.20998
50.7448 8.10957
50.9424 7.9709
51.1402 7.84831
51.3381 7.69971
51.5362 7.57659
51.7344 7.46771
51.9328 7.33376
52.1316 7.2555
52.3304 7.09982
52.5293 6.96396
52.7284 6.85945
52.9276 6.73735
53.1271 6.67626
53.3267 6.56606
53.5265 6.41218
53.7264 6.2961
53.9266 6.18368
54.1269 6.03711
54.3274 5.91558
54.528 5.75799
54.7289 5.61548
54.9301 5.45433
55.1314 5.30229
55.3328 5.01584
55.5344 4.89329
55.7361 4.71893