File: XRD/Ni3Fe_FD0718.xy
TT I
1.27165 7.28257
1.45013 6.28543
1.62863 5.10276
1.80712 4.92396
1.98562 3.98974
2.16411 4.5692
2.34263 5.41512
2.52115 6.55816
2.69965 7.98529
2.87818 8.85462
3.05672 10.8333
3.23527 14.4757
3.4138 18.5895
3.59237 23.3837
3.77094 26.1495
3.9495 29.3794
4.12809 34.0843
4.30669 130.832
4.4853 56.4011
4.6639 55.5857
4.84253 67.9614
5.02118 87.6791
5.19981 375.177
5.37848 195.451
5.55716 102.72
5.73586 92.6467
5.91455 95.1013
6.09328 4443.16
6.27201 81.3777
6.45075 68.3673
6.62952 62.7991
6.8083 58.6781
6.98711 55.7003
7.16591 55.8002
7.34475 72.3079
7.5236 54.0499
7.70247 56.3439
7.88135 57.7975
8.06026 62.2412
8.23919 69.3595
8.41812 84.3857
8.59709 1214.31
8.77609 99.2951
8.9551 89.4102
9.13412 82.472
9.31318 83.5905
9.49226 84.9098
9.67134 95.5329
9.85047 100.84
10.0296 359.484
10.2088 404.12
10.388 104.313
10.5672 495.728
10.7465 86.6374
10.9257 77.8529
11.105 71.2415
11.2844 68.8867
11.4637 64.7151
11.6431 63.4095
11.8225 62.4385
12.002 63.8959
12.1814 153.276
12.3609 68.2535
12.5405 64.583
12.72 68.0834
12.8996 71.4001
13.0792 79.3657
13.2589 250.185
13.4386 126.118
13.6183 254.391
13.7981 97.4823
13.9779 75.6932
14.1577 72.1517
14.3376 70.4542
14.5175 68.9236
14.6974 70.5535
14.8774 113.538
15.0574 147.729
15.2374 69.8071
15.4175 66.4948
15.5976 65.6729
15.7778 97.102
15.958 153.614
16.1382 61.5424
16.3185 57.9796
16.4988 55.3722
16.6792 54.3763
16.8596 54.9716
17.04 55.7964
17.2205 67.3268
17.401 70.7163
17.5815 59.2218
17.7622 61.1368
17.9428 74.1332
18.1237 138.05
18.3044 91.4622
18.4852 76.7509
18.666 60.4156
18.8469 58.0516
19.0278 56.5261
19.2088 59.3697
19.3898 75.158
19.5709 54.0649
19.752 53.2265
19.9332 56.3342
20.1144 69.1319
20.2957 63.6427
20.477 53.5345
20.6586 49.5748
20.84 48.6197
21.0215 48.4161
21.203 50.8482
21.3846 48.8948
21.5662 48.7411
21.7479 52.7631
21.9297 63.9768
22.1115 55.7361
22.2933 49.7916
22.4753 48.663
22.6572 48.7875
22.8393 52.2584
23.0214 57.1264
23.2037 48.8176
23.3859 49.7473
23.5682 56.7359
23.7505 48.3344
23.9329 45.1904
24.1154 44.0996
24.2979 43.357
24.4805 42.8085
24.6631 42.7395
24.8458 42.0483
25.0286 42.7665
25.2114 44.6366
25.3943 44.4934
25.5773 40.7852
25.7605 40.4489
25.9436 40.6353
26.1268 41.5371
26.31 40.044
26.4933 40.7659
26.6767 41.9752
26.8601 40.4059
27.0437 38.83
27.2272 38.4572
27.4109 38.3243
27.5946 38.2028
27.7784 37.831
27.9623 38.4003
28.1462 38.7548
28.3304 37.1504
28.5145 35.8625
28.6987 35.5641
28.8829 35.374
29.0673 34.591
29.2517 34.2797
29.4361 34.1861
29.6207 33.0355
29.8053 32.8331
29.99 32.4702
30.1748 32.3538
30.3597 32.2086
30.5447 32.0505
30.7297 32.2092
30.915 31.5202
31.1002 31.083
31.2855 30.7966
31.4708 30.8012
31.6563 30.2905
31.8418 30.0775
32.0275 29.925
32.2132 29.3483
32.399 28.922
32.5848 28.4134
32.7708 28.1522
32.9569 28.0072
33.143 27.7447
33.3293 27.3133
33.5158 27.0448
33.7022 26.5481
33.8887 26.3073
34.0753 25.9234
34.262 25.6508
34.4488 25.2878
34.6357 24.9943
34.8227 24.7674
35.0098 24.5413
35.1969 24.1547
35.3842 23.9617
35.5716 23.772
35.759 23.4372
35.9468 22.9985
36.1345 22.8333
36.3222 22.652
36.5101 22.2706
36.6981 22.0533
36.8861 21.7637
37.0743 21.4854
37.2626 21.1299
37.451 20.9855
37.6395 20.8113
37.8281 20.4845
38.0168 20.1101
38.2056 19.9686
38.3945 19.6583
38.5837 19.3635
38.7728 19.1628
38.9621 18.9462
39.1514 18.6741
39.3409 18.4162
39.5304 18.2298
39.7201 17.9913
39.9099 17.7855
40.0999 17.5816
40.2899 17.3102
40.48 17.051
40.6703 16.8391
40.8607 16.7207
41.0512 16.4736
41.242 16.2561
41.4327 16.0188
41.6236 15.8041
41.8146 15.6289
42.0057 15.3923
42.1969 15.2371
42.3882 15.0056
42.5797 14.8059
42.7713 14.6554
42.963 14.4341
43.1549 14.1915
43.3468 13.9865
43.5389 13.7725
43.7312 13.5999
43.9237 13.431
44.1162 13.2405
44.3088 13.0498
44.5016 12.8506
44.6945 12.6945
44.8875 12.5152
45.0806 12.3317
45.2739 12.1872
45.4673 11.9968
45.6609 11.8067
45.8546 11.6511
46.0484 11.4767
46.2424 11.3361
46.4365 11.1673
46.631 10.9767
46.8254 10.8264
47.0199 10.6779
47.2146 10.5669
47.4095 10.3291
47.6044 10.1979
47.7996 10.0918
47.9948 9.91928
48.1902 9.7664
48.3858 9.67213
48.5815 9.51554
48.7774 9.3722
48.9734 9.26883
49.1696 9.1071
49.3661 8.94791
49.5626 8.76048
49.7592 8.65034
49.956 8.57988
50.153 8.39975
50.3501 8.25167
50.5474 8.16494
50.7448 8.05494
50.9424 7.90924
51.1402 7.80784
51.3381 7.63021
51.5362 7.53735
51.7344 7.3939
51.9328 7.27069
52.1316 7.15363
52.3304 7.04339
52.5293 6.92081
52.7284 6.81572
52.9276 6.65361
53.1271 6.62283
53.3267 6.49985
53.5265 6.37244
53.7264 6.25125
53.9266 6.15319
54.1269 6.0552
54.3274 5.90445
54.528 5.78328
54.7289 5.63486
54.9301 5.46885
55.1314 5.3879
55.3328 5.14403
55.5344 4.94358
55.7361 4.80106