File: XRD/Ni3Fe_FD0075.xy
TT I
1.27165 12.8237
1.45013 10.5776
1.62863 8.84914
1.80712 8.71887
1.98562 8.34484
2.16411 7.69913
2.34263 6.80723
2.52115 7.01271
2.69965 8.33596
2.87818 10.932
3.05672 15.3824
3.23527 17.9269
3.4138 18.6815
3.59237 20.4043
3.77094 22.6662
3.9495 26.0688
4.12809 29.6857
4.30669 35.0641
4.4853 40.3195
4.6639 48.5811
4.84253 61.0261
5.02118 96.8879
5.19981 631.083
5.37848 1902.82
5.55716 121.681
5.73586 97.2166
5.91455 119.457
6.09328 1015.41
6.27201 119.186
6.45075 61.7296
6.62952 52.5011
6.8083 47.9722
6.98711 45.9926
7.16591 45.8115
7.34475 45.3625
7.5236 80.7518
7.70247 48.3659
7.88135 47.487
8.06026 51.1339
8.23919 57.7094
8.41812 75.2844
8.59709 389.412
8.77609 175.115
8.9551 76.8031
9.13412 74.4104
9.31318 205.378
9.49226 72.149
9.67134 74.4634
9.85047 84.4902
10.0296 400.949
10.2088 1271.18
10.388 95.5056
10.5672 129.464
10.7465 128.003
10.9257 63.8907
11.105 58.3766
11.2844 54.603
11.4637 52.608
11.6431 51.5618
11.8225 51.7601
12.002 106.663
12.1814 68.677
12.3609 88.7689
12.5405 52.1374
12.72 53.0222
12.8996 56.4382
13.0792 69.3303
13.2589 114.939
13.4386 288.158
13.6183 103.968
13.7981 222.173
13.9779 64.2604
14.1577 94.0949
14.3376 58.2053
14.5175 56.256
14.6974 56.8056
14.8774 86.0461
15.0574 151.224
15.2374 59.3442
15.4175 54.1767
15.5976 53.6538
15.7778 78.711
15.958 111.925
16.1382 63.3238
16.3185 47.5582
16.4988 45.2149
16.6792 44.1035
16.8596 44.4998
17.04 47.6688
17.2205 49.2935
17.401 63.1017
17.5815 47.8092
17.7622 52.1827
17.9428 65.7702
18.1237 62.5787
18.3044 78.7628
18.4852 85.4154
18.666 51.9846
18.8469 47.6446
19.0278 46.3108
19.2088 49.7115
19.3898 54.5277
19.5709 51.8749
19.752 43.6022
19.9332 46.294
20.1144 47.0037
20.2957 49.65
20.477 53.4278
20.6586 40.8864
20.84 42.4562
21.0215 39.9362
21.203 39.1043
21.3846 41.971
21.5662 39.9477
21.7479 42.4869
21.9297 43.2783
22.1115 48.7734
22.2933 45.8437
22.4753 39.6714
22.6572 39.8702
22.8393 41.5668
23.0214 41.418
23.2037 42.6027
23.3859 41.9263
23.5682 39.9127
23.7505 47.8352
23.9329 37.5284
24.1154 36.4807
24.2979 35.6623
24.4805 34.9325
24.6631 35.4267
24.8458 34.8197
25.0286 34.5127
25.2114 34.7741
25.3943 35.2489
25.5773 35.0979
25.7605 33.2098
25.9436 33.0243
26.1268 32.8246
26.31 33.964
26.4933 32.9495
26.6767 32.7094
26.8601 34.1252
27.0437 32.8196
27.2272 31.6686
27.4109 31.2351
27.5946 31.11
27.7784 31.3442
27.9623 30.7581
28.1462 30.9951
28.3304 30.9989
28.5145 29.8382
28.6987 29.1906
28.8829 28.6433
29.0673 28.6125
29.2517 27.8607
29.4361 27.4592
29.6207 27.5294
29.8053 26.834
29.99 26.5964
30.1748 26.3702
30.3597 26.32
30.5447 26.0439
30.7297 25.7205
30.915 26.0808
31.1002 25.6506
31.2855 25.0693
31.4708 24.8651
31.6563 24.8667
31.8418 24.4236
32.0275 24.2907
32.2132 24.1427
32.399 23.5858
32.5848 23.2189
32.7708 22.8802
32.9569 22.81
33.143 22.5088
33.3293 22.1906
33.5158 22.1688
33.7022 21.6841
33.8887 21.3904
34.0753 21.1783
34.262 20.8483
34.4488 20.5945
34.6357 20.3025
34.8227 20.1149
35.0098 19.8885
35.1969 19.6358
35.3842 19.4622
35.5716 19.3039
35.759 19.0724
35.9468 18.8173
36.1345 18.6058
36.3222 18.3827
36.5101 18.2101
36.6981 17.9687
36.8861 17.7157
37.0743 17.3983
37.2626 17.2848
37.451 17.0236
37.6395 16.8981
37.8281 16.6653
38.0168 16.3851
38.2056 16.1884
38.3945 15.9594
38.5837 15.7722
38.7728 15.5721
38.9621 15.4438
39.1514 15.183
39.3409 14.9314
39.5304 14.8173
39.7201 14.6782
39.9099 14.4637
40.0999 14.27
40.2899 14.1168
40.48 13.8971
40.6703 13.793
40.8607 13.6671
41.0512 13.4454
41.242 13.2286
41.4327 13.0627
41.6236 12.8939
41.8146 12.7106
42.0057 12.5414
42.1969 12.3489
42.3882 12.2462
42.5797 12.0576
42.7713 11.8912
42.963 11.7161
43.1549 11.5782
43.3468 11.449
43.5389 11.3078
43.7312 11.1009
43.9237 10.9768
44.1162 10.762
44.3088 10.6247
44.5016 10.5384
44.6945 10.3453
44.8875 10.2002
45.0806 10.0721
45.2739 9.96282
45.4673 9.82071
45.6609 9.66393
45.8546 9.5327
46.0484 9.4009
46.2424 9.24644
46.4365 9.13351
46.631 8.98649
46.8254 8.84142
47.0199 8.71957
47.2146 8.6175
47.4095 8.45953
47.6044 8.35926
47.7996 8.23662
47.9948 8.07962
48.1902 7.99445
48.3858 7.91618
48.5815 7.76961
48.7774 7.67925
48.9734 7.57219
49.1696 7.40898
49.3661 7.3146
49.5626 7.19574
49.7592 7.11729
49.956 7.02098
50.153 6.88901
50.3501 6.79654
50.5474 6.69597
50.7448 6.58915
50.9424 6.51265
51.1402 6.39988
51.3381 6.31926
51.5362 6.21258
51.7344 6.09469
51.9328 6.01102
52.1316 5.86511
52.3304 5.77321
52.5293 5.67426
52.7284 5.57036
52.9276 5.50602
53.1271 5.43617
53.3267 5.33769
53.5265 5.22934
53.7264 5.13005
53.9266 5.06189
54.1269 4.92034
54.3274 4.8076
54.528 4.65848
54.7289 4.47425
54.9301 4.31233
55.1314 4.27522
55.3328 4.04171
55.5344 3.88778
55.7361 3.78912