File: XRD/Ni3Fe_FD0549.xy
TT I
1.27165 7.18945
1.45013 6.54145
1.62863 5.33344
1.80712 4.41114
1.98562 4.6978
2.16411 5.17306
2.34263 5.07784
2.52115 6.90949
2.69965 8.26345
2.87818 8.63033
3.05672 11.0928
3.23527 14.9412
3.4138 19.0627
3.59237 23.9061
3.77094 26.3464
3.9495 30.2774
4.12809 34.9246
4.30669 192.632
4.4853 63.7016
4.6639 55.944
4.84253 67.7961
5.02118 88.1752
5.19981 388.421
5.37848 196.861
5.55716 103.179
5.73586 92.8295
5.91455 96.3249
6.09328 4409.98
6.27201 83.4941
6.45075 67.5525
6.62952 63.0358
6.8083 58.8689
6.98711 56.4582
7.16591 55.4659
7.34475 87.9769
7.5236 55.2237
7.70247 56.4225
7.88135 58.2479
8.06026 62.422
8.23919 69.6668
8.41812 86.0881
8.59709 1213.19
8.77609 100.045
8.9551 91.2912
9.13412 82.7248
9.31318 83.0838
9.49226 84.9974
9.67134 98.5415
9.85047 100.519
10.0296 361.401
10.2088 395.375
10.388 105.368
10.5672 513.381
10.7465 86.8331
10.9257 78.7155
11.105 72.1026
11.2844 70.639
11.4637 65.2945
11.6431 64.0502
11.8225 62.7721
12.002 63.9603
12.1814 153.346
12.3609 70.3025
12.5405 64.8029
12.72 70.2689
12.8996 71.3674
13.0792 79.7541
13.2589 243.333
13.4386 122.714
13.6183 250.948
13.7981 97.2838
13.9779 76.1853
14.1577 72.7691
14.3376 71.9841
14.5175 69.2265
14.6974 70.882
14.8774 112.718
15.0574 148.914
15.2374 71.458
15.4175 66.8686
15.5976 66.2716
15.7778 96.8981
15.958 154.959
16.1382 62.7849
16.3185 58.992
16.4988 55.9841
16.6792 54.9478
16.8596 55.5842
17.04 56.2394
17.2205 67.2949
17.401 71.4891
17.5815 59.5797
17.7622 61.8638
17.9428 74.7566
18.1237 141.437
18.3044 91.0616
18.4852 77.484
18.666 61.0079
18.8469 58.3447
19.0278 57.2751
19.2088 60.0579
19.3898 76.8416
19.5709 54.553
19.752 53.6343
19.9332 56.8177
20.1144 70.4932
20.2957 64.2029
20.477 53.8301
20.6586 50.1195
20.84 49.125
21.0215 49.0772
21.203 51.2027
21.3846 49.3199
21.5662 49.2374
21.7479 53.1102
21.9297 65.1271
22.1115 56.3534
22.2933 50.1306
22.4753 49.2894
22.6572 49.3318
22.8393 52.4545
23.0214 57.7199
23.2037 49.0374
23.3859 50.1526
23.5682 57.44
23.7505 48.3515
23.9329 45.5459
24.1154 44.4748
24.2979 43.6906
24.4805 43.3361
24.6631 43.0275
24.8458 42.5087
25.0286 43.2887
25.2114 44.9669
25.3943 44.8937
25.5773 41.2049
25.7605 40.7936
25.9436 41.1535
26.1268 41.8634
26.31 40.4722
26.4933 41.0133
26.6767 42.4979
26.8601 40.6996
27.0437 39.1376
27.2272 38.9079
27.4109 38.7019
27.5946 38.7234
27.7784 38.1994
27.9623 38.6286
28.1462 39.082
28.3304 37.4739
28.5145 36.2092
28.6987 35.8829
28.8829 35.6754
29.0673 34.9946
29.2517 34.5654
29.4361 34.4191
29.6207 33.4838
29.8053 33.0457
29.99 32.7882
30.1748 32.7546
30.3597 32.5144
30.5447 32.3958
30.7297 32.4089
30.915 31.7877
31.1002 31.3904
31.2855 31.1532
31.4708 30.9568
31.6563 30.6034
31.8418 30.3685
32.0275 30.1834
32.2132 29.5714
32.399 29.0834
32.5848 28.6855
32.7708 28.4356
32.9569 28.1988
33.143 28.0251
33.3293 27.5959
33.5158 27.2691
33.7022 26.9044
33.8887 26.5174
34.0753 26.1695
34.262 25.7077
34.4488 25.4346
34.6357 25.1575
34.8227 24.8231
35.0098 24.638
35.1969 24.3292
35.3842 24.1552
35.5716 23.8997
35.759 23.5994
35.9468 23.2645
36.1345 23.0653
36.3222 22.9004
36.5101 22.4971
36.6981 22.3211
36.8861 21.9433
37.0743 21.7116
37.2626 21.434
37.451 21.0931
37.6395 20.9151
37.8281 20.7015
38.0168 20.4002
38.2056 20.0614
38.3945 19.8285
38.5837 19.5448
38.7728 19.3345
38.9621 19.1395
39.1514 18.809
39.3409 18.6345
39.5304 18.3845
39.7201 18.2194
39.9099 18.013
40.0999 17.6964
40.2899 17.4438
40.48 17.2783
40.6703 17.0445
40.8607 16.8674
41.0512 16.6553
41.242 16.3806
41.4327 16.1208
41.6236 15.9113
41.8146 15.8362
42.0057 15.5241
42.1969 15.3828
42.3882 15.1487
42.5797 14.9228
42.7713 14.7136
42.963 14.5662
43.1549 14.3609
43.3468 14.123
43.5389 13.9403
43.7312 13.7167
43.9237 13.5026
44.1162 13.3374
44.3088 13.2148
44.5016 13.0079
44.6945 12.8211
44.8875 12.6521
45.0806 12.4554
45.2739 12.3469
45.4673 12.1587
45.6609 11.9243
45.8546 11.8187
46.0484 11.6419
46.2424 11.4459
46.4365 11.2845
46.631 11.091
46.8254 10.9421
47.0199 10.7723
47.2146 10.6212
47.4095 10.4483
47.6044 10.297
47.7996 10.146
47.9948 10.0028
48.1902 9.86108
48.3858 9.68671
48.5815 9.6062
48.7774 9.46879
48.9734 9.29833
49.1696 9.1747
49.3661 9.02196
49.5626 8.86001
49.7592 8.76392
49.956 8.61959
50.153 8.4909
50.3501 8.36155
50.5474 8.24338
50.7448 8.13664
50.9424 7.97891
51.1402 7.87972
51.3381 7.75355
51.5362 7.55723
51.7344 7.51638
51.9328 7.32673
52.1316 7.22035
52.3304 7.12722
52.5293 7.02274
52.7284 6.87427
52.9276 6.77294
53.1271 6.67598
53.3267 6.51493
53.5265 6.41222
53.7264 6.33891
53.9266 6.22663
54.1269 6.07368
54.3274 5.98945
54.528 5.82221
54.7289 5.69516
54.9301 5.50589
55.1314 5.44195
55.3328 5.19717
55.5344 4.99519
55.7361 4.87873