File: XRD/Ni3Fe_FD0210.xy
TT I
1.27165 8.47146
1.45013 6.67543
1.62863 5.92492
1.80712 5.41251
1.98562 4.93632
2.16411 4.59847
2.34263 4.93455
2.52115 5.15969
2.69965 6.10314
2.87818 8.05084
3.05672 11.3914
3.23527 14.6503
3.4138 18.907
3.59237 22.559
3.77094 26.221
3.9495 30.1956
4.12809 35.3191
4.30669 40.1306
4.4853 48.69
4.6639 58.2506
4.84253 71.8838
5.02118 96.8375
5.19981 885.181
5.37848 283.721
5.55716 112.623
5.73586 101.337
5.91455 111.408
6.09328 3561.34
6.27201 90.0502
6.45075 71.1898
6.62952 64.2702
6.8083 60.0092
6.98711 57.5437
7.16591 56.8443
7.34475 56.0055
7.5236 57.0437
7.70247 58.2953
7.88135 60.6752
8.06026 65.29
8.23919 73.5839
8.41812 90.9241
8.59709 1044.26
8.77609 111.716
8.9551 91.1569
9.13412 87.1221
9.31318 88.696
9.49226 89.9131
9.67134 96.1689
9.85047 107.063
10.0296 525.981
10.2088 606.447
10.388 114.886
10.5672 434.537
10.7465 93.0397
10.9257 80.8588
11.105 75.2002
11.2844 71.0462
11.4637 67.8268
11.6431 66.6729
11.8225 65.4902
12.002 68.5269
12.1814 137.141
12.3609 70.5406
12.5405 67.7818
12.72 69.9749
12.8996 74.8513
13.0792 86.0555
13.2589 224.984
13.4386 153.722
13.6183 221.17
13.7981 115.189
13.9779 80.2512
14.1577 75.709
14.3376 73.2423
14.5175 72.9385
14.6974 74.5536
14.8774 119.324
15.0574 177.735
15.2374 72.6686
15.4175 70.0682
15.5976 69.8769
15.7778 103.781
15.958 178.556
16.1382 64.2126
16.3185 60.5457
16.4988 58.286
16.6792 57.3611
16.8596 57.4522
17.04 59.3873
17.2205 68.7694
17.401 78.3897
17.5815 62.4788
17.7622 64.9581
17.9428 83.3115
18.1237 137.247
18.3044 89.9898
18.4852 85.2091
18.666 63.8098
18.8469 61.172
19.0278 59.7701
19.2088 63.0166
19.3898 76.1191
19.5709 57.4641
19.752 56.3759
19.9332 59.6635
20.1144 72.7367
20.2957 64.4906
20.477 57.2568
20.6586 52.2976
20.84 51.4585
21.0215 51.3792
21.203 52.6232
21.3846 51.7713
21.5662 51.9584
21.7479 55.5672
21.9297 66.5889
22.1115 57.8541
22.2933 52.6922
22.4753 51.1389
22.6572 52.034
22.8393 54.2144
23.0214 60.143
23.2037 51.6717
23.3859 52.7397
23.5682 57.5069
23.7505 51.7424
23.9329 47.6209
24.1154 46.3518
24.2979 45.6748
24.4805 44.9587
24.6631 45.0258
24.8458 44.6934
25.0286 45.2362
25.2114 46.7027
25.3943 46.8975
25.5773 43.0987
25.7605 42.7102
25.9436 42.7052
26.1268 43.7265
26.31 42.4128
26.4933 42.6629
26.6767 44.0853
26.8601 42.3302
27.0437 41.0514
27.2272 40.5159
27.4109 40.2441
27.5946 40.32
27.7784 39.817
27.9623 40.0452
28.1462 40.7018
28.3304 39.115
28.5145 37.7564
28.6987 37.3473
28.8829 37.0308
29.0673 36.3951
29.2517 36.0916
29.4361 35.6293
29.6207 34.8067
29.8053 34.5085
29.99 34.1849
30.1748 33.9833
30.3597 33.7835
30.5447 33.6328
30.7297 33.6737
30.915 33.151
31.1002 32.6822
31.2855 32.3482
31.4708 32.4144
31.6563 31.9918
31.8418 31.5061
32.0275 31.3656
32.2132 30.9264
32.399 30.3527
32.5848 29.8461
32.7708 29.5265
32.9569 29.5197
33.143 29.1563
33.3293 28.6984
33.5158 28.4405
33.7022 27.8675
33.8887 27.6234
34.0753 27.2768
34.262 26.8848
34.4488 26.5212
34.6357 26.217
34.8227 25.9512
35.0098 25.6582
35.1969 25.3952
35.3842 25.1642
35.5716 24.9511
35.759 24.5827
35.9468 24.1799
36.1345 24.0043
36.3222 23.749
36.5101 23.4897
36.6981 23.173
36.8861 22.8554
37.0743 22.5765
37.2626 22.289
37.451 21.9961
37.6395 21.8227
37.8281 21.448
38.0168 21.1232
38.2056 20.9338
38.3945 20.6737
38.5837 20.398
38.7728 20.1307
38.9621 19.8197
39.1514 19.5677
39.3409 19.3835
39.5304 19.1318
39.7201 18.9474
39.9099 18.6265
40.0999 18.4214
40.2899 18.1332
40.48 17.9594
40.6703 17.7325
40.8607 17.575
41.0512 17.3481
41.242 17.0523
41.4327 16.7886
41.6236 16.6201
41.8146 16.4123
42.0057 16.1979
42.1969 15.9412
42.3882 15.777
42.5797 15.5103
42.7713 15.3296
42.963 15.0763
43.1549 14.9076
43.3468 14.7114
43.5389 14.4405
43.7312 14.2813
43.9237 14.0922
44.1162 13.9093
44.3088 13.6638
44.5016 13.5187
44.6945 13.3337
44.8875 13.1557
45.0806 12.96
45.2739 12.7602
45.4673 12.6144
45.6609 12.3988
45.8546 12.2865
46.0484 12.0185
46.2424 11.8938
46.4365 11.7496
46.631 11.5172
46.8254 11.3501
47.0199 11.1818
47.2146 11.0086
47.4095 10.8904
47.6044 10.6985
47.7996 10.5682
47.9948 10.3794
48.1902 10.2555
48.3858 10.1387
48.5815 9.97776
48.7774 9.82181
48.9734 9.66352
49.1696 9.50027
49.3661 9.38722
49.5626 9.19725
49.7592 9.09915
49.956 8.95836
50.153 8.79111
50.3501 8.69589
50.5474 8.52782
50.7448 8.41352
50.9424 8.33164
51.1402 8.16701
51.3381 8.0161
51.5362 7.90872
51.7344 7.7388
51.9328 7.64401
52.1316 7.50787
52.3304 7.39456
52.5293 7.23317
52.7284 7.09604
52.9276 7.01057
53.1271 6.91278
53.3267 6.81288
53.5265 6.69183
53.7264 6.55665
53.9266 6.46984
54.1269 6.29874
54.3274 6.15687
54.528 6.02899
54.7289 5.86983
54.9301 5.72945
55.1314 5.55622
55.3328 5.3407
55.5344 5.13222
55.7361 4.99223