File: XRD/Ni3Fe_FD0281.xy
TT I
1.27165 7.71922
1.45013 6.17949
1.62863 5.41686
1.80712 4.74512
1.98562 4.58414
2.16411 4.95714
2.34263 4.68229
2.52115 6.0399
2.69965 6.77589
2.87818 8.67395
3.05672 11.1479
3.23527 15.3042
3.4138 18.8374
3.59237 24.4239
3.77094 26.6038
3.9495 30.564
4.12809 36.1823
4.30669 241.335
4.4853 68.9138
4.6639 57.5103
4.84253 69.656
5.02118 92.2245
5.19981 515.7
5.37848 263.397
5.55716 108.447
5.73586 97.6366
5.91455 102.088
6.09328 3673.78
6.27201 90.4088
6.45075 70.6486
6.62952 65.5449
6.8083 61.2616
6.98711 58.0971
7.16591 57.8056
7.34475 99.224
7.5236 56.7729
7.70247 58.4842
7.88135 59.9306
8.06026 64.7411
8.23919 72.2349
8.41812 89.6971
8.59709 1048.44
8.77609 109.195
8.9551 95.9795
9.13412 85.2771
9.31318 86.5778
9.49226 87.6225
9.67134 103.271
9.85047 104.642
10.0296 406.784
10.2088 591.822
10.388 111.001
10.5672 455.229
10.7465 91.5325
10.9257 81.9523
11.105 74.8853
11.2844 73.648
11.4637 67.5561
11.6431 66.2261
11.8225 64.9392
12.002 66.593
12.1814 140.952
12.3609 76.3856
12.5405 67.3777
12.72 73.3522
12.8996 73.7308
13.0792 82.4516
13.2589 219.143
13.4386 151.256
13.6183 222.087
13.7981 113.531
13.9779 78.9615
14.1577 75.4196
14.3376 74.822
14.5175 71.7216
14.6974 73.5128
14.8774 112.496
15.0574 175.066
15.2374 74.6511
15.4175 69.0535
15.5976 68.7071
15.7778 97.5622
15.958 177.32
16.1382 65.9801
16.3185 61.2293
16.4988 57.6863
16.6792 56.726
16.8596 57.5694
17.04 58.2083
17.2205 67.7012
17.401 77.5426
17.5815 61.5312
17.7622 63.7152
17.9428 78.5656
18.1237 137.104
18.3044 89.9553
18.4852 85.837
18.666 63.202
18.8469 60.5057
19.0278 59.4598
19.2088 62.4622
19.3898 78.0727
19.5709 56.8165
19.752 55.4702
19.9332 58.6265
20.1144 71.4488
20.2957 64.5519
20.477 57.1184
20.6586 51.9403
20.84 50.7304
21.0215 50.6275
21.203 52.2734
21.3846 51.3112
21.5662 50.8227
21.7479 54.5172
21.9297 66.3478
22.1115 57.8597
22.2933 52.4289
22.4753 51.0985
22.6572 50.8803
22.8393 53.4373
23.0214 59.86
23.2037 50.8206
23.3859 51.8255
23.5682 57.8653
23.7505 51.2671
23.9329 47.0524
24.1154 46.0938
24.2979 45.1983
24.4805 44.7028
24.6631 44.7629
24.8458 43.9281
25.0286 44.4684
25.2114 46.3988
25.3943 46.5013
25.5773 42.6986
25.7605 42.1475
25.9436 42.2866
26.1268 43.3396
26.31 41.85
26.4933 42.2715
26.6767 43.6503
26.8601 42.1743
27.0437 40.5537
27.2272 40.2239
27.4109 39.8614
27.5946 40.0219
27.7784 39.2822
27.9623 39.8433
28.1462 40.309
28.3304 38.7946
28.5145 37.388
28.6987 37.0004
28.8829 36.847
29.0673 36.181
29.2517 35.7562
29.4361 35.5072
29.6207 34.5216
29.8053 34.2758
29.99 33.9009
30.1748 33.7191
30.3597 33.5758
30.5447 33.4224
30.7297 33.4934
30.915 32.945
31.1002 32.374
31.2855 32.0623
31.4708 32.1051
31.6563 31.5805
31.8418 31.32
32.0275 31.1306
32.2132 30.5653
32.399 30.2102
32.5848 29.6774
32.7708 29.2533
32.9569 29.1272
33.143 29.0227
33.3293 28.5349
33.5158 28.2086
33.7022 27.7783
33.8887 27.4386
34.0753 26.9938
34.262 26.6856
34.4488 26.3533
34.6357 26.0023
34.8227 25.7397
35.0098 25.5089
35.1969 25.1777
35.3842 24.9408
35.5716 24.7237
35.759 24.4966
35.9468 24.1487
36.1345 23.9155
36.3222 23.5177
36.5101 23.3411
36.6981 22.9933
36.8861 22.6673
37.0743 22.3558
37.2626 22.1225
37.451 21.9227
37.6395 21.6748
37.8281 21.3487
38.0168 20.9766
38.2056 20.7769
38.3945 20.4797
38.5837 20.2819
38.7728 19.9888
38.9621 19.7813
39.1514 19.4556
39.3409 19.2745
39.5304 18.9189
39.7201 18.7717
39.9099 18.5643
40.0999 18.3191
40.2899 18.0852
40.48 17.8556
40.6703 17.638
40.8607 17.4405
41.0512 17.2268
41.242 16.9073
41.4327 16.6914
41.6236 16.4853
41.8146 16.3115
42.0057 16.0376
42.1969 15.7874
42.3882 15.6797
42.5797 15.4514
42.7713 15.2412
42.963 15.0041
43.1549 14.7894
43.3468 14.5637
43.5389 14.4285
43.7312 14.1783
43.9237 14.0094
44.1162 13.8012
44.3088 13.6077
44.5016 13.4079
44.6945 13.1818
44.8875 13.0486
45.0806 12.9087
45.2739 12.7332
45.4673 12.475
45.6609 12.323
45.8546 12.1416
46.0484 11.9844
46.2424 11.8149
46.4365 11.6378
46.631 11.4662
46.8254 11.3146
47.0199 11.1348
47.2146 10.969
47.4095 10.7905
47.6044 10.6674
47.7996 10.5014
47.9948 10.3741
48.1902 10.2121
48.3858 10.0798
48.5815 9.9318
48.7774 9.76978
48.9734 9.6539
49.1696 9.47103
49.3661 9.32271
49.5626 9.18996
49.7592 9.03921
49.956 8.92545
50.153 8.78372
50.3501 8.64256
50.5474 8.48989
50.7448 8.38644
50.9424 8.23542
51.1402 8.10427
51.3381 7.97468
51.5362 7.87415
51.7344 7.74405
51.9328 7.55821
52.1316 7.45336
52.3304 7.36271
52.5293 7.21562
52.7284 7.13154
52.9276 6.96845
53.1271 6.89061
53.3267 6.7664
53.5265 6.65402
53.7264 6.53306
53.9266 6.40358
54.1269 6.3381
54.3274 6.20869
54.528 6.02489
54.7289 5.83591
54.9301 5.68794
55.1314 5.57184
55.3328 5.32677
55.5344 5.10459
55.7361 5.0292