File: XRD/Ni3Fe_FD0816.xy
TT I
1.27165 7.05276
1.45013 6.42818
1.62863 5.55446
1.80712 4.44623
1.98562 4.86927
2.16411 4.99862
2.34263 6.25932
2.52115 6.71947
2.69965 8.31239
2.87818 9.32465
3.05672 10.991
3.23527 15.1284
3.4138 18.949
3.59237 23.2605
3.77094 25.7329
3.9495 29.6677
4.12809 33.9101
4.30669 105.86
4.4853 53.7866
4.6639 55.4267
4.84253 68.1415
5.02118 86.8286
5.19981 400.31
5.37848 191.408
5.55716 101.855
5.73586 92.9665
5.91455 94.8684
6.09328 4586.61
6.27201 79.7819
6.45075 69.4856
6.62952 62.7063
6.8083 59.2326
6.98711 54.8399
7.16591 55.7257
7.34475 66.9016
7.5236 53.7919
7.70247 56.4562
7.88135 57.2533
8.06026 62.3069
8.23919 68.9336
8.41812 83.4455
8.59709 1229.21
8.77609 97.1319
8.9551 88.8992
9.13412 82.6746
9.31318 84.5187
9.49226 84.3094
9.67134 95.2083
9.85047 101.059
10.0296 345.413
10.2088 346.68
10.388 104.831
10.5672 542.054
10.7465 85.4608
10.9257 77.4706
11.105 71.0761
11.2844 67.8963
11.4637 64.3201
11.6431 62.9326
11.8225 62.2447
12.002 63.8383
12.1814 162.007
12.3609 66.1262
12.5405 64.2767
12.72 67.5321
12.8996 70.8888
13.0792 79.8043
13.2589 249.951
13.4386 117.055
13.6183 259.89
13.7981 93.1209
13.9779 75.3648
14.1577 71.3781
14.3376 69.761
14.5175 68.683
14.6974 70.2508
14.8774 111.941
15.0574 139.223
15.2374 69.021
15.4175 65.6545
15.5976 65.4644
15.7778 95.773
15.958 145.738
16.1382 60.7869
16.3185 57.3767
16.4988 54.9527
16.6792 53.8712
16.8596 54.1589
17.04 55.6245
17.2205 66.9169
17.401 68.3092
17.5815 58.5492
17.7622 60.9631
17.9428 73.4547
18.1237 141.615
18.3044 91.1345
18.4852 74.0079
18.666 59.6609
18.8469 57.5798
19.0278 56.1869
19.2088 58.8672
19.3898 75.4805
19.5709 53.4782
19.752 52.7928
19.9332 55.611
20.1144 69.6924
20.2957 64.0415
20.477 52.4072
20.6586 49.18
20.84 48.2896
21.0215 48.1088
21.203 50.5443
21.3846 48.3262
21.5662 48.673
21.7479 52.4464
21.9297 64.0974
22.1115 55.6045
22.2933 49.0664
22.4753 48.1569
22.6572 48.4432
22.8393 51.6661
23.0214 56.5939
23.2037 48.3801
23.3859 49.2275
23.5682 57.1382
23.7505 47.4044
23.9329 44.8082
24.1154 43.6675
24.2979 43.0062
24.4805 42.4926
24.6631 42.4272
24.8458 41.8559
25.0286 42.5947
25.2114 44.2572
25.3943 44.1488
25.5773 40.54
25.7605 40.0106
25.9436 40.4555
26.1268 41.3696
26.31 39.6698
26.4933 40.401
26.6767 41.7343
26.8601 40.0036
27.0437 38.5011
27.2272 38.14
27.4109 37.9958
27.5946 38.0345
27.7784 37.4994
27.9623 38.0888
28.1462 38.3458
28.3304 36.7104
28.5145 35.5735
28.6987 35.343
28.8829 35.0515
29.0673 34.2541
29.2517 34.0394
29.4361 33.6962
29.6207 32.7832
29.8053 32.6426
29.99 32.2154
30.1748 32.117
30.3597 31.8919
30.5447 31.9309
30.7297 31.908
30.915 31.1882
31.1002 30.767
31.2855 30.5656
31.4708 30.6118
31.6563 29.987
31.8418 29.9033
32.0275 29.5853
32.2132 29.0182
32.399 28.6621
32.5848 28.0649
32.7708 27.9057
32.9569 27.7662
33.143 27.4861
33.3293 27.0691
33.5158 26.7065
33.7022 26.2859
33.8887 26.0339
34.0753 25.7497
34.262 25.3228
34.4488 25.0152
34.6357 24.7776
34.8227 24.3771
35.0098 24.161
35.1969 24.0182
35.3842 23.7614
35.5716 23.541
35.759 23.2524
35.9468 22.8616
36.1345 22.6503
36.3222 22.4107
36.5101 22.1937
36.6981 21.8801
36.8861 21.5271
37.0743 21.2232
37.2626 21.0361
37.451 20.7571
37.6395 20.5895
37.8281 20.2194
38.0168 19.9513
38.2056 19.7252
38.3945 19.4482
38.5837 19.2233
38.7728 18.9599
38.9621 18.7115
39.1514 18.4546
39.3409 18.288
39.5304 18.0584
39.7201 17.8531
39.9099 17.6319
40.0999 17.4482
40.2899 17.2155
40.48 16.9267
40.6703 16.7292
40.8607 16.4799
41.0512 16.3365
41.242 16.1117
41.4327 15.8785
41.6236 15.6265
41.8146 15.5263
42.0057 15.2462
42.1969 15.0267
42.3882 14.8942
42.5797 14.6655
42.7713 14.4853
42.963 14.2564
43.1549 14.0986
43.3468 13.8442
43.5389 13.6819
43.7312 13.4781
43.9237 13.2976
44.1162 13.105
44.3088 12.88
44.5016 12.7267
44.6945 12.5726
44.8875 12.4403
45.0806 12.2263
45.2739 12.0554
45.4673 11.9465
45.6609 11.7042
45.8546 11.5852
46.0484 11.3934
46.2424 11.2469
46.4365 11.0797
46.631 10.9113
46.8254 10.73
47.0199 10.5901
47.2146 10.4299
47.4095 10.2899
47.6044 10.1149
47.7996 9.97065
47.9948 9.83124
48.1902 9.69667
48.3858 9.55613
48.5815 9.44043
48.7774 9.27173
48.9734 9.14075
49.1696 8.9836
49.3661 8.84851
49.5626 8.72968
49.7592 8.61125
49.956 8.46187
50.153 8.32304
50.3501 8.21303
50.5474 8.09681
50.7448 7.956
50.9424 7.88403
51.1402 7.70803
51.3381 7.61321
51.5362 7.48446
51.7344 7.40384
51.9328 7.21275
52.1316 7.11121
52.3304 6.99828
52.5293 6.87019
52.7284 6.76874
52.9276 6.65059
53.1271 6.55508
53.3267 6.45122
53.5265 6.32428
53.7264 6.21593
53.9266 6.13053
54.1269 5.99737
54.3274 5.8998
54.528 5.76711
54.7289 5.59688
54.9301 5.4296
55.1314 5.31253
55.3328 5.10312
55.5344 4.85549
55.7361 4.78377