File: XRD/Ni3Fe_FD0855.xy
TT I
1.27165 7.31753
1.45013 6.09506
1.62863 5.03347
1.80712 4.79186
1.98562 4.68678
2.16411 4.91921
2.34263 5.35374
2.52115 7.18613
2.69965 8.50966
2.87818 9.09177
3.05672 11.341
3.23527 15.4332
3.4138 18.7299
3.59237 24.0476
3.77094 26.0098
3.9495 29.2414
4.12809 34.3875
4.30669 212.904
4.4853 64.6147
4.6639 54.9745
4.84253 66.282
5.02118 85.1276
5.19981 296.389
5.37848 176.496
5.55716 100.392
5.73586 90.7295
5.91455 91.448
6.09328 4374.61
6.27201 81.8672
6.45075 66.3807
6.62952 62.3382
6.8083 57.9726
6.98711 55.0477
7.16591 54.6619
7.34475 89.4505
7.5236 54.3118
7.70247 55.3857
7.88135 57.338
8.06026 61.3517
8.23919 68.6717
8.41812 83.7647
8.59709 1135.94
8.77609 97.6468
8.9551 90.489
9.13412 80.8592
9.31318 81.1253
9.49226 83.5876
9.67134 97.0821
9.85047 98.4389
10.0296 309.109
10.2088 397.481
10.388 102.666
10.5672 530.271
10.7465 85.485
10.9257 77.4018
11.105 71.0167
11.2844 69.2538
11.4637 63.9819
11.6431 62.8981
11.8225 61.8474
12.002 62.5711
12.1814 154.215
12.3609 69.5744
12.5405 63.8587
12.72 68.864
12.8996 69.9496
13.0792 77.5526
13.2589 233.862
13.4386 121.389
13.6183 249.395
13.7981 96.1486
13.9779 74.8896
14.1577 71.4185
14.3376 70.6567
14.5175 67.9419
14.6974 69.2719
14.8774 106.87
15.0574 146.972
15.2374 70.0193
15.4175 65.349
15.5976 64.8761
15.7778 91.4086
15.958 153.143
16.1382 61.736
16.3185 57.9148
16.4988 54.7113
16.6792 53.7795
16.8596 54.4795
17.04 54.8421
17.2205 65.5569
17.401 70.1953
17.5815 58.4808
17.7622 60.4309
17.9428 71.4055
18.1237 137.817
18.3044 90.1308
18.4852 76.2062
18.666 59.5873
18.8469 57.2347
19.0278 56.0915
19.2088 58.4797
19.3898 75.7212
19.5709 53.7487
19.752 52.5474
19.9332 55.4866
20.1144 68.8967
20.2957 63.7501
20.477 53.0195
20.6586 49.0566
20.84 48.076
21.0215 47.956
21.203 50.2156
21.3846 48.4526
21.5662 48.0526
21.7479 51.6768
21.9297 63.6753
22.1115 55.6609
22.2933 49.2263
22.4753 48.2545
22.6572 48.1067
22.8393 51.2566
23.0214 56.4247
23.2037 48.1434
23.3859 48.9712
23.5682 56.6924
23.7505 47.7054
23.9329 44.6468
24.1154 43.605
24.2979 42.8746
24.4805 42.3293
24.6631 42.1335
24.8458 41.6731
25.0286 42.2654
25.2114 44.1417
25.3943 44.0765
25.5773 40.2768
25.7605 39.8299
25.9436 40.2896
26.1268 41.0553
26.31 39.5877
26.4933 40.207
26.6767 41.6446
26.8601 39.8648
27.0437 38.3527
27.2272 38.0884
27.4109 37.8169
27.5946 37.7941
27.7784 37.4318
27.9623 37.8661
28.1462 38.3504
28.3304 36.7701
28.5145 35.4835
28.6987 35.2412
28.8829 34.9798
29.0673 34.2022
29.2517 33.912
29.4361 33.7239
29.6207 32.6762
29.8053 32.4012
29.99 32.1843
30.1748 32.0884
30.3597 31.8291
30.5447 31.7623
30.7297 31.8151
30.915 31.2761
31.1002 30.7553
31.2855 30.4741
31.4708 30.4455
31.6563 29.9208
31.8418 29.7891
32.0275 29.5377
32.2132 28.952
32.399 28.5625
32.5848 28.1066
32.7708 27.8092
32.9569 27.6514
33.143 27.4965
33.3293 27.0307
33.5158 26.6761
33.7022 26.2891
33.8887 25.9664
34.0753 25.683
34.262 25.3715
34.4488 25.0016
34.6357 24.6777
34.8227 24.435
35.0098 24.2402
35.1969 23.8624
35.3842 23.6501
35.5716 23.5422
35.759 23.1161
35.9468 22.8632
36.1345 22.6233
36.3222 22.3349
36.5101 22.1408
36.6981 21.8297
36.8861 21.5145
37.0743 21.2657
37.2626 21.0032
37.451 20.6476
37.6395 20.5706
37.8281 20.2421
38.0168 20.0379
38.2056 19.6918
38.3945 19.4002
38.5837 19.1997
38.7728 18.9743
38.9621 18.7719
39.1514 18.472
39.3409 18.2748
39.5304 18.0613
39.7201 17.888
39.9099 17.625
40.0999 17.3845
40.2899 17.1109
40.48 16.9038
40.6703 16.7636
40.8607 16.5452
41.0512 16.2987
41.242 16.0083
41.4327 15.8906
41.6236 15.601
41.8146 15.4949
42.0057 15.284
42.1969 15.0893
42.3882 14.868
42.5797 14.6607
42.7713 14.5213
42.963 14.2219
43.1549 14.0593
43.3468 13.8951
43.5389 13.6947
43.7312 13.431
43.9237 13.3153
44.1162 13.0867
44.3088 12.9183
44.5016 12.7742
44.6945 12.5945
44.8875 12.4173
45.0806 12.2324
45.2739 12.0013
45.4673 11.887
45.6609 11.6985
45.8546 11.5846
46.0484 11.3687
46.2424 11.2292
46.4365 11.0794
46.631 10.8862
46.8254 10.7658
47.0199 10.5477
47.2146 10.4131
47.4095 10.2848
47.6044 10.1117
47.7996 9.96131
47.9948 9.80187
48.1902 9.6569
48.3858 9.55772
48.5815 9.44428
48.7774 9.30626
48.9734 9.15029
49.1696 9.01609
49.3661 8.87084
49.5626 8.71467
49.7592 8.62758
49.956 8.48169
50.153 8.31592
50.3501 8.20934
50.5474 8.05416
50.7448 7.98205
50.9424 7.82592
51.1402 7.71204
51.3381 7.5858
51.5362 7.4766
51.7344 7.35752
51.9328 7.24455
52.1316 7.04005
52.3304 7.00881
52.5293 6.87416
52.7284 6.75687
52.9276 6.67583
53.1271 6.5803
53.3267 6.40634
53.5265 6.30026
53.7264 6.21471
53.9266 6.09392
54.1269 5.96838
54.3274 5.89414
54.528 5.75089
54.7289 5.55681
54.9301 5.41521
55.1314 5.27901
55.3328 5.09586
55.5344 4.88961
55.7361 4.76227