File: XRD/Ni3Fe_FD1002.xy
TT I
1.27165 7.31066
1.45013 6.48871
1.62863 4.81795
1.80712 4.79439
1.98562 4.43234
2.16411 5.20616
2.34263 5.83203
2.52115 7.2256
2.69965 8.60689
2.87818 9.37495
3.05672 11.6285
3.23527 15.3528
3.4138 18.7822
3.59237 24.134
3.77094 26.2244
3.9495 29.4569
4.12809 34.8055
4.30669 266.301
4.4853 69.9368
4.6639 54.0721
4.84253 65.698
5.02118 83.7241
5.19981 267.496
5.37848 173.686
5.55716 99.0542
5.73586 89.5249
5.91455 90.1137
6.09328 4560.46
6.27201 81.2592
6.45075 66.553
6.62952 62.203
6.8083 58.0581
6.98711 54.994
7.16591 54.6845
7.34475 102.056
7.5236 54.1197
7.70247 55.5433
7.88135 57.0356
8.06026 60.8363
8.23919 67.8555
8.41812 83.0604
8.59709 1076.66
8.77609 96.6598
8.9551 91.2925
9.13412 80.0205
9.31318 80.8973
9.49226 82.3779
9.67134 98.6286
9.85047 97.1974
10.0296 277.096
10.2088 371.692
10.388 102.014
10.5672 524.12
10.7465 84.4511
10.9257 76.9422
11.105 70.6357
11.2844 69.7822
11.4637 63.6722
11.6431 62.4702
11.8225 61.2415
12.002 61.8399
12.1814 148.334
12.3609 70.5634
12.5405 63.4924
12.72 69.7363
12.8996 69.3502
13.0792 76.5501
13.2589 219.923
13.4386 121.703
13.6183 234.779
13.7981 95.0445
13.9779 74.1837
14.1577 70.9923
14.3376 70.4585
14.5175 67.1086
14.6974 68.7978
14.8774 102.139
15.0574 151.357
15.2374 70.3253
15.4175 65.1014
15.5976 64.3859
15.7778 87.7902
15.958 156.187
16.1382 62.1347
16.3185 57.8137
16.4988 54.3771
16.6792 53.506
16.8596 54.2438
17.04 54.5624
17.2205 64.4344
17.401 69.0356
17.5815 57.8911
17.7622 59.8656
17.9428 69.8858
18.1237 139.821
18.3044 87.7599
18.4852 76.1605
18.666 59.1001
18.8469 56.7511
19.0278 55.6374
19.2088 57.7609
19.3898 75.9619
19.5709 52.9881
19.752 52.1121
19.9332 54.6999
20.1144 68.9871
20.2957 63.0998
20.477 52.6585
20.6586 48.6902
20.84 47.8448
21.0215 47.3693
21.203 49.7373
21.3846 47.7662
21.5662 47.612
21.7479 50.9321
21.9297 63.5621
22.1115 55.2788
22.2933 48.8679
22.4753 47.9659
22.6572 47.7204
22.8393 50.4612
23.0214 56.5666
23.2037 47.8385
23.3859 48.3296
23.5682 56.2828
23.7505 47.452
23.9329 44.3696
24.1154 43.2766
24.2979 42.6
24.4805 42.071
24.6631 42.1092
24.8458 41.4498
25.0286 41.952
25.2114 43.6872
25.3943 43.833
25.5773 40.1957
25.7605 39.5334
25.9436 39.9532
26.1268 40.9163
26.31 39.3416
26.4933 39.8089
26.6767 41.3203
26.8601 39.6411
27.0437 38.0627
27.2272 37.7827
27.4109 37.6069
27.5946 37.6659
27.7784 37.1026
27.9623 37.6547
28.1462 38.1016
28.3304 36.3841
28.5145 35.3524
28.6987 35.0076
28.8829 34.739
29.0673 34.0151
29.2517 33.6751
29.4361 33.544
29.6207 32.533
29.8053 32.1652
29.99 31.9693
30.1748 31.8718
30.3597 31.5435
30.5447 31.523
30.7297 31.6101
30.915 30.9659
31.1002 30.5558
31.2855 30.3087
31.4708 30.2919
31.6563 29.8092
31.8418 29.5343
32.0275 29.3304
32.2132 28.7824
32.399 28.3432
32.5848 27.8465
32.7708 27.6487
32.9569 27.4642
33.143 27.3223
33.3293 26.967
33.5158 26.51
33.7022 26.1545
33.8887 25.8585
34.0753 25.4746
34.262 25.1661
34.4488 24.8075
34.6357 24.5803
34.8227 24.2167
35.0098 24.0869
35.1969 23.7163
35.3842 23.5403
35.5716 23.3146
35.759 23.0552
35.9468 22.7043
36.1345 22.4408
36.3222 22.2296
36.5101 21.9638
36.6981 21.7019
36.8861 21.3986
37.0743 21.1943
37.2626 20.8994
37.451 20.6184
37.6395 20.4463
37.8281 20.1134
38.0168 19.839
38.2056 19.6194
38.3945 19.3859
38.5837 19.1419
38.7728 18.8787
38.9621 18.5907
39.1514 18.3217
39.3409 18.14
39.5304 17.8925
39.7201 17.7029
39.9099 17.459
40.0999 17.2701
40.2899 17.0188
40.48 16.8167
40.6703 16.6259
40.8607 16.4311
41.0512 16.181
41.242 15.9455
41.4327 15.7561
41.6236 15.5953
41.8146 15.388
42.0057 15.1143
42.1969 14.9547
42.3882 14.7944
42.5797 14.5546
42.7713 14.3839
42.963 14.1428
43.1549 13.9828
43.3468 13.776
43.5389 13.6135
43.7312 13.3537
43.9237 13.2606
44.1162 13.0616
44.3088 12.8636
44.5016 12.6476
44.6945 12.4967
44.8875 12.3493
45.0806 12.1299
45.2739 11.99
45.4673 11.839
45.6609 11.6341
45.8546 11.4897
46.0484 11.3645
46.2424 11.1288
46.4365 11.0869
46.631 10.8554
46.8254 10.6889
47.0199 10.5443
47.2146 10.3631
47.4095 10.2547
47.6044 10.0825
47.7996 9.94211
47.9948 9.75715
48.1902 9.61199
48.3858 9.48492
48.5815 9.37481
48.7774 9.22442
48.9734 9.08373
49.1696 8.95563
49.3661 8.8481
49.5626 8.671
49.7592 8.5379
49.956 8.42781
50.153 8.30926
50.3501 8.16048
50.5474 8.03932
50.7448 7.95741
50.9424 7.79956
51.1402 7.67103
51.3381 7.55086
51.5362 7.44537
51.7344 7.29568
51.9328 7.18896
52.1316 7.09054
52.3304 6.95031
52.5293 6.88462
52.7284 6.71277
52.9276 6.61758
53.1271 6.52937
53.3267 6.4018
53.5265 6.25439
53.7264 6.1832
53.9266 6.08846
54.1269 5.97065
54.3274 5.86164
54.528 5.70393
54.7289 5.49962
54.9301 5.38495
55.1314 5.275
55.3328 5.08605
55.5344 4.88418
55.7361 4.72352