File: XRD/Ni3Fe_FD0668.xy
TT I
1.27165 7.25712
1.45013 6.09321
1.62863 4.59517
1.80712 5.34623
1.98562 4.75413
2.16411 4.99587
2.34263 5.22169
2.52115 6.87501
2.69965 8.11109
2.87818 8.48147
3.05672 11.132
3.23527 14.7716
3.4138 18.7769
3.59237 23.2107
3.77094 26.281
3.9495 29.9628
4.12809 34.6929
4.30669 175.748
4.4853 60.4595
4.6639 55.5596
4.84253 67.2399
5.02118 86.8839
5.19981 368.251
5.37848 181.553
5.55716 101.693
5.73586 92.1988
5.91455 94.3386
6.09328 4470.66
6.27201 82.0391
6.45075 67.2697
6.62952 62.503
6.8083 58.1723
6.98711 55.8916
7.16591 55.0698
7.34475 83.3172
7.5236 54.8493
7.70247 55.9691
7.88135 57.9984
8.06026 62.2116
8.23919 69.4574
8.41812 85.0656
8.59709 1206.27
8.77609 98.7143
8.9551 89.7933
9.13412 82.2971
9.31318 82.5119
9.49226 84.6478
9.67134 96.8971
9.85047 100.038
10.0296 357.528
10.2088 371.967
10.388 104.69
10.5672 513.267
10.7465 86.4576
10.9257 77.9022
11.105 71.5967
11.2844 69.6462
11.4637 64.7151
11.6431 63.7656
11.8225 62.239
12.002 63.7645
12.1814 153.785
12.3609 68.9498
12.5405 64.1932
12.72 69.1764
12.8996 70.8389
13.0792 79.3521
13.2589 245.113
13.4386 120.791
13.6183 252.951
13.7981 94.938
13.9779 75.8235
14.1577 71.9727
14.3376 71.0545
14.5175 68.8987
14.6974 70.5476
14.8774 112.126
15.0574 141.804
15.2374 70.3625
15.4175 66.4
15.5976 65.7247
15.7778 95.5923
15.958 153.47
16.1382 62.1125
16.3185 58.3411
16.4988 55.4785
16.6792 54.4978
16.8596 54.8076
17.04 55.7499
17.2205 66.8925
17.401 70.1405
17.5815 59.1034
17.7622 61.3741
17.9428 74.1796
18.1237 142.962
18.3044 91.0553
18.4852 75.6089
18.666 60.1666
18.8469 57.769
19.0278 56.7203
19.2088 59.3531
19.3898 76.813
19.5709 53.9804
19.752 53.3357
19.9332 56.2348
20.1144 69.8571
20.2957 64.143
20.477 53.0951
20.6586 49.6687
20.84 48.7441
21.0215 48.3635
21.203 50.8927
21.3846 48.7787
21.5662 48.7369
21.7479 52.7122
21.9297 64.9365
22.1115 56.1141
22.2933 49.425
22.4753 48.712
22.6572 48.8089
22.8393 52.0755
23.0214 57.2336
23.2037 48.6786
23.3859 49.7266
23.5682 57.2018
23.7505 47.9774
23.9329 45.1796
24.1154 43.9487
24.2979 43.3321
24.4805 42.8501
24.6631 42.5883
24.8458 42.0367
25.0286 42.865
25.2114 44.7529
25.3943 44.4279
25.5773 40.8576
25.7605 40.4356
25.9436 40.7859
26.1268 41.651
26.31 40.18
26.4933 40.6986
26.6767 42.2513
26.8601 40.4272
27.0437 38.7457
27.2272 38.475
27.4109 38.398
27.5946 38.3672
27.7784 37.7674
27.9623 38.4688
28.1462 38.7462
28.3304 37.1031
28.5145 35.8921
28.6987 35.6259
28.8829 35.4026
29.0673 34.7522
29.2517 34.3134
29.4361 34.145
29.6207 33.0632
29.8053 32.8468
29.99 32.4667
30.1748 32.5059
30.3597 32.2324
30.5447 32.1285
30.7297 32.3027
30.915 31.5723
31.1002 31.039
31.2855 30.8784
31.4708 30.747
31.6563 30.3939
31.8418 30.1738
32.0275 29.8918
32.2132 29.3351
32.399 28.8115
32.5848 28.4924
32.7708 28.2406
32.9569 27.9654
33.143 27.8212
33.3293 27.4677
33.5158 27.0212
33.7022 26.5606
33.8887 26.3285
34.0753 25.9254
34.262 25.667
34.4488 25.3443
34.6357 24.9282
34.8227 24.6683
35.0098 24.4936
35.1969 24.1243
35.3842 24.058
35.5716 23.7676
35.759 23.3946
35.9468 23.16
36.1345 22.9048
36.3222 22.6916
36.5101 22.372
36.6981 22.0782
36.8861 21.7622
37.0743 21.5312
37.2626 21.3044
37.451 21.0538
37.6395 20.8495
37.8281 20.4417
38.0168 20.2672
38.2056 19.9361
38.3945 19.6821
38.5837 19.4035
38.7728 19.2025
38.9621 18.9824
39.1514 18.6625
39.3409 18.4375
39.5304 18.138
39.7201 18.0597
39.9099 17.8057
40.0999 17.6001
40.2899 17.3418
40.48 17.1205
40.6703 16.9306
40.8607 16.6716
41.0512 16.4346
41.242 16.248
41.4327 16.0154
41.6236 15.8514
41.8146 15.6852
42.0057 15.4146
42.1969 15.2211
42.3882 15.019
42.5797 14.8443
42.7713 14.6749
42.963 14.3699
43.1549 14.2081
43.3468 14.0325
43.5389 13.8061
43.7312 13.611
43.9237 13.4369
44.1162 13.2261
44.3088 13.0572
44.5016 12.8935
44.6945 12.765
44.8875 12.5521
45.0806 12.3329
45.2739 12.2009
45.4673 12.0405
45.6609 11.8318
45.8546 11.6731
46.0484 11.5177
46.2424 11.3682
46.4365 11.2132
46.631 10.9987
46.8254 10.8839
47.0199 10.7359
47.2146 10.5279
47.4095 10.3736
47.6044 10.2541
47.7996 10.1019
47.9948 9.90182
48.1902 9.80541
48.3858 9.69251
48.5815 9.54248
48.7774 9.42448
48.9734 9.2341
49.1696 9.07146
49.3661 8.97902
49.5626 8.78233
49.7592 8.70981
49.956 8.56875
50.153 8.42207
50.3501 8.28913
50.5474 8.17471
50.7448 8.04621
50.9424 7.8984
51.1402 7.83189
51.3381 7.64158
51.5362 7.54635
51.7344 7.41386
51.9328 7.30071
52.1316 7.16776
52.3304 7.08195
52.5293 6.94871
52.7284 6.81258
52.9276 6.70579
53.1271 6.61363
53.3267 6.47565
53.5265 6.37514
53.7264 6.24764
53.9266 6.16776
54.1269 6.01026
54.3274 5.93349
54.528 5.80234
54.7289 5.62918
54.9301 5.50022
55.1314 5.32221
55.3328 5.13587
55.5344 4.95751
55.7361 4.79402