File: XRD/Ni3Fe_FD0164.xy
TT I
1.27165 7.75847
1.45013 6.36999
1.62863 5.66947
1.80712 5.35853
1.98562 4.70658
2.16411 4.73539
2.34263 4.12476
2.52115 4.10577
2.69965 5.88119
2.87818 8.41854
3.05672 11.2338
3.23527 14.787
3.4138 19.1519
3.59237 21.9331
3.77094 25.1622
3.9495 28.6134
4.12809 32.7068
4.30669 37.806
4.4853 45.2143
4.6639 53.9467
4.84253 66.419
5.02118 90.3426
5.19981 533.867
5.37848 424.622
5.55716 107.428
5.73586 95.9743
5.91455 104.785
6.09328 2794.82
6.27201 88.6361
6.45075 66.6987
6.62952 60.2387
6.8083 55.8278
6.98711 53.3617
7.16591 52.3476
7.34475 52.296
7.5236 56.1543
7.70247 54.5139
7.88135 56.6422
8.06026 60.6344
8.23919 68.0447
8.41812 83.9814
8.59709 905.242
8.77609 115.939
8.9551 85.6509
9.13412 81.5275
9.31318 86.3273
9.49226 83.785
9.67134 88.7034
9.85047 98.866
10.0296 540.607
10.2088 972.52
10.388 104.791
10.5672 340.347
10.7465 90.5291
10.9257 75.9905
11.105 70.2024
11.2844 66.3559
11.4637 63.5367
11.6431 62.3859
11.8225 61.2151
12.002 65.2576
12.1814 119.715
12.3609 74.9615
12.5405 63.1699
12.72 65.2968
12.8996 69.6578
13.0792 79.2548
13.2589 207.278
13.4386 208.592
13.6183 195.654
13.7981 154.291
13.9779 76.2676
14.1577 73.9157
14.3376 69.3355
14.5175 68.4394
14.6974 69.921
14.8774 121.355
15.0574 205.556
15.2374 69.1717
15.4175 66.182
15.5976 65.8041
15.7778 107.461
15.958 186.434
16.1382 61.6186
16.3185 57.5769
16.4988 55.0279
16.6792 54.1679
16.8596 54.5601
17.04 55.5661
17.2205 65.8328
17.401 81.1388
17.5815 59.11
17.7622 61.6398
17.9428 83.6703
18.1237 116.516
18.3044 89.0785
18.4852 94.9721
18.666 61.0097
18.8469 58.3554
19.0278 56.9471
19.2088 61.8601
19.3898 69.5261
19.5709 56.4361
19.752 53.6289
19.9332 58.4124
20.1144 67.4605
20.2957 61.4862
20.477 59.153
20.6586 50.0158
20.84 49.3489
21.0215 49.1952
21.203 49.9585
21.3846 50.5646
21.5662 49.1672
21.7479 54.2695
21.9297 62.817
22.1115 56.6028
22.2933 52.622
22.4753 48.9691
22.6572 49.2614
22.8393 52.4544
23.0214 57.5018
23.2037 49.944
23.3859 51.8742
23.5682 54.1057
23.7505 53.3508
23.9329 45.9316
24.1154 44.6143
24.2979 43.7466
24.4805 43.3074
24.6631 43.2724
24.8458 42.7126
25.0286 43.2447
25.2114 44.9475
25.3943 45.1507
25.5773 42.0604
25.7605 40.9834
25.9436 41.2568
26.1268 41.9088
26.31 41.1135
26.4933 41.1016
26.6767 42.2173
26.8601 41.5325
27.0437 39.6538
27.2272 39.1433
27.4109 38.7359
27.5946 38.9339
27.7784 38.7871
27.9623 38.706
28.1462 39.6392
28.3304 38.206
28.5145 36.4643
28.6987 35.9541
28.8829 35.612
29.0673 35.3834
29.2517 34.7078
29.4361 34.4064
29.6207 33.7671
29.8053 33.3092
29.99 33.0103
30.1748 32.7421
30.3597 32.7894
30.5447 32.6005
30.7297 32.5307
30.915 32.2067
31.1002 31.6623
31.2855 31.4337
31.4708 31.1186
31.6563 30.9733
31.8418 30.469
32.0275 30.3661
32.2132 29.9635
32.399 29.3668
32.5848 28.9085
32.7708 28.5308
32.9569 28.3702
33.143 28.1428
33.3293 27.7985
33.5158 27.4225
33.7022 26.9729
33.8887 26.6498
34.0753 26.351
34.262 25.9419
34.4488 25.5771
34.6357 25.2783
34.8227 24.8961
35.0098 24.7283
35.1969 24.5567
35.3842 24.1864
35.5716 24.1415
35.759 23.735
35.9468 23.305
36.1345 23.2046
36.3222 22.9793
36.5101 22.7719
36.6981 22.4442
36.8861 22.1096
37.0743 21.756
37.2626 21.4715
37.451 21.1883
37.6395 21.0514
37.8281 20.7236
38.0168 20.486
38.2056 20.1842
38.3945 19.9342
38.5837 19.63
38.7728 19.4878
38.9621 19.2018
39.1514 18.8553
39.3409 18.7414
39.5304 18.4921
39.7201 18.266
39.9099 18.0097
40.0999 17.8126
40.2899 17.6002
40.48 17.3689
40.6703 17.1472
40.8607 16.9233
41.0512 16.7444
41.242 16.4824
41.4327 16.2798
41.6236 16.0382
41.8146 15.8814
42.0057 15.552
42.1969 15.4172
42.3882 15.2103
42.5797 14.9795
42.7713 14.8443
42.963 14.5971
43.1549 14.4122
43.3468 14.1735
43.5389 13.9688
43.7312 13.7585
43.9237 13.6577
44.1162 13.4335
44.3088 13.2249
44.5016 13.0701
44.6945 12.8776
44.8875 12.6768
45.0806 12.4921
45.2739 12.3117
45.4673 12.2232
45.6609 12.0035
45.8546 11.8321
46.0484 11.6804
46.2424 11.515
46.4365 11.3427
46.631 11.1689
46.8254 10.9615
47.0199 10.8358
47.2146 10.6604
47.4095 10.5314
47.6044 10.3345
47.7996 10.1792
47.9948 10.0734
48.1902 9.90514
48.3858 9.79823
48.5815 9.62902
48.7774 9.51162
48.9734 9.36966
49.1696 9.18731
49.3661 9.06024
49.5626 8.8854
49.7592 8.83161
49.956 8.70367
50.153 8.53885
50.3501 8.41993
50.5474 8.28216
50.7448 8.18506
50.9424 8.06688
51.1402 7.9126
51.3381 7.76177
51.5362 7.64894
51.7344 7.55092
51.9328 7.40208
52.1316 7.25204
52.3304 7.14417
52.5293 7.04554
52.7284 6.91592
52.9276 6.77567
53.1271 6.72588
53.3267 6.58078
53.5265 6.47981
53.7264 6.33175
53.9266 6.23667
54.1269 6.11467
54.3274 5.99364
54.528 5.85723
54.7289 5.618
54.9301 5.50073
55.1314 5.34483
55.3328 5.09883
55.5344 4.92574
55.7361 4.82469