File: XRD/Ni3Fe_FD0542.xy
TT I
1.27165 7.4409
1.45013 6.55715
1.62863 5.59363
1.80712 4.67579
1.98562 4.76761
2.16411 5.59074
2.34263 5.80662
2.52115 6.17807
2.69965 7.86129
2.87818 8.13819
3.05672 11.3024
3.23527 15.2309
3.4138 18.8158
3.59237 25.1566
3.77094 26.2245
3.9495 29.9255
4.12809 35.7879
4.30669 287.036
4.4853 73.033
4.6639 55.595
4.84253 67.3724
5.02118 87.0902
5.19981 366.253
5.37848 207.17
5.55716 102.864
5.73586 92.4361
5.91455 94.5582
6.09328 4093.81
6.27201 85.2141
6.45075 68.081
6.62952 64.028
6.8083 59.7662
6.98711 56.9034
7.16591 56.2514
7.34475 106.732
7.5236 55.8403
7.70247 56.9647
7.88135 58.5999
8.06026 62.7389
8.23919 70.393
8.41812 86.5992
8.59709 1080.4
8.77609 101.617
8.9551 94.6592
9.13412 82.4601
9.31318 83.1358
9.49226 84.7412
9.67134 102.609
9.85047 100.352
10.0296 326.149
10.2088 458.013
10.388 105.946
10.5672 494.797
10.7465 87.4987
10.9257 79.5766
11.105 72.6804
11.2844 72.0703
11.4637 65.5941
11.6431 64.3399
11.8225 63.3648
12.002 63.5479
12.1814 145.649
12.3609 73.4463
12.5405 65.3566
12.72 72.1408
12.8996 71.4094
13.0792 79.1618
13.2589 223.211
13.4386 132.074
13.6183 230.706
13.7981 103.413
13.9779 76.5312
14.1577 73.4928
14.3376 73.3234
14.5175 69.3804
14.6974 71.2487
14.8774 107.649
15.0574 161.169
15.2374 72.7244
15.4175 67.0902
15.5976 66.4063
15.7778 93.1268
15.958 166.023
16.1382 64.2986
16.3185 59.8994
16.4988 56.2623
16.6792 55.3138
16.8596 55.917
17.04 56.4096
17.2205 66.3608
17.401 73.8693
17.5815 59.7739
17.7622 62.0339
17.9428 73.6434
18.1237 139.055
18.3044 89.2798
18.4852 81.2502
18.666 61.1093
18.8469 58.6266
19.0278 57.4772
19.2088 59.9896
19.3898 77.6293
19.5709 55.0002
19.752 53.882
19.9332 56.6378
20.1144 70.4595
20.2957 63.7119
20.477 54.9641
20.6586 50.3099
20.84 49.3354
21.0215 49.057
21.203 51.214
21.3846 49.6625
21.5662 49.2802
21.7479 52.6964
21.9297 65.4709
22.1115 56.7297
22.2933 50.7353
22.4753 49.5356
22.6572 49.3383
22.8393 52.1428
23.0214 58.4573
23.2037 49.4403
23.3859 50.1043
23.5682 57.0458
23.7505 49.2354
23.9329 45.7863
24.1154 44.5403
24.2979 43.957
24.4805 43.356
24.6631 43.4199
24.8458 42.6199
25.0286 43.287
25.2114 45.0258
25.3943 45.3712
25.5773 41.3519
25.7605 40.8995
25.9436 41.1811
26.1268 42.2062
26.31 40.6646
26.4933 41.1791
26.6767 42.743
26.8601 40.9107
27.0437 39.3078
27.2272 39.0879
27.4109 38.8979
27.5946 38.7856
27.7784 38.1623
27.9623 38.8106
28.1462 39.334
28.3304 37.6416
28.5145 36.4151
28.6987 36.028
28.8829 35.9154
29.0673 35.1651
29.2517 34.6901
29.4361 34.5159
29.6207 33.5382
29.8053 33.3361
29.99 33.0439
30.1748 32.87
30.3597 32.6884
30.5447 32.5948
30.7297 32.5683
30.915 31.9657
31.1002 31.4552
31.2855 31.1932
31.4708 31.2225
31.6563 30.7111
31.8418 30.5363
32.0275 30.2862
32.2132 29.8283
32.399 29.2774
32.5848 28.7904
32.7708 28.5412
32.9569 28.4026
33.143 28.0999
33.3293 27.7172
33.5158 27.361
33.7022 26.8668
33.8887 26.6674
34.0753 26.3203
34.262 25.92
34.4488 25.6614
34.6357 25.319
34.8227 24.9891
35.0098 24.7549
35.1969 24.4429
35.3842 24.2513
35.5716 24.0427
35.759 23.708
35.9468 23.3567
36.1345 23.2012
36.3222 22.9699
36.5101 22.6922
36.6981 22.3682
36.8861 22.0857
37.0743 21.7327
37.2626 21.4673
37.451 21.2853
37.6395 21.0712
37.8281 20.6999
38.0168 20.469
38.2056 20.1739
38.3945 19.9397
38.5837 19.6842
38.7728 19.4642
38.9621 19.2045
39.1514 18.8793
39.3409 18.6974
39.5304 18.4423
39.7201 18.322
39.9099 18.0678
40.0999 17.7969
40.2899 17.5469
40.48 17.3975
40.6703 17.1573
40.8607 16.9616
41.0512 16.7118
41.242 16.4736
41.4327 16.1964
41.6236 16.0195
41.8146 15.8821
42.0057 15.5889
42.1969 15.4175
42.3882 15.1872
42.5797 15.0055
42.7713 14.813
42.963 14.6379
43.1549 14.4235
43.3468 14.2012
43.5389 14.0221
43.7312 13.8385
43.9237 13.6757
44.1162 13.4477
44.3088 13.2476
44.5016 13.0365
44.6945 12.9223
44.8875 12.705
45.0806 12.5174
45.2739 12.3442
45.4673 12.1976
45.6609 11.9586
45.8546 11.8863
46.0484 11.6578
46.2424 11.5024
46.4365 11.3578
46.631 11.1341
46.8254 10.9746
47.0199 10.8641
47.2146 10.7184
47.4095 10.5135
47.6044 10.3581
47.7996 10.2061
47.9948 10.0274
48.1902 9.94422
48.3858 9.74279
48.5815 9.63647
48.7774 9.53369
48.9734 9.37666
49.1696 9.22537
49.3661 9.10881
49.5626 8.94446
49.7592 8.83481
49.956 8.67357
50.153 8.5623
50.3501 8.39037
50.5474 8.31141
50.7448 8.18379
50.9424 8.03652
51.1402 7.93164
51.3381 7.77488
51.5362 7.6425
51.7344 7.49183
51.9328 7.36705
52.1316 7.23528
52.3304 7.18616
52.5293 7.03415
52.7284 6.92913
52.9276 6.8023
53.1271 6.76168
53.3267 6.57599
53.5265 6.44349
53.7264 6.35029
53.9266 6.25227
54.1269 6.12192
54.3274 6.01968
54.528 5.82229
54.7289 5.75766
54.9301 5.54854
55.1314 5.43831
55.3328 5.21297
55.5344 5.07
55.7361 4.91119