File: XRD/Ni3Fe_FD0028.xy
TT I
1.27165 33.1583
1.45013 28.8756
1.62863 25.358
1.80712 23.2023
1.98562 23.2423
2.16411 24.9459
2.34263 25.0533
2.52115 23.7168
2.69965 27.887
2.87818 37.9243
3.05672 64.2942
3.23527 74.3047
3.4138 40.3904
3.59237 38.4205
3.77094 38.7817
3.9495 35.9874
4.12809 48.83
4.30669 92.3077
4.4853 60.6135
4.6639 45.7651
4.84253 52.7825
5.02118 87.5969
5.19981 285.695
5.37848 3623.25
5.55716 154.695
5.73586 100.859
5.91455 112.504
6.09328 475.175
6.27201 296.177
6.45075 71.6615
6.62952 56.2853
6.8083 55.5722
6.98711 44.3006
7.16591 47.4241
7.34475 77.0909
7.5236 55.4176
7.70247 44.9632
7.88135 37.5309
8.06026 39.554
8.23919 45.1712
8.41812 57.9539
8.59709 165.789
8.77609 609.463
8.9551 77.2143
9.13412 59.268
9.31318 249.162
9.49226 53.6318
9.67134 54.4544
9.85047 61.8049
10.0296 104.14
10.2088 528.62
10.388 125.931
10.5672 92.4375
10.7465 252.426
10.9257 49.1815
11.105 43.4855
11.2844 42.5615
11.4637 38.8965
11.6431 38.0457
11.8225 37.238
12.002 74.7992
12.1814 47.5374
12.3609 95.6691
12.5405 44.7166
12.72 42.2889
12.8996 40.3005
13.0792 43.1245
13.2589 64.7848
13.4386 158.808
13.6183 89.6987
13.7981 167.969
13.9779 59.8345
14.1577 48.8981
14.3376 46.5208
14.5175 39.0232
14.6974 39.2154
14.8774 44.0747
15.0574 62.7602
15.2374 84.2069
15.4175 41.5958
15.5976 38.9039
15.7778 42.0794
15.958 55.5548
16.1382 108.269
16.3185 39.567
16.4988 34.2315
16.6792 32.2287
16.8596 32.3089
17.04 39.9364
17.2205 33.9491
17.401 37.0942
17.5815 45.902
17.7622 35.7083
17.9428 40.1017
18.1237 43.6897
18.3044 92.0317
18.4852 55.4246
18.666 60.2514
18.8469 36.2008
19.0278 33.9278
19.2088 33.9677
19.3898 40.4588
19.5709 47.1622
19.752 35.3225
19.9332 32.0365
20.1144 32.7727
20.2957 43.4884
20.477 38.7791
20.6586 37.2442
20.84 32.3047
21.0215 29.7757
21.203 28.8905
21.3846 29.6084
21.5662 31.9644
21.7479 29.9397
21.9297 31.3343
22.1115 41.4668
22.2933 41.0621
22.4753 34.5884
22.6572 30.1963
22.8393 30.7792
23.0214 31.3527
23.2037 39.3969
23.3859 33.0228
23.5682 34.059
23.7505 34.5188
23.9329 38.9656
24.1154 29.318
24.2979 27.5434
24.4805 26.7275
24.6631 26.7261
24.8458 27.8126
25.0286 26.3866
25.2114 26.4703
25.3943 28.9378
25.5773 30.2635
25.7605 28.0796
25.9436 26.8391
26.1268 25.7171
26.31 26.7616
26.4933 27.3397
26.6767 25.9086
26.8601 27.576
27.0437 29.6341
27.2272 26.5186
27.4109 24.8758
27.5946 24.6865
27.7784 25.0986
27.9623 24.9645
28.1462 25.4323
28.3304 26.9809
28.5145 26.6732
28.6987 24.5472
28.8829 23.1306
29.0673 22.7715
29.2517 23.3456
29.4361 22.1534
29.6207 22.0755
29.8053 22.4742
29.99 21.3845
30.1748 21.4415
30.3597 21.0259
30.5447 21.4593
30.7297 21.096
30.915 21.2534
31.1002 22.4801
31.2855 21.5025
31.4708 20.5129
31.6563 20.5691
31.8418 21.2183
32.0275 20.3654
32.2132 20.4584
32.399 20.524
32.5848 19.5241
32.7708 18.95
32.9569 18.8919
33.143 18.8306
33.3293 18.4161
33.5158 18.8072
33.7022 18.7524
33.8887 17.8514
34.0753 17.7649
34.262 17.5658
34.4488 17.2202
34.6357 17.085
34.8227 16.8482
35.0098 16.5459
35.1969 16.3661
35.3842 16.3017
35.5716 16.2295
35.759 16.3864
35.9468 16.3645
36.1345 15.8946
36.3222 15.6425
36.5101 15.5823
36.6981 15.3676
36.8861 15.1806
37.0743 15.0962
37.2626 14.76
37.451 14.5203
37.6395 14.4089
37.8281 14.1995
38.0168 13.987
38.2056 13.9279
38.3945 13.6052
38.5837 13.5147
38.7728 13.4269
38.9621 13.173
39.1514 13.1035
39.3409 12.8631
39.5304 12.6773
39.7201 12.5422
39.9099 12.3413
40.0999 12.3213
40.2899 12.2071
40.48 12.0035
40.6703 11.9042
40.8607 11.7772
41.0512 11.6505
41.242 11.5128
41.4327 11.2897
41.6236 11.1587
41.8146 11.0354
42.0057 10.8879
42.1969 10.7785
42.3882 10.6754
42.5797 10.5014
42.7713 10.3446
42.963 10.1945
43.1549 10.1043
43.3468 9.93501
43.5389 9.80734
43.7312 9.6601
43.9237 9.52263
44.1162 9.44881
44.3088 9.29708
44.5016 9.15337
44.6945 9.11523
44.8875 8.9233
45.0806 8.81186
45.2739 8.70943
45.4673 8.56876
45.6609 8.5025
45.8546 8.38176
46.0484 8.21153
46.2424 8.11101
46.4365 8.03672
46.631 7.89124
46.8254 7.79199
47.0199 7.72099
47.2146 7.56213
47.4095 7.47953
47.6044 7.37466
47.7996 7.26354
47.9948 7.1342
48.1902 7.03619
48.3858 6.92008
48.5815 6.8705
48.7774 6.78247
48.9734 6.67263
49.1696 6.54365
49.3661 6.47797
49.5626 6.39331
49.7592 6.30132
49.956 6.21769
50.153 6.11144
50.3501 6.02984
50.5474 5.94898
50.7448 5.86173
50.9424 5.77141
51.1402 5.69672
51.3381 5.60535
51.5362 5.52683
51.7344 5.43413
51.9328 5.3334
52.1316 5.24061
52.3304 5.18504
52.5293 5.10286
52.7284 5.03853
52.9276 4.92377
53.1271 4.87329
53.3267 4.77154
53.5265 4.72229
53.7264 4.62873
53.9266 4.53664
54.1269 4.45378
54.3274 4.31107
54.528 4.23268
54.7289 4.09463
54.9301 3.94569
55.1314 3.85212
55.3328 3.67406
55.5344 3.5327
55.7361 3.46557