File: XRD/Ni3Fe_FD0321.xy
TT I
1.27165 7.74222
1.45013 6.55697
1.62863 5.08279
1.80712 4.93974
1.98562 4.27903
2.16411 5.04501
2.34263 4.66349
2.52115 5.68299
2.69965 6.92313
2.87818 8.35536
3.05672 11.3957
3.23527 14.9954
3.4138 18.9219
3.59237 24.4331
3.77094 26.7888
3.9495 30.4851
4.12809 35.3887
4.30669 209.748
4.4853 65.6574
4.6639 56.9554
4.84253 69.2782
5.02118 91.0304
5.19981 522.795
5.37848 233.22
5.55716 106.158
5.73586 95.9378
5.91455 100.533
6.09328 3970.39
6.27201 86.3678
6.45075 69.5904
6.62952 64.2814
6.8083 60.2532
6.98711 57.451
7.16591 56.8743
7.34475 91.9516
7.5236 56.2255
7.70247 57.584
7.88135 59.5538
8.06026 63.9188
8.23919 71.675
8.41812 88.8253
8.59709 1126.28
8.77609 105.563
8.9551 94.3735
9.13412 84.2245
9.31318 85.3893
9.49226 87.1
9.67134 101.189
9.85047 103.384
10.0296 404.036
10.2088 499.812
10.388 109.048
10.5672 475.471
10.7465 89.5258
10.9257 80.6878
11.105 73.8568
11.2844 72.6019
11.4637 66.5582
11.6431 65.3688
11.8225 64.1801
12.002 66.1253
12.1814 148.474
12.3609 72.8854
12.5405 66.2777
12.72 72.1828
12.8996 73.0804
13.0792 81.8968
13.2589 235.383
13.4386 135.172
13.6183 235.917
13.7981 104.706
13.9779 78.2308
14.1577 74.6283
14.3376 73.607
14.5175 70.9084
14.6974 72.724
14.8774 115.111
15.0574 160.605
15.2374 73.1865
15.4175 68.4757
15.5976 67.946
15.7778 99.6864
15.958 170.273
16.1382 64.6184
16.3185 60.4053
16.4988 57.3526
16.6792 56.1907
16.8596 56.9133
17.04 57.6057
17.2205 68.5988
17.401 74.925
17.5815 60.984
17.7622 63.2074
17.9428 77.6785
18.1237 139.056
18.3044 90.8746
18.4852 81.5898
18.666 62.4218
18.8469 59.8399
19.0278 58.6302
19.2088 61.987
19.3898 77.9073
19.5709 55.8689
19.752 55.0607
19.9332 58.2284
20.1144 71.5032
20.2957 64.5461
20.477 55.9308
20.6586 51.3118
20.84 50.4152
21.0215 50.3106
21.203 52.3111
21.3846 50.5947
21.5662 50.6703
21.7479 54.3317
21.9297 66.3655
22.1115 57.2733
22.2933 51.6774
22.4753 50.4434
22.6572 50.6138
22.8393 53.4018
23.0214 59.4187
23.2037 50.4069
23.3859 51.4913
23.5682 57.6524
23.7505 50.0611
23.9329 46.6568
24.1154 45.5641
24.2979 44.8036
24.4805 44.3583
24.6631 44.3532
24.8458 43.771
25.0286 44.2494
25.2114 46.1068
25.3943 46.1521
25.5773 42.3064
25.7605 41.879
25.9436 42.1468
26.1268 43.1098
26.31 41.3911
26.4933 41.878
26.6767 43.4441
26.8601 41.7559
27.0437 40.0575
27.2272 39.7329
27.4109 39.6875
27.5946 39.4919
27.7784 39.1136
27.9623 39.4829
28.1462 39.9571
28.3304 38.3815
28.5145 37.1008
28.6987 36.7572
28.8829 36.5603
29.0673 35.7256
29.2517 35.3849
29.4361 35.2046
29.6207 34.2304
29.8053 33.9567
29.99 33.5869
30.1748 33.4326
30.3597 33.3249
30.5447 33.2138
30.7297 33.2401
30.915 32.6089
31.1002 32.0956
31.2855 31.7079
31.4708 31.7201
31.6563 31.3245
31.8418 31.0622
32.0275 30.8535
32.2132 30.4249
32.399 29.8301
32.5848 29.4492
32.7708 29.0427
32.9569 28.8645
33.143 28.6161
33.3293 28.3079
33.5158 27.8937
33.7022 27.3716
33.8887 27.0888
34.0753 26.8019
34.262 26.4777
34.4488 26.0657
34.6357 25.7632
34.8227 25.4295
35.0098 25.2793
35.1969 24.9897
35.3842 24.7912
35.5716 24.4958
35.759 24.2025
35.9468 23.8253
36.1345 23.6928
36.3222 23.3827
36.5101 23.1014
36.6981 22.8118
36.8861 22.4592
37.0743 22.1823
37.2626 21.9517
37.451 21.6768
37.6395 21.4834
37.8281 21.0898
38.0168 20.8313
38.2056 20.6012
38.3945 20.3057
38.5837 20.1045
38.7728 19.838
38.9621 19.5984
39.1514 19.2677
39.3409 19.0631
39.5304 18.8328
39.7201 18.6267
39.9099 18.3542
40.0999 18.2208
40.2899 17.8977
40.48 17.6322
40.6703 17.5348
40.8607 17.287
41.0512 17.0652
41.242 16.7733
41.4327 16.5462
41.6236 16.3097
41.8146 16.1576
42.0057 15.8958
42.1969 15.6942
42.3882 15.5264
42.5797 15.3122
42.7713 15.0587
42.963 14.9001
43.1549 14.7007
43.3468 14.4314
43.5389 14.2753
43.7312 14.0696
43.9237 13.8838
44.1162 13.7016
44.3088 13.4985
44.5016 13.2741
44.6945 13.1163
44.8875 12.9047
45.0806 12.735
45.2739 12.5694
45.4673 12.4249
45.6609 12.2265
45.8546 12.0458
46.0484 11.919
46.2424 11.6905
46.4365 11.5541
46.631 11.3705
46.8254 11.1749
47.0199 11.0227
47.2146 10.8867
47.4095 10.7194
47.6044 10.559
47.7996 10.3656
47.9948 10.2608
48.1902 10.1054
48.3858 9.95998
48.5815 9.81446
48.7774 9.68823
48.9734 9.52438
49.1696 9.37408
49.3661 9.20811
49.5626 9.07831
49.7592 8.95397
49.956 8.87974
50.153 8.6676
50.3501 8.56555
50.5474 8.43031
50.7448 8.33077
50.9424 8.19932
51.1402 8.03857
51.3381 7.89344
51.5362 7.78767
51.7344 7.65732
51.9328 7.50454
52.1316 7.38121
52.3304 7.26998
52.5293 7.19575
52.7284 7.04082
52.9276 6.89126
53.1271 6.83324
53.3267 6.71722
53.5265 6.56602
53.7264 6.48777
53.9266 6.35603
54.1269 6.24585
54.3274 6.13323
54.528 5.93391
54.7289 5.82555
54.9301 5.65665
55.1314 5.53886
55.3328 5.3117
55.5344 5.13517
55.7361 4.89018