File: XRD/Ni3Fe_FD1063.xy
TT I
1.27165 6.94675
1.45013 6.24403
1.62863 4.56874
1.80712 4.37382
1.98562 4.10279
2.16411 4.48003
2.34263 4.96656
2.52115 7.23666
2.69965 8.35115
2.87818 9.03422
3.05672 11.1171
3.23527 14.5154
3.4138 17.898
3.59237 21.7656
3.77094 24.2662
3.9495 28.0998
4.12809 32.3507
4.30669 56.565
4.4853 46.225
4.6639 52.7841
4.84253 64.1084
5.02118 83.1445
5.19981 230.371
5.37848 209.812
5.55716 97.4334
5.73586 88.0735
5.91455 88.9418
6.09328 4579.09
6.27201 75.9986
6.45075 63.6233
6.62952 58.1899
6.8083 54.4559
6.98711 52.6454
7.16591 51.8369
7.34475 56.0314
7.5236 58.448
7.70247 52.8755
7.88135 55.2685
8.06026 59.281
8.23919 65.6884
8.41812 78.1297
8.59709 1099.85
8.77609 95.1288
8.9551 82.4577
9.13412 79.0075
9.31318 88.8557
9.49226 81.2164
9.67134 86.7342
9.85047 94.2611
10.0296 348.992
10.2088 449.589
10.388 97.7024
10.5672 510.893
10.7465 86.4651
10.9257 73.6716
11.105 68.3049
11.2844 65.1381
11.4637 61.6443
11.6431 60.7386
11.8225 59.7731
12.002 66.3669
12.1814 146.79
12.3609 64.8603
12.5405 61.5673
12.72 63.7515
12.8996 68.3296
13.0792 76.5719
13.2589 229.578
13.4386 127.965
13.6183 236.822
13.7981 100.624
13.9779 73.5164
14.1577 74.9355
14.3376 67.5472
14.5175 66.6439
14.6974 67.5742
14.8774 110.343
15.0574 160.12
15.2374 66.7459
15.4175 63.9338
15.5976 63.5161
15.7778 94.8608
15.958 169.592
16.1382 60.0064
16.3185 55.6472
16.4988 53.3417
16.6792 52.662
16.8596 52.9054
17.04 53.9848
17.2205 65.1088
17.401 72.4747
17.5815 57.3941
17.7622 60.1491
17.9428 73.579
18.1237 142.924
18.3044 89.0178
18.4852 79.4815
18.666 58.952
18.8469 56.8364
19.0278 55.1955
19.2088 58.1324
19.3898 76.2367
19.5709 53.07
19.752 51.8741
19.9332 55.224
20.1144 70.471
20.2957 63.573
20.477 53.0772
20.6586 48.3646
20.84 47.8401
21.0215 47.4743
21.203 49.7203
21.3846 48.0401
21.5662 47.6617
21.7479 51.8706
21.9297 65.5175
22.1115 55.8969
22.2933 49.0497
22.4753 47.5922
22.6572 47.6398
22.8393 51.4607
23.0214 57.4578
23.2037 47.9106
23.3859 49.5152
23.5682 57.3226
23.7505 48.3568
23.9329 44.2937
24.1154 43.1158
24.2979 42.443
24.4805 42.1771
24.6631 42.0363
24.8458 41.4092
25.0286 41.9269
25.2114 44.2822
25.3943 44.4844
25.5773 40.1876
25.7605 39.6847
25.9436 40.1244
26.1268 41.2687
26.31 39.5354
26.4933 40.1605
26.6767 41.9592
26.8601 40.1663
27.0437 38.2848
27.2272 37.9581
27.4109 37.8189
27.5946 38.0403
27.7784 37.527
27.9623 38.1743
28.1462 38.8355
28.3304 36.8747
28.5145 35.4687
28.6987 35.0653
28.8829 34.8996
29.0673 34.1851
29.2517 33.8641
29.4361 33.7258
29.6207 32.6568
29.8053 32.4769
29.99 32.1404
30.1748 31.9542
30.3597 31.8138
30.5447 31.7458
30.7297 31.8669
30.915 31.2645
31.1002 30.7195
31.2855 30.5978
31.4708 30.495
31.6563 30.0232
31.8418 29.7902
32.0275 29.7361
32.2132 28.9717
32.399 28.5608
32.5848 28.0043
32.7708 27.8078
32.9569 27.6844
33.143 27.5193
33.3293 27.0862
33.5158 26.7394
33.7022 26.1313
33.8887 25.9531
34.0753 25.6091
34.262 25.3416
34.4488 24.9963
34.6357 24.5816
34.8227 24.3265
35.0098 24.1244
35.1969 23.8007
35.3842 23.7396
35.5716 23.558
35.759 23.1531
35.9468 22.8084
36.1345 22.6152
36.3222 22.4377
36.5101 22.2167
36.6981 21.8703
36.8861 21.4587
37.0743 21.254
37.2626 21.004
37.451 20.6724
37.6395 20.5916
37.8281 20.1798
38.0168 19.9506
38.2056 19.7384
38.3945 19.3746
38.5837 19.2029
38.7728 19.0534
38.9621 18.7328
39.1514 18.4277
39.3409 18.1891
39.5304 17.9508
39.7201 17.8147
39.9099 17.5707
40.0999 17.4128
40.2899 17.1824
40.48 16.9138
40.6703 16.7011
40.8607 16.5964
41.0512 16.3695
41.242 16.0503
41.4327 15.8445
41.6236 15.6253
41.8146 15.4554
42.0057 15.24
42.1969 15.0295
42.3882 14.8752
42.5797 14.6292
42.7713 14.4287
42.963 14.221
43.1549 14.0504
43.3468 13.8337
43.5389 13.6598
43.7312 13.4984
43.9237 13.2907
44.1162 13.053
44.3088 12.9343
44.5016 12.7382
44.6945 12.6168
44.8875 12.4103
45.0806 12.1874
45.2739 12.0359
45.4673 11.876
45.6609 11.7087
45.8546 11.5725
46.0484 11.3951
46.2424 11.2038
46.4365 11.1016
46.631 10.9005
46.8254 10.7643
47.0199 10.6101
47.2146 10.4283
47.4095 10.251
47.6044 10.1221
47.7996 9.95031
47.9948 9.82106
48.1902 9.66783
48.3858 9.56205
48.5815 9.43131
48.7774 9.25396
48.9734 9.10904
49.1696 8.95739
49.3661 8.8417
49.5626 8.67735
49.7592 8.58695
49.956 8.49845
50.153 8.34458
50.3501 8.20732
50.5474 8.06557
50.7448 7.95661
50.9424 7.82536
51.1402 7.72178
51.3381 7.57715
51.5362 7.45682
51.7344 7.36861
51.9328 7.23493
52.1316 7.05318
52.3304 6.98206
52.5293 6.88431
52.7284 6.75608
52.9276 6.63576
53.1271 6.53104
53.3267 6.42629
53.5265 6.30875
53.7264 6.18319
53.9266 6.07075
54.1269 5.93325
54.3274 5.90743
54.528 5.75243
54.7289 5.59362
54.9301 5.40728
55.1314 5.27766
55.3328 5.0867
55.5344 4.88445
55.7361 4.77295