File: XRD/Ni3Fe_FD0332.xy
TT I
1.27165 7.95367
1.45013 7.00025
1.62863 5.88747
1.80712 5.28432
1.98562 4.69921
2.16411 4.83387
2.34263 4.02122
2.52115 5.39965
2.69965 7.50981
2.87818 8.41017
3.05672 11.0701
3.23527 15.0224
3.4138 18.8671
3.59237 23.7602
3.77094 26.5108
3.9495 30.2796
4.12809 35.544
4.30669 168.562
4.4853 61.6706
4.6639 56.9959
4.84253 69.3763
5.02118 91.9248
5.19981 563.57
5.37848 226.717
5.55716 106.442
5.73586 96.5397
5.91455 102.093
6.09328 4053.09
6.27201 86.7569
6.45075 69.233
6.62952 64.3824
6.8083 59.8876
6.98711 56.9303
7.16591 56.3841
7.34475 82.7795
7.5236 55.6464
7.70247 57.8812
7.88135 59.5699
8.06026 63.9057
8.23919 71.7138
8.41812 88.7226
8.59709 1161.16
8.77609 104.845
8.9551 92.5532
9.13412 84.5566
9.31318 85.3007
9.49226 87.0545
9.67134 99.8899
9.85047 103.722
10.0296 425.453
10.2088 494.347
10.388 109.421
10.5672 482.5
10.7465 89.5915
10.9257 80.4815
11.105 73.6879
11.2844 71.5314
11.4637 66.8814
11.6431 65.6366
11.8225 64.3695
12.002 66.2425
12.1814 148.616
12.3609 71.8685
12.5405 66.326
12.72 71.3455
12.8996 73.2845
13.0792 82.2339
13.2589 243.38
13.4386 133.386
13.6183 240.725
13.7981 103.041
13.9779 78.0755
14.1577 74.6099
14.3376 73.2675
14.5175 71.0984
14.6974 72.9697
14.8774 118.274
15.0574 156.411
15.2374 72.7411
15.4175 68.5697
15.5976 68.1021
15.7778 101.813
15.958 165.153
16.1382 64.2188
16.3185 60.0303
16.4988 57.2871
16.6792 56.1089
16.8596 56.7199
17.04 57.7152
17.2205 68.6504
17.401 74.5422
17.5815 61.0938
17.7622 63.3262
17.9428 78.6075
18.1237 140.199
18.3044 91.5188
18.4852 80.496
18.666 62.2093
18.8469 59.7302
19.0278 58.5774
19.2088 61.968
19.3898 77.4131
19.5709 55.9432
19.752 55.1344
19.9332 58.5
20.1144 71.2323
20.2957 64.5302
20.477 55.4828
20.6586 51.2245
20.84 50.2482
21.0215 50.1896
21.203 52.1927
21.3846 50.7575
21.5662 50.4622
21.7479 54.6106
21.9297 66.3973
22.1115 57.1191
22.2933 51.4626
22.4753 50.2616
22.6572 50.6189
22.8393 53.5306
23.0214 59.0656
23.2037 50.5013
23.3859 51.6374
23.5682 57.5495
23.7505 49.9469
23.9329 46.6626
24.1154 45.4933
24.2979 44.8825
24.4805 44.0881
24.6631 44.1906
24.8458 43.5038
25.0286 44.1938
25.2114 45.9361
25.3943 46.0111
25.5773 42.2141
25.7605 41.7246
25.9436 42.0248
26.1268 42.8925
26.31 41.4188
26.4933 41.9995
26.6767 43.4198
26.8601 41.5901
27.0437 40.1997
27.2272 39.7645
27.4109 39.4755
27.5946 39.5357
27.7784 39.1159
27.9623 39.5253
28.1462 40.0161
28.3304 38.3666
28.5145 37.0291
28.6987 36.5933
28.8829 36.4939
29.0673 35.7282
29.2517 35.3328
29.4361 35.1006
29.6207 34.161
29.8053 33.8206
29.99 33.4281
30.1748 33.4228
30.3597 33.2916
30.5447 33.1982
30.7297 33.1384
30.915 32.4595
31.1002 32.0446
31.2855 31.774
31.4708 31.6273
31.6563 31.3109
31.8418 30.9701
32.0275 30.8614
32.2132 30.2717
32.399 29.7553
32.5848 29.3334
32.7708 29.0567
32.9569 28.8453
33.143 28.6291
33.3293 28.2562
33.5158 27.7739
33.7022 27.3445
33.8887 27.1402
34.0753 26.7269
34.262 26.3556
34.4488 26.0135
34.6357 25.7065
34.8227 25.4476
35.0098 25.2942
35.1969 24.8641
35.3842 24.6154
35.5716 24.4613
35.759 24.1779
35.9468 23.7883
36.1345 23.5808
36.3222 23.2818
36.5101 23.0875
36.6981 22.7837
36.8861 22.4764
37.0743 22.1511
37.2626 21.8349
37.451 21.5786
37.6395 21.4071
37.8281 21.0895
38.0168 20.7587
38.2056 20.5411
38.3945 20.2347
38.5837 20.0267
38.7728 19.8058
38.9621 19.5521
39.1514 19.1984
39.3409 18.995
39.5304 18.7626
39.7201 18.6312
39.9099 18.3127
40.0999 18.0811
40.2899 17.8693
40.48 17.687
40.6703 17.391
40.8607 17.1611
41.0512 16.9671
41.242 16.7193
41.4327 16.5499
41.6236 16.3218
41.8146 16.1298
42.0057 15.8824
42.1969 15.689
42.3882 15.4534
42.5797 15.2294
42.7713 15.045
42.963 14.8529
43.1549 14.6292
43.3468 14.3871
43.5389 14.2221
43.7312 14.04
43.9237 13.8474
44.1162 13.6883
44.3088 13.4341
44.5016 13.2843
44.6945 13.0917
44.8875 12.8861
45.0806 12.6908
45.2739 12.5535
45.4673 12.3588
45.6609 12.1798
45.8546 12.0085
46.0484 11.848
46.2424 11.6808
46.4365 11.5522
46.631 11.3074
46.8254 11.1532
47.0199 11.0381
47.2146 10.8506
47.4095 10.6516
47.6044 10.4989
47.7996 10.3981
47.9948 10.191
48.1902 10.071
48.3858 9.96677
48.5815 9.78657
48.7774 9.66767
48.9734 9.51183
49.1696 9.35769
49.3661 9.2383
49.5626 9.03457
49.7592 8.94836
49.956 8.80911
50.153 8.7129
50.3501 8.47973
50.5474 8.43059
50.7448 8.26841
50.9424 8.15834
51.1402 8.04233
51.3381 7.90004
51.5362 7.73941
51.7344 7.6327
51.9328 7.47259
52.1316 7.32301
52.3304 7.26887
52.5293 7.16739
52.7284 7.04231
52.9276 6.92311
53.1271 6.79461
53.3267 6.69837
53.5265 6.5767
53.7264 6.48283
53.9266 6.3224
54.1269 6.22908
54.3274 6.10769
54.528 5.96663
54.7289 5.77047
54.9301 5.63327
55.1314 5.48314
55.3328 5.33709
55.5344 5.11958
55.7361 4.98932