File: XRD/Ni3Fe_FD0110.xy
TT I
1.27165 8.42476
1.45013 6.87887
1.62863 5.94331
1.80712 5.61738
1.98562 4.55773
2.16411 5.00199
2.34263 4.32653
2.52115 3.97503
2.69965 4.99916
2.87818 7.75421
3.05672 11.0645
3.23527 14.8597
3.4138 18.4574
3.59237 21.6234
3.77094 24.8454
3.9495 28.4192
4.12809 32.1336
4.30669 37.1222
4.4853 44.58
4.6639 52.8521
4.84253 65.7769
5.02118 91.8836
5.19981 624.884
5.37848 585.512
5.55716 109.314
5.73586 96.2915
5.91455 108.89
6.09328 2358.37
6.27201 93.3883
6.45075 66.5487
6.62952 59.2482
6.8083 55.1363
6.98711 53.1253
7.16591 51.7701
7.34475 51.6662
7.5236 57.1058
7.70247 53.274
7.88135 55.2412
8.06026 59.982
8.23919 67.5067
8.41812 83.907
8.59709 798.261
8.77609 123.778
8.9551 84.6988
9.13412 80.9958
9.31318 90.9068
9.49226 83.0076
9.67134 87.7029
9.85047 98.0385
10.0296 574.668
10.2088 1127.45
10.388 104.724
10.5672 284.849
10.7465 92.9047
10.9257 74.9176
11.105 69.3565
11.2844 65.4428
11.4637 62.5101
11.6431 61.4177
11.8225 60.6251
12.002 67.3706
12.1814 108.312
12.3609 78.5152
12.5405 62.298
12.72 64.3634
12.8996 68.9107
13.0792 78.7435
13.2589 191.143
13.4386 238.881
13.6183 175.75
13.7981 170.602
13.9779 75.2815
14.1577 75.309
14.3376 68.198
14.5175 67.6267
14.6974 68.5177
14.8774 120.047
15.0574 206.766
15.2374 68.55
15.4175 65.4049
15.5976 64.9105
15.7778 107.584
15.958 179.378
16.1382 61.6775
16.3185 56.5
16.4988 54.244
16.6792 53.4371
16.8596 53.6183
17.04 54.664
17.2205 63.8387
17.401 80.9139
17.5815 58.2772
17.7622 60.6917
17.9428 84.3309
18.1237 105.187
18.3044 87.7102
18.4852 97.8812
18.666 60.3036
18.8469 57.7452
19.0278 56.0938
19.2088 61.4471
19.3898 66.0701
19.5709 56.715
19.752 52.7722
19.9332 57.7139
20.1144 64.5421
20.2957 59.8878
20.477 59.9348
20.6586 49.0449
20.84 48.4712
21.0215 48.3547
21.203 48.6256
21.3846 50.0801
21.5662 48.3826
21.7479 53.5821
21.9297 59.8028
22.1115 55.8968
22.2933 52.7293
22.4753 48.3862
22.6572 48.598
22.8393 51.1322
23.0214 55.5772
23.2037 49.6918
23.3859 51.3875
23.5682 51.7149
23.7505 54.0038
23.9329 45.1865
24.1154 43.9328
24.2979 43.1678
24.4805 42.3644
24.6631 42.6317
24.8458 42.0708
25.0286 42.4978
25.2114 43.7074
25.3943 44.0453
25.5773 41.5129
25.7605 40.3491
25.9436 40.5686
26.1268 40.9434
26.31 40.6005
26.4933 40.4059
26.6767 41.3761
26.8601 40.9079
27.0437 38.9784
27.2272 38.4807
27.4109 37.9701
27.5946 38.388
27.7784 38.1559
27.9623 37.98
28.1462 38.7393
28.3304 37.6544
28.5145 36.0325
28.6987 35.5911
28.8829 35.1407
29.0673 34.7934
29.2517 34.0663
29.4361 33.7165
29.6207 33.3248
29.8053 32.6583
29.99 32.3488
30.1748 32.1128
30.3597 32.1897
30.5447 31.9809
30.7297 31.8695
30.915 31.7075
31.1002 31.1567
31.2855 30.7304
31.4708 30.587
31.6563 30.3911
31.8418 29.9205
32.0275 29.7336
32.2132 29.4154
32.399 28.8136
32.5848 28.3576
32.7708 27.9873
32.9569 27.9392
33.143 27.6273
33.3293 27.3106
33.5158 27.0927
33.7022 26.4935
33.8887 26.1259
34.0753 25.9084
34.262 25.5031
34.4488 25.2377
34.6357 24.854
34.8227 24.5428
35.0098 24.3179
35.1969 24.0524
35.3842 23.8424
35.5716 23.7082
35.759 23.4023
35.9468 23.0402
36.1345 22.7509
36.3222 22.5467
36.5101 22.2889
36.6981 21.9973
36.8861 21.7184
37.0743 21.436
37.2626 21.163
37.451 20.9297
37.6395 20.7342
37.8281 20.4255
38.0168 20.072
38.2056 19.8097
38.3945 19.5942
38.5837 19.3375
38.7728 19.1331
38.9621 18.8886
39.1514 18.5337
39.3409 18.367
39.5304 18.1148
39.7201 17.9649
39.9099 17.7604
40.0999 17.4832
40.2899 17.2574
40.48 16.9888
40.6703 16.8142
40.8607 16.6533
41.0512 16.478
41.242 16.1305
41.4327 15.9549
41.6236 15.7697
41.8146 15.5324
42.0057 15.3493
42.1969 15.1067
42.3882 14.9951
42.5797 14.7451
42.7713 14.5235
42.963 14.3413
43.1549 14.0881
43.3468 13.9932
43.5389 13.783
43.7312 13.5715
43.9237 13.393
44.1162 13.2156
44.3088 13.0378
44.5016 12.7836
44.6945 12.6392
44.8875 12.4529
45.0806 12.2759
45.2739 12.1261
45.4673 11.9441
45.6609 11.772
45.8546 11.6155
46.0484 11.4758
46.2424 11.27
46.4365 11.1455
46.631 10.955
46.8254 10.798
47.0199 10.6538
47.2146 10.5351
47.4095 10.3361
47.6044 10.1634
47.7996 10.0144
47.9948 9.88313
48.1902 9.73462
48.3858 9.60258
48.5815 9.49193
48.7774 9.36464
48.9734 9.20885
49.1696 9.05781
49.3661 8.93962
49.5626 8.78325
49.7592 8.7026
49.956 8.54298
50.153 8.42369
50.3501 8.27524
50.5474 8.11868
50.7448 8.0264
50.9424 7.90386
51.1402 7.77993
51.3381 7.67335
51.5362 7.52009
51.7344 7.37422
51.9328 7.2589
52.1316 7.12918
52.3304 7.04823
52.5293 6.90597
52.7284 6.80689
52.9276 6.70854
53.1271 6.60723
53.3267 6.4571
53.5265 6.35429
53.7264 6.23144
53.9266 6.14207
54.1269 6.03099
54.3274 5.90489
54.528 5.76025
54.7289 5.51521
54.9301 5.39091
55.1314 5.27089
55.3328 4.9848
55.5344 4.83688
55.7361 4.67494