File: XRD/Ni3Fe_FD0223.xy
TT I
1.27165 7.50814
1.45013 7.16474
1.62863 6.38125
1.80712 5.54717
1.98562 4.78468
2.16411 4.81817
2.34263 4.83891
2.52115 4.9537
2.69965 6.06348
2.87818 7.87325
3.05672 11.3623
3.23527 14.9223
3.4138 18.6942
3.59237 22.6439
3.77094 25.8129
3.9495 29.9015
4.12809 34.9743
4.30669 40.5108
4.4853 49.0518
4.6639 58.1746
4.84253 71.6665
5.02118 97.0285
5.19981 889.349
5.37848 273.815
5.55716 112.179
5.73586 101.431
5.91455 110.426
6.09328 3608.73
6.27201 89.2828
6.45075 71.1662
6.62952 63.9402
6.8083 60.1747
6.98711 57.3134
7.16591 56.4801
7.34475 55.7854
7.5236 56.2061
7.70247 58.2953
7.88135 60.3912
8.06026 65.6742
8.23919 73.7389
8.41812 90.8023
8.59709 1059.49
8.77609 111.035
8.9551 91.064
9.13412 87.3692
9.31318 88.0283
9.49226 89.7574
9.67134 95.7041
9.85047 107.006
10.0296 519.303
10.2088 557.444
10.388 115.205
10.5672 438.518
10.7465 92.5251
10.9257 80.8685
11.105 74.9349
11.2844 70.7669
11.4637 67.9428
11.6431 66.2391
11.8225 65.2399
12.002 68.7986
12.1814 140.085
12.3609 70.1994
12.5405 67.4578
12.72 69.7393
12.8996 74.8715
13.0792 86.4764
13.2589 228.186
13.4386 149.932
13.6183 224.776
13.7981 112.756
13.9779 80.0334
14.1577 75.4452
14.3376 73.1261
14.5175 72.747
14.6974 74.7004
14.8774 119.369
15.0574 172.32
15.2374 72.4432
15.4175 69.8173
15.5976 69.8189
15.7778 103.486
15.958 178.575
16.1382 63.9485
16.3185 60.1847
16.4988 58.0265
16.6792 57.2684
16.8596 57.3713
17.04 59.2611
17.2205 68.9207
17.401 77.503
17.5815 62.1567
17.7622 64.6599
17.9428 82.8739
18.1237 139.242
18.3044 90.199
18.4852 84.2428
18.666 63.4317
18.8469 60.8788
19.0278 59.7243
19.2088 62.9201
19.3898 76.3664
19.5709 57.0495
19.752 56.1796
19.9332 59.4072
20.1144 72.5654
20.2957 64.3793
20.477 57.0217
20.6586 51.9483
20.84 51.3292
21.0215 51.2817
21.203 52.5564
21.3846 51.6481
21.5662 51.9952
21.7479 55.5794
21.9297 66.7282
22.1115 57.6742
22.2933 52.6473
22.4753 50.9918
22.6572 51.9359
22.8393 54.1585
23.0214 60.0259
23.2037 51.5045
23.3859 52.5217
23.5682 57.7218
23.7505 51.404
23.9329 47.5492
24.1154 46.1901
24.2979 45.5911
24.4805 44.9907
24.6631 44.8925
24.8458 44.379
25.0286 45.1126
25.2114 46.6003
25.3943 46.7341
25.5773 42.9827
25.7605 42.4694
25.9436 42.8208
26.1268 43.673
26.31 42.3085
26.4933 42.5033
26.6767 44.0353
26.8601 42.4113
27.0437 40.9046
27.2272 40.4663
27.4109 40.1587
27.5946 40.3312
27.7784 39.7619
27.9623 40.0747
28.1462 40.6753
28.3304 39.0295
28.5145 37.5984
28.6987 37.2269
28.8829 37.0
29.0673 36.2774
29.2517 35.9377
29.4361 35.8109
29.6207 34.726
29.8053 34.4706
29.99 34.1712
30.1748 33.8972
30.3597 33.7696
30.5447 33.7019
30.7297 33.7934
30.915 33.0828
31.1002 32.7161
31.2855 32.3184
31.4708 32.3133
31.6563 31.7975
31.8418 31.5647
32.0275 31.3153
32.2132 30.8792
32.399 30.4039
32.5848 29.865
32.7708 29.4965
32.9569 29.3837
33.143 29.1239
33.3293 28.7914
33.5158 28.2685
33.7022 27.8427
33.8887 27.6069
34.0753 27.176
34.262 26.864
34.4488 26.5778
34.6357 26.1636
34.8227 25.8744
35.0098 25.5885
35.1969 25.3012
35.3842 25.0719
35.5716 24.843
35.759 24.6012
35.9468 24.2348
36.1345 23.9467
36.3222 23.7138
36.5101 23.4499
36.6981 23.1397
36.8861 22.9015
37.0743 22.5853
37.2626 22.2785
37.451 21.9939
37.6395 21.8672
37.8281 21.4349
38.0168 21.1012
38.2056 20.8851
38.3945 20.5833
38.5837 20.3265
38.7728 20.0981
38.9621 19.837
39.1514 19.5055
39.3409 19.2796
39.5304 19.1186
39.7201 18.8751
39.9099 18.6567
40.0999 18.3771
40.2899 18.1921
40.48 17.8929
40.6703 17.6909
40.8607 17.4978
41.0512 17.3023
41.242 16.9703
41.4327 16.8015
41.6236 16.551
41.8146 16.3528
42.0057 16.1394
42.1969 15.9147
42.3882 15.7424
42.5797 15.4642
42.7713 15.286
42.963 15.0749
43.1549 14.8899
43.3468 14.6553
43.5389 14.5089
43.7312 14.2694
43.9237 14.0611
44.1162 13.8158
44.3088 13.6343
44.5016 13.4257
44.6945 13.3095
44.8875 13.1423
45.0806 12.9424
45.2739 12.7348
45.4673 12.5577
45.6609 12.3532
45.8546 12.2452
46.0484 12.0254
46.2424 11.8733
46.4365 11.7338
46.631 11.508
46.8254 11.3316
47.0199 11.1857
47.2146 11.0588
47.4095 10.8356
47.6044 10.7122
47.7996 10.5733
47.9948 10.3979
48.1902 10.2163
48.3858 10.0795
48.5815 9.93397
48.7774 9.85979
48.9734 9.66311
49.1696 9.51945
49.3661 9.36753
49.5626 9.19894
49.7592 9.09471
49.956 8.92461
50.153 8.8332
50.3501 8.65455
50.5474 8.59121
50.7448 8.41143
50.9424 8.30041
51.1402 8.16419
51.3381 7.98366
51.5362 7.87067
51.7344 7.7403
51.9328 7.59577
52.1316 7.45627
52.3304 7.37246
52.5293 7.23011
52.7284 7.14275
52.9276 7.00607
53.1271 6.91212
53.3267 6.79754
53.5265 6.66076
53.7264 6.54568
53.9266 6.4229
54.1269 6.26456
54.3274 6.18907
54.528 6.01083
54.7289 5.87023
54.9301 5.66511
55.1314 5.47779
55.3328 5.32943
55.5344 5.12046
55.7361 5.02354