File: XRD/Ni3Fe_FD0608.xy
TT I
1.27165 7.64534
1.45013 5.95789
1.62863 6.0249
1.80712 4.77894
1.98562 5.02687
2.16411 4.63815
2.34263 5.4134
2.52115 6.47106
2.69965 8.16609
2.87818 9.04089
3.05672 11.935
3.23527 15.1179
3.4138 18.8003
3.59237 24.0126
3.77094 26.2087
3.9495 29.9763
4.12809 34.9922
4.30669 174.389
4.4853 61.8992
4.6639 56.425
4.84253 68.3154
5.02118 87.9198
5.19981 380.244
5.37848 195.614
5.55716 103.278
5.73586 93.2607
5.91455 95.5249
6.09328 4294.75
6.27201 83.6309
6.45075 67.9217
6.62952 63.0334
6.8083 58.7676
6.98711 56.4067
7.16591 55.5309
7.34475 82.634
7.5236 55.1826
7.70247 56.6876
7.88135 58.1719
8.06026 63.0156
8.23919 69.9442
8.41812 85.9018
8.59709 1227.01
8.77609 100.568
8.9551 91.1923
9.13412 82.6484
9.31318 83.3742
9.49226 85.6074
9.67134 97.7651
9.85047 100.892
10.0296 359.842
10.2088 413.752
10.388 105.732
10.5672 510.755
10.7465 87.41
10.9257 78.8685
11.105 72.3259
11.2844 70.6077
11.4637 65.6069
11.6431 64.0832
11.8225 63.0514
12.002 64.0831
12.1814 154.64
12.3609 69.98
12.5405 65.0521
12.72 69.7301
12.8996 71.6168
13.0792 79.8987
13.2589 247.961
13.4386 128.398
13.6183 252.717
13.7981 100.056
13.9779 76.6594
14.1577 72.9835
14.3376 71.9151
14.5175 69.6733
14.6974 71.1414
14.8774 113.92
15.0574 150.836
15.2374 71.1471
15.4175 67.216
15.5976 66.3606
15.7778 97.0671
15.958 154.198
16.1382 62.6488
16.3185 58.949
16.4988 56.0169
16.6792 55.0492
16.8596 55.7042
17.04 56.3074
17.2205 67.7248
17.401 72.5691
17.5815 59.8906
17.7622 61.8905
17.9428 74.7654
18.1237 138.276
18.3044 92.2137
18.4852 79.0022
18.666 60.9901
18.8469 58.6084
19.0278 57.2732
19.2088 60.0859
19.3898 75.8069
19.5709 54.6082
19.752 53.7642
19.9332 56.8804
20.1144 69.7505
20.2957 64.0725
20.477 54.2422
20.6586 50.2107
20.84 49.3763
21.0215 49.0048
21.203 51.1232
21.3846 49.3921
21.5662 48.9181
21.7479 53.2681
21.9297 64.2513
22.1115 56.3648
22.2933 50.1368
22.4753 49.3805
22.6572 49.2163
22.8393 52.333
23.0214 57.5345
23.2037 49.1522
23.3859 50.2168
23.5682 56.9625
23.7505 48.8604
23.9329 45.5957
24.1154 44.522
24.2979 43.7691
24.4805 43.0712
24.6631 43.2479
24.8458 42.5723
25.0286 43.2824
25.2114 44.8541
25.3943 44.661
25.5773 41.1594
25.7605 40.7851
25.9436 41.205
26.1268 41.9081
26.31 40.3598
26.4933 41.0645
26.6767 42.1994
26.8601 40.7356
27.0437 39.0491
27.2272 38.8278
27.4109 38.6608
27.5946 38.6185
27.7784 38.2104
27.9623 38.6695
28.1462 39.0617
28.3304 37.4672
28.5145 36.1828
28.6987 35.8941
28.8829 35.6905
29.0673 34.9387
29.2517 34.5919
29.4361 34.3785
29.6207 33.4569
29.8053 33.2249
29.99 32.8192
30.1748 32.7264
30.3597 32.5155
30.5447 32.4042
30.7297 32.3941
30.915 31.8675
31.1002 31.319
31.2855 31.1226
31.4708 30.8885
31.6563 30.6632
31.8418 30.443
32.0275 30.0998
32.2132 29.5992
32.399 29.1169
32.5848 28.7289
32.7708 28.382
32.9569 28.2375
33.143 27.9634
33.3293 27.6042
33.5158 27.2263
33.7022 26.8083
33.8887 26.4917
34.0753 26.1564
34.262 25.852
34.4488 25.4377
34.6357 25.1084
34.8227 24.9032
35.0098 24.5524
35.1969 24.3836
35.3842 24.2225
35.5716 23.8927
35.759 23.6164
35.9468 23.2778
36.1345 23.0696
36.3222 22.8147
36.5101 22.5961
36.6981 22.2951
36.8861 21.9978
37.0743 21.6198
37.2626 21.389
37.451 21.1381
37.6395 20.9698
37.8281 20.6494
38.0168 20.3502
38.2056 20.0888
38.3945 19.86
38.5837 19.5897
38.7728 19.3491
38.9621 19.1353
39.1514 18.8474
39.3409 18.5803
39.5304 18.4209
39.7201 18.1731
39.9099 17.9664
40.0999 17.7649
40.2899 17.4737
40.48 17.3045
40.6703 17.0101
40.8607 16.8445
41.0512 16.578
41.242 16.3776
41.4327 16.2346
41.6236 15.9928
41.8146 15.7545
42.0057 15.4607
42.1969 15.3239
42.3882 15.18
42.5797 14.9504
42.7713 14.7072
42.963 14.5484
43.1549 14.3415
43.3468 14.0842
43.5389 13.9643
43.7312 13.7112
43.9237 13.5514
44.1162 13.3304
44.3088 13.165
44.5016 12.953
44.6945 12.7761
44.8875 12.6743
45.0806 12.4987
45.2739 12.3268
45.4673 12.1379
45.6609 11.9163
45.8546 11.7364
46.0484 11.6298
46.2424 11.4349
46.4365 11.273
46.631 11.074
46.8254 10.9327
47.0199 10.774
47.2146 10.6088
47.4095 10.4819
47.6044 10.3179
47.7996 10.1786
47.9948 10.0206
48.1902 9.88672
48.3858 9.69799
48.5815 9.59914
48.7774 9.46008
48.9734 9.3197
49.1696 9.16273
49.3661 9.03432
49.5626 8.87191
49.7592 8.78053
49.956 8.61705
50.153 8.48343
50.3501 8.38746
50.5474 8.25027
50.7448 8.12276
50.9424 7.98774
51.1402 7.88165
51.3381 7.68526
51.5362 7.59777
51.7344 7.51323
51.9328 7.34425
52.1316 7.21161
52.3304 7.12287
52.5293 6.99608
52.7284 6.88021
52.9276 6.79271
53.1271 6.65297
53.3267 6.52594
53.5265 6.4072
53.7264 6.32866
53.9266 6.20431
54.1269 6.04824
54.3274 5.96206
54.528 5.83262
54.7289 5.6741
54.9301 5.51092
55.1314 5.39161
55.3328 5.21291
55.5344 5.02292
55.7361 4.89706