File: XRD/Ni3Fe_FD0649.xy
TT I
1.27165 7.38139
1.45013 6.62064
1.62863 5.47005
1.80712 4.80432
1.98562 4.98529
2.16411 4.87269
2.34263 5.52092
2.52115 7.6668
2.69965 8.19508
2.87818 8.70529
3.05672 10.9023
3.23527 15.3822
3.4138 19.1781
3.59237 24.6486
3.77094 26.2806
3.9495 29.9224
4.12809 35.236
4.30669 282.208
4.4853 72.395
4.6639 55.5965
4.84253 66.7433
5.02118 85.9147
5.19981 328.031
5.37848 197.61
5.55716 102.137
5.73586 92.0235
5.91455 92.9989
6.09328 4334.81
6.27201 84.5253
6.45075 67.7593
6.62952 63.5836
6.8083 59.3872
6.98711 56.5157
7.16591 56.0006
7.34475 106.453
7.5236 55.3139
7.70247 56.7663
7.88135 58.1804
8.06026 62.2821
8.23919 69.8929
8.41812 85.0998
8.59709 1080.43
8.77609 100.629
8.9551 93.9733
9.13412 81.7556
9.31318 82.2828
9.49226 84.2547
9.67134 101.543
9.85047 99.7284
10.0296 316.668
10.2088 450.934
10.388 105.056
10.5672 495.367
10.7465 87.0661
10.9257 78.697
11.105 72.2319
11.2844 71.7595
11.4637 64.918
11.6431 63.9808
11.8225 62.6956
12.002 63.8048
12.1814 146.257
12.3609 73.3331
12.5405 64.709
12.72 71.4672
12.8996 70.9075
13.0792 78.4557
13.2589 224.138
13.4386 130.062
13.6183 235.051
13.7981 100.778
13.9779 75.8397
14.1577 73.1184
14.3376 72.5414
14.5175 68.9974
14.6974 70.6124
14.8774 106.298
15.0574 155.307
15.2374 72.1891
15.4175 66.5856
15.5976 65.8058
15.7778 92.0624
15.958 163.991
16.1382 63.8606
16.3185 59.1213
16.4988 55.8002
16.6792 54.6824
16.8596 55.5798
17.04 55.8928
17.2205 65.9613
17.401 72.689
17.5815 59.2886
17.7622 61.3642
17.9428 72.6144
18.1237 138.209
18.3044 89.4098
18.4852 80.0704
18.666 60.5176
18.8469 58.2831
19.0278 57.0071
19.2088 59.4357
19.3898 77.2101
19.5709 54.5145
19.752 53.5816
19.9332 56.0998
20.1144 69.8261
20.2957 63.4857
20.477 54.2356
20.6586 49.9136
20.84 48.9706
21.0215 48.5523
21.203 50.7884
21.3846 49.1414
21.5662 48.9019
21.7479 52.2994
21.9297 64.7616
22.1115 56.0915
22.2933 50.1384
22.4753 49.2099
22.6572 48.7986
22.8393 51.772
23.0214 57.9818
23.2037 49.0337
23.3859 49.647
23.5682 56.8691
23.7505 48.825
23.9329 45.4883
24.1154 44.2925
24.2979 43.6963
24.4805 43.0128
24.6631 42.9847
24.8458 42.2988
25.0286 42.9405
25.2114 44.8371
25.3943 44.8766
25.5773 41.1854
25.7605 40.6635
25.9436 40.8578
26.1268 41.8886
26.31 40.2079
26.4933 40.8343
26.6767 42.3238
26.8601 40.6936
27.0437 39.0175
27.2272 38.77
27.4109 38.453
27.5946 38.6376
27.7784 37.9382
27.9623 38.4774
28.1462 39.1321
28.3304 37.3896
28.5145 36.0403
28.6987 35.8728
28.8829 35.4694
29.0673 34.7954
29.2517 34.4928
29.4361 34.2454
29.6207 33.2496
29.8053 33.0341
29.99 32.58
30.1748 32.6223
30.3597 32.3988
30.5447 32.2302
30.7297 32.3925
30.915 31.7075
31.1002 31.2449
31.2855 30.9643
31.4708 30.9662
31.6563 30.4663
31.8418 30.2377
32.0275 29.9409
32.2132 29.5277
32.399 29.0369
32.5848 28.6082
32.7708 28.1764
32.9569 28.1157
33.143 27.9073
33.3293 27.4434
33.5158 27.1083
33.7022 26.7778
33.8887 26.4134
34.0753 26.1244
34.262 25.8218
34.4488 25.4072
34.6357 25.0801
34.8227 24.8031
35.0098 24.564
35.1969 24.3039
35.3842 24.0988
35.5716 23.8985
35.759 23.5326
35.9468 23.1433
36.1345 23.0365
36.3222 22.674
36.5101 22.5406
36.6981 22.1965
36.8861 21.898
37.0743 21.6431
37.2626 21.3471
37.451 21.1006
37.6395 20.9072
37.8281 20.5497
38.0168 20.2126
38.2056 20.0315
38.3945 19.773
38.5837 19.6386
38.7728 19.3231
38.9621 19.047
39.1514 18.8081
39.3409 18.5813
39.5304 18.3522
39.7201 18.0851
39.9099 17.8944
40.0999 17.6522
40.2899 17.482
40.48 17.2198
40.6703 16.9584
40.8607 16.8824
41.0512 16.6602
41.242 16.3525
41.4327 16.142
41.6236 15.8818
41.8146 15.7496
42.0057 15.5164
42.1969 15.3114
42.3882 15.065
42.5797 14.9114
42.7713 14.7178
42.963 14.4559
43.1549 14.3665
43.3468 14.1349
43.5389 13.9162
43.7312 13.7142
43.9237 13.5247
44.1162 13.3506
44.3088 13.128
44.5016 12.9223
44.6945 12.7428
44.8875 12.6406
45.0806 12.4634
45.2739 12.2253
45.4673 12.0703
45.6609 11.9506
45.8546 11.753
46.0484 11.5533
46.2424 11.4479
46.4365 11.2363
46.631 11.1331
46.8254 10.9342
47.0199 10.7418
47.2146 10.6193
47.4095 10.4324
47.6044 10.2883
47.7996 10.1438
47.9948 10.0001
48.1902 9.84382
48.3858 9.70232
48.5815 9.56506
48.7774 9.43549
48.9734 9.28199
49.1696 9.15121
49.3661 9.00289
49.5626 8.88651
49.7592 8.74551
49.956 8.62114
50.153 8.47998
50.3501 8.34167
50.5474 8.24514
50.7448 8.06405
50.9424 7.96288
51.1402 7.84892
51.3381 7.68527
51.5362 7.60745
51.7344 7.45208
51.9328 7.30872
52.1316 7.22538
52.3304 7.11126
52.5293 6.96783
52.7284 6.86492
52.9276 6.76584
53.1271 6.65121
53.3267 6.5581
53.5265 6.40397
53.7264 6.33101
53.9266 6.22747
54.1269 6.11272
54.3274 5.99709
54.528 5.82582
54.7289 5.65033
54.9301 5.48414
55.1314 5.41686
55.3328 5.18866
55.5344 5.00401
55.7361 4.79306