File: XRD/Ni3Fe_FD0390.xy
TT I
1.27165 7.54709
1.45013 5.89872
1.62863 5.68116
1.80712 4.56116
1.98562 4.48812
2.16411 5.25115
2.34263 4.80238
2.52115 6.33818
2.69965 7.28596
2.87818 8.85547
3.05672 10.8374
3.23527 15.0066
3.4138 19.1595
3.59237 24.4307
3.77094 26.7658
3.9495 30.249
4.12809 35.6269
4.30669 222.344
4.4853 66.9576
4.6639 56.4232
4.84253 68.7011
5.02118 89.8487
5.19981 456.708
5.37848 224.901
5.55716 106.039
5.73586 95.4887
5.91455 98.4166
6.09328 3984.52
6.27201 87.26
6.45075 69.306
6.62952 64.6623
6.8083 60.22
6.98711 57.5965
7.16591 56.5238
7.34475 93.7608
7.5236 55.9914
7.70247 57.313
7.88135 59.1427
8.06026 63.4197
8.23919 71.228
8.41812 88.1766
8.59709 1139.26
8.77609 105.153
8.9551 94.2077
9.13412 83.9141
9.31318 85.1952
9.49226 86.7736
9.67134 101.586
9.85047 102.664
10.0296 382.761
10.2088 503.077
10.388 108.442
10.5672 480.083
10.7465 89.3572
10.9257 80.3148
11.105 73.4914
11.2844 72.4964
11.4637 66.5699
11.6431 65.2392
11.8225 63.8953
12.002 65.1725
12.1814 148.605
12.3609 73.1386
12.5405 66.4212
12.72 71.8513
12.8996 73.0053
13.0792 81.2285
13.2589 234.561
13.4386 139.458
13.6183 238.332
13.7981 106.536
13.9779 77.8951
14.1577 74.6877
14.3376 73.4344
14.5175 70.6327
14.6974 72.1536
14.8774 113.585
15.0574 163.676
15.2374 73.154
15.4175 67.8996
15.5976 67.5745
15.7778 97.8386
15.958 168.426
16.1382 64.6586
16.3185 60.3831
16.4988 57.2261
16.6792 56.1058
16.8596 56.7755
17.04 57.451
17.2205 67.9991
17.401 74.7434
17.5815 60.9797
17.7622 62.8805
17.9428 76.6849
18.1237 137.085
18.3044 90.9392
18.4852 82.1606
18.666 61.9362
18.8469 59.4735
19.0278 58.3165
19.2088 61.2389
19.3898 76.949
19.5709 56.1283
19.752 54.6036
19.9332 57.8424
20.1144 70.524
20.2957 64.604
20.477 55.8348
20.6586 51.0611
20.84 50.043
21.0215 49.9503
21.203 52.0037
21.3846 50.5426
21.5662 50.1294
21.7479 53.9837
21.9297 65.484
22.1115 57.2499
22.2933 51.5917
22.4753 50.2864
22.6572 50.186
22.8393 53.0439
23.0214 58.6328
23.2037 50.1156
23.3859 51.0785
23.5682 57.3092
23.7505 50.3067
23.9329 46.4534
24.1154 45.3928
24.2979 44.7895
24.4805 44.1166
24.6631 43.9822
24.8458 43.4167
25.0286 43.8796
25.2114 45.7624
25.3943 45.7076
25.5773 42.025
25.7605 41.4927
25.9436 41.9366
26.1268 42.7014
26.31 41.2241
26.4933 41.75
26.6767 43.1422
26.8601 41.5794
27.0437 39.9794
27.2272 39.4993
27.4109 39.3274
27.5946 39.3021
27.7784 38.8596
27.9623 39.2795
28.1462 39.7901
28.3304 38.2406
28.5145 36.8383
28.6987 36.4727
28.8829 36.3643
29.0673 35.5105
29.2517 35.213
29.4361 35.0543
29.6207 34.0037
29.8053 33.773
29.99 33.4187
30.1748 33.2972
30.3597 33.0973
30.5447 32.8512
30.7297 33.0182
30.915 32.4662
31.1002 31.8332
31.2855 31.6164
31.4708 31.5648
31.6563 31.1589
31.8418 30.8958
32.0275 30.67
32.2132 30.0981
32.399 29.6558
32.5848 29.2156
32.7708 28.9298
32.9569 28.7147
33.143 28.4875
33.3293 28.0494
33.5158 27.774
33.7022 27.3323
33.8887 26.9808
34.0753 26.6484
34.262 26.2297
34.4488 25.9682
34.6357 25.7327
34.8227 25.3779
35.0098 25.136
35.1969 24.7933
35.3842 24.6348
35.5716 24.3661
35.759 24.1097
35.9468 23.6466
36.1345 23.4257
36.3222 23.2598
36.5101 22.9986
36.6981 22.6821
36.8861 22.4175
37.0743 22.0231
37.2626 21.8497
37.451 21.5133
37.6395 21.383
37.8281 21.0099
38.0168 20.6807
38.2056 20.473
38.3945 20.1921
38.5837 19.9369
38.7728 19.697
38.9621 19.4379
39.1514 19.222
39.3409 18.9184
39.5304 18.6861
39.7201 18.5158
39.9099 18.2416
40.0999 17.9997
40.2899 17.8189
40.48 17.5714
40.6703 17.3948
40.8607 17.1468
41.0512 16.9019
41.242 16.6735
41.4327 16.4873
41.6236 16.246
41.8146 16.0497
42.0057 15.8911
42.1969 15.62
42.3882 15.3887
42.5797 15.1844
42.7713 15.0136
42.963 14.797
43.1549 14.6247
43.3468 14.3929
43.5389 14.1759
43.7312 13.9383
43.9237 13.7816
44.1162 13.5725
44.3088 13.3851
44.5016 13.1948
44.6945 13.035
44.8875 12.86
45.0806 12.6579
45.2739 12.5294
45.4673 12.3599
45.6609 12.139
45.8546 11.9823
46.0484 11.8191
46.2424 11.6673
46.4365 11.4648
46.631 11.2798
46.8254 11.1455
47.0199 10.9864
47.2146 10.8162
47.4095 10.6573
47.6044 10.5327
47.7996 10.3161
47.9948 10.1636
48.1902 10.0018
48.3858 9.8998
48.5815 9.76423
48.7774 9.61278
48.9734 9.48166
49.1696 9.33042
49.3661 9.18273
49.5626 9.03633
49.7592 8.90468
49.956 8.80647
50.153 8.65319
50.3501 8.51764
50.5474 8.38761
50.7448 8.25143
50.9424 8.12606
51.1402 8.02268
51.3381 7.85448
51.5362 7.77108
51.7344 7.61442
51.9328 7.48043
52.1316 7.34202
52.3304 7.25209
52.5293 7.11854
52.7284 6.99728
52.9276 6.86834
53.1271 6.81443
53.3267 6.6853
53.5265 6.51347
53.7264 6.42382
53.9266 6.33413
54.1269 6.19813
54.3274 6.09331
54.528 5.95532
54.7289 5.73965
54.9301 5.65385
55.1314 5.4681
55.3328 5.27105
55.5344 5.11718
55.7361 4.97537