File: XRD/Ni3Fe_FD0242.xy
TT I
1.27165 7.78963
1.45013 6.23248
1.62863 5.33155
1.80712 5.23262
1.98562 5.32383
2.16411 4.65366
2.34263 4.57491
2.52115 4.78084
2.69965 6.42691
2.87818 8.02311
3.05672 10.9768
3.23527 15.1588
3.4138 18.5421
3.59237 22.2326
3.77094 25.7375
3.9495 29.8682
4.12809 34.7818
4.30669 40.6004
4.4853 48.4151
4.6639 58.0486
4.84253 71.7484
5.02118 96.5026
5.19981 888.181
5.37848 268.519
5.55716 111.87
5.73586 100.656
5.91455 109.516
6.09328 3697.4
6.27201 88.5328
6.45075 71.0123
6.62952 64.0597
6.8083 59.959
6.98711 57.181
7.16591 56.2889
7.34475 55.7411
7.5236 55.9066
7.70247 58.1222
7.88135 60.3049
8.06026 65.1904
8.23919 72.8272
8.41812 90.035
8.59709 1076.91
8.77609 110.251
8.9551 90.3162
9.13412 86.2943
9.31318 87.9463
9.49226 89.2625
9.67134 95.3344
9.85047 106.615
10.0296 512.046
10.2088 531.908
10.388 115.2
10.5672 446.385
10.7465 92.2375
10.9257 80.6196
11.105 74.2204
11.2844 70.7158
11.4637 67.7709
11.6431 66.1679
11.8225 65.0747
12.002 68.4008
12.1814 141.117
12.3609 69.9181
12.5405 67.2666
12.72 69.8009
12.8996 74.6458
13.0792 86.4424
13.2589 231.087
13.4386 149.346
13.6183 228.026
13.7981 109.76
13.9779 79.6417
14.1577 75.2
14.3376 72.901
14.5175 72.3366
14.6974 74.326
14.8774 119.963
15.0574 169.97
15.2374 72.2119
15.4175 69.7705
15.5976 69.7347
15.7778 103.871
15.958 173.749
16.1382 63.8515
16.3185 60.1451
16.4988 57.9771
16.6792 57.0839
16.8596 57.2696
17.04 59.2877
17.2205 68.9506
17.401 76.974
17.5815 62.1624
17.7622 64.3193
17.9428 82.5713
18.1237 139.516
18.3044 90.2649
18.4852 83.3073
18.666 63.2153
18.8469 60.903
19.0278 59.4612
19.2088 62.7397
19.3898 76.9004
19.5709 56.8679
19.752 55.9922
19.9332 59.3189
20.1144 72.5902
20.2957 64.7394
20.477 56.4221
20.6586 51.8989
20.84 51.1617
21.0215 51.1127
21.203 52.6018
21.3846 51.4591
21.5662 51.6559
21.7479 55.5388
21.9297 66.8845
22.1115 57.8751
22.2933 52.3083
22.4753 50.8131
22.6572 51.8756
22.8393 54.0611
23.0214 59.8958
23.2037 51.2217
23.3859 52.713
23.5682 57.7133
23.7505 50.9791
23.9329 47.2839
24.1154 46.0553
24.2979 45.3618
24.4805 44.7685
24.6631 44.8519
24.8458 44.3114
25.0286 44.9629
25.2114 46.5539
25.3943 46.7017
25.5773 42.8564
25.7605 42.3194
25.9436 42.5604
26.1268 43.4504
26.31 42.1141
26.4933 42.5506
26.6767 44.0045
26.8601 42.2799
27.0437 40.5665
27.2272 40.266
27.4109 40.1505
27.5946 40.1066
27.7784 39.6592
27.9623 39.9808
28.1462 40.3955
28.3304 38.9579
28.5145 37.6218
28.6987 37.1625
28.8829 36.9427
29.0673 36.393
29.2517 35.809
29.4361 35.6219
29.6207 34.6154
29.8053 34.3134
29.99 34.0701
30.1748 33.9171
30.3597 33.7282
30.5447 33.6169
30.7297 33.5671
30.915 32.9766
31.1002 32.5255
31.2855 32.2927
31.4708 32.0575
31.6563 31.7539
31.8418 31.4571
32.0275 31.2881
32.2132 30.7561
32.399 30.1636
32.5848 29.7677
32.7708 29.4578
32.9569 29.2172
33.143 29.0053
33.3293 28.5836
33.5158 28.257
33.7022 27.8457
33.8887 27.4949
34.0753 27.1124
34.262 26.7046
34.4488 26.4804
34.6357 26.1565
34.8227 25.8567
35.0098 25.5816
35.1969 25.3353
35.3842 24.9751
35.5716 24.7897
35.759 24.5055
35.9468 24.2236
36.1345 23.9034
36.3222 23.6612
36.5101 23.3994
36.6981 23.079
36.8861 22.7495
37.0743 22.4151
37.2626 22.1721
37.451 21.9298
37.6395 21.6979
37.8281 21.4513
38.0168 21.1503
38.2056 20.8296
38.3945 20.5253
38.5837 20.2634
38.7728 19.9943
38.9621 19.8121
39.1514 19.5426
39.3409 19.3167
39.5304 19.0319
39.7201 18.8646
39.9099 18.5769
40.0999 18.3461
40.2899 18.139
40.48 17.8814
40.6703 17.6613
40.8607 17.4334
41.0512 17.2795
41.242 16.9517
41.4327 16.7938
41.6236 16.5545
41.8146 16.3198
42.0057 16.1026
42.1969 15.8811
42.3882 15.6646
42.5797 15.4634
42.7713 15.2665
42.963 15.0985
43.1549 14.8413
43.3468 14.5754
43.5389 14.44
43.7312 14.249
43.9237 14.0436
44.1162 13.8411
44.3088 13.6467
44.5016 13.4672
44.6945 13.2781
44.8875 13.0779
45.0806 12.8664
45.2739 12.6767
45.4673 12.5329
45.6609 12.3429
45.8546 12.1695
46.0484 12.0223
46.2424 11.8289
46.4365 11.697
46.631 11.4665
46.8254 11.2745
47.0199 11.1525
47.2146 10.9875
47.4095 10.8037
47.6044 10.6391
47.7996 10.4867
47.9948 10.3709
48.1902 10.229
48.3858 10.0575
48.5815 9.88852
48.7774 9.79976
48.9734 9.59563
49.1696 9.48129
49.3661 9.32103
49.5626 9.16226
49.7592 9.0977
49.956 8.93105
50.153 8.7942
50.3501 8.63437
50.5474 8.47103
50.7448 8.37121
50.9424 8.22959
51.1402 8.11694
51.3381 7.98317
51.5362 7.85583
51.7344 7.77016
51.9328 7.55218
52.1316 7.46144
52.3304 7.35342
52.5293 7.22772
52.7284 7.10563
52.9276 6.98691
53.1271 6.9016
53.3267 6.7656
53.5265 6.67239
53.7264 6.52173
53.9266 6.42327
54.1269 6.29536
54.3274 6.18213
54.528 5.99816
54.7289 5.8699
54.9301 5.65639
55.1314 5.52871
55.3328 5.28581
55.5344 5.10422
55.7361 4.98868