File: XRD/Ni3Fe_FD0657.xy
TT I
1.27165 7.2469
1.45013 6.22042
1.62863 5.87556
1.80712 4.8911
1.98562 4.96963
2.16411 5.18245
2.34263 5.38252
2.52115 6.52668
2.69965 7.38674
2.87818 9.07501
3.05672 11.294
3.23527 15.2964
3.4138 19.0713
3.59237 24.7175
3.77094 26.689
3.9495 30.255
4.12809 35.3531
4.30669 300.458
4.4853 74.0933
4.6639 54.9288
4.84253 66.6573
5.02118 85.7382
5.19981 324.117
5.37848 196.588
5.55716 101.505
5.73586 91.2498
5.91455 92.6888
6.09328 4215.93
6.27201 84.237
6.45075 67.7497
6.62952 63.367
6.8083 58.773
6.98711 56.1861
7.16591 56.0221
7.34475 110.431
7.5236 55.2517
7.70247 56.4296
7.88135 58.0253
8.06026 62.2394
8.23919 69.572
8.41812 85.283
8.59709 1055.57
8.77609 100.178
8.9551 94.0012
9.13412 81.9907
9.31318 81.9309
9.49226 83.9579
9.67134 102.403
9.85047 99.352
10.0296 311.482
10.2088 458.803
10.388 105.027
10.5672 482.707
10.7465 86.7288
10.9257 78.81
11.105 72.0905
11.2844 71.9198
11.4637 65.1441
11.6431 63.7353
11.8225 62.779
12.002 63.4852
12.1814 144.932
12.3609 73.6629
12.5405 64.5531
12.72 72.215
12.8996 71.065
13.0792 78.3532
13.2589 221.797
13.4386 131.546
13.6183 230.154
13.7981 101.627
13.9779 76.0666
14.1577 72.9567
14.3376 72.3504
14.5175 68.7313
14.6974 70.567
14.8774 104.944
15.0574 159.522
15.2374 72.238
15.4175 66.5332
15.5976 65.6723
15.7778 91.3196
15.958 166.473
16.1382 63.6715
16.3185 58.9715
16.4988 55.6249
16.6792 54.7039
16.8596 55.3705
17.04 55.8137
17.2205 65.5302
17.401 72.6089
17.5815 59.0135
17.7622 61.2907
17.9428 72.3241
18.1237 138.713
18.3044 88.6217
18.4852 80.606
18.666 60.5842
18.8469 58.1686
19.0278 57.0932
19.2088 59.4573
19.3898 77.489
19.5709 54.4589
19.752 53.3825
19.9332 56.0562
20.1144 69.9199
20.2957 63.0399
20.477 54.5096
20.6586 49.783
20.84 48.9516
21.0215 48.6999
21.203 50.8294
21.3846 49.141
21.5662 48.7666
21.7479 52.2623
21.9297 64.6312
22.1115 56.0875
22.2933 50.3313
22.4753 49.1832
22.6572 48.695
22.8393 51.5398
23.0214 58.0493
23.2037 48.975
23.3859 49.5318
23.5682 56.6292
23.7505 48.7421
23.9329 45.3113
24.1154 44.297
24.2979 43.4291
24.4805 42.9913
24.6631 42.7993
24.8458 42.3829
25.0286 42.7834
25.2114 44.6376
25.3943 44.7741
25.5773 41.0928
25.7605 40.5896
25.9436 41.0249
26.1268 41.9847
26.31 40.1182
26.4933 40.7298
26.6767 42.2923
26.8601 40.6555
27.0437 39.0002
27.2272 38.6817
27.4109 38.4709
27.5946 38.4932
27.7784 37.9223
27.9623 38.3554
28.1462 39.1024
28.3304 37.3636
28.5145 36.0506
28.6987 35.6455
28.8829 35.6027
29.0673 34.8602
29.2517 34.5293
29.4361 34.2147
29.6207 33.3671
29.8053 33.0362
29.99 32.6689
30.1748 32.523
30.3597 32.3512
30.5447 32.1509
30.7297 32.3829
30.915 31.7064
31.1002 31.165
31.2855 30.9512
31.4708 30.9442
31.6563 30.3574
31.8418 30.1773
32.0275 30.0514
32.2132 29.5268
32.399 29.0273
32.5848 28.4691
32.7708 28.2252
32.9569 28.0638
33.143 27.8034
33.3293 27.4535
33.5158 27.1974
33.7022 26.6788
33.8887 26.3707
34.0753 26.0793
34.262 25.658
34.4488 25.4266
34.6357 25.1322
34.8227 24.7857
35.0098 24.5183
35.1969 24.3327
35.3842 24.1889
35.5716 23.9308
35.759 23.6151
35.9468 23.2581
36.1345 23.0125
36.3222 22.7954
36.5101 22.5407
36.6981 22.3017
36.8861 21.9328
37.0743 21.5761
37.2626 21.3534
37.451 21.0438
37.6395 20.9619
37.8281 20.5337
38.0168 20.3623
38.2056 20.0464
38.3945 19.7915
38.5837 19.5151
38.7728 19.3289
38.9621 18.9582
39.1514 18.7865
39.3409 18.5418
39.5304 18.3131
39.7201 18.1138
39.9099 17.908
40.0999 17.6798
40.2899 17.4392
40.48 17.1347
40.6703 16.9814
40.8607 16.8201
41.0512 16.6296
41.242 16.3017
41.4327 16.1614
41.6236 15.9075
41.8146 15.7265
42.0057 15.5217
42.1969 15.2509
42.3882 15.0886
42.5797 14.8766
42.7713 14.7005
42.963 14.4802
43.1549 14.3113
43.3468 14.0692
43.5389 13.9243
43.7312 13.7225
43.9237 13.5202
44.1162 13.3367
44.3088 13.132
44.5016 12.9679
44.6945 12.764
44.8875 12.6211
45.0806 12.4519
45.2739 12.2886
45.4673 12.0754
45.6609 11.9067
45.8546 11.7629
46.0484 11.6266
46.2424 11.4252
46.4365 11.2744
46.631 11.0892
46.8254 10.932
47.0199 10.7628
47.2146 10.6101
47.4095 10.4776
47.6044 10.3033
47.7996 10.1289
47.9948 9.97822
48.1902 9.85618
48.3858 9.70305
48.5815 9.56256
48.7774 9.42689
48.9734 9.29498
49.1696 9.13778
49.3661 8.97732
49.5626 8.82601
49.7592 8.74336
49.956 8.61108
50.153 8.48078
50.3501 8.34728
50.5474 8.20979
50.7448 8.12223
50.9424 7.94154
51.1402 7.84356
51.3381 7.73936
51.5362 7.59982
51.7344 7.46224
51.9328 7.30474
52.1316 7.19408
52.3304 7.09168
52.5293 6.98819
52.7284 6.87322
52.9276 6.73355
53.1271 6.6461
53.3267 6.48058
53.5265 6.42117
53.7264 6.30953
53.9266 6.21227
54.1269 6.09707
54.3274 5.95844
54.528 5.79397
54.7289 5.6646
54.9301 5.52795
55.1314 5.40951
55.3328 5.18506
55.5344 4.95053
55.7361 4.83602