File: XRD/Ni3Fe_FD0868.xy
TT I
1.27165 7.17829
1.45013 6.1026
1.62863 5.33886
1.80712 4.79097
1.98562 4.14205
2.16411 4.81813
2.34263 6.37694
2.52115 7.06931
2.69965 8.6962
2.87818 8.61283
3.05672 11.6228
3.23527 14.9646
3.4138 18.9349
3.59237 24.3455
3.77094 26.578
3.9495 29.7871
4.12809 35.1667
4.30669 240.321
4.4853 67.2021
4.6639 54.8908
4.84253 66.0985
5.02118 84.976
5.19981 292.124
5.37848 177.284
5.55716 100.392
5.73586 90.7043
5.91455 91.1495
6.09328 4327.55
6.27201 81.3822
6.45075 66.2808
6.62952 62.5274
6.8083 57.879
6.98711 55.3463
7.16591 55.1006
7.34475 95.6005
7.5236 54.4136
7.70247 55.7337
7.88135 57.3093
8.06026 61.4518
8.23919 68.216
8.41812 83.495
8.59709 1124.63
8.77609 97.4892
8.9551 91.4591
9.13412 80.953
9.31318 81.4512
9.49226 83.2962
9.67134 97.9255
9.85047 97.8631
10.0296 300.562
10.2088 402.002
10.388 102.721
10.5672 517.848
10.7465 85.3559
10.9257 77.4435
11.105 70.8805
11.2844 70.1221
11.4637 64.1728
11.6431 62.8277
11.8225 61.6939
12.002 62.5758
12.1814 149.792
12.3609 70.2863
12.5405 63.5542
12.72 69.6811
12.8996 69.8092
13.0792 77.4916
13.2589 228.472
13.4386 122.872
13.6183 243.097
13.7981 95.7493
13.9779 74.346
14.1577 71.2666
14.3376 70.8217
14.5175 67.876
14.6974 69.1961
14.8774 105.341
15.0574 146.203
15.2374 70.3076
15.4175 65.5134
15.5976 64.6228
15.7778 90.1407
15.958 155.621
16.1382 62.1816
16.3185 57.9509
16.4988 54.8537
16.6792 53.8485
16.8596 54.5781
17.04 54.8559
17.2205 65.1718
17.401 69.996
17.5815 58.108
17.7622 60.2303
17.9428 70.9872
18.1237 138.917
18.3044 89.0988
18.4852 76.6955
18.666 59.5519
18.8469 57.1049
19.0278 56.2789
19.2088 58.2182
19.3898 76.0541
19.5709 53.508
19.752 52.5517
19.9332 55.2006
20.1144 69.0753
20.2957 63.4113
20.477 52.9661
20.6586 49.0418
20.84 48.165
21.0215 47.9985
21.203 50.2758
21.3846 48.2897
21.5662 48.0356
21.7479 51.7103
21.9297 63.9618
22.1115 55.5754
22.2933 49.1092
22.4753 48.1203
22.6572 48.0439
22.8393 50.8796
23.0214 56.7232
23.2037 48.1488
23.3859 48.9225
23.5682 56.5431
23.7505 47.7781
23.9329 44.6876
24.1154 43.6325
24.2979 42.8517
24.4805 42.3308
24.6631 42.1321
24.8458 41.6774
25.0286 42.1506
25.2114 44.0925
25.3943 44.1496
25.5773 40.4855
25.7605 39.9728
25.9436 40.2759
26.1268 41.2481
26.31 39.5155
26.4933 39.9734
26.6767 41.5708
26.8601 39.9523
27.0437 38.3076
27.2272 38.0498
27.4109 37.8359
27.5946 37.8443
27.7784 37.3701
27.9623 37.8649
28.1462 38.3574
28.3304 36.7565
28.5145 35.6307
28.6987 35.1505
28.8829 34.9853
29.0673 34.2082
29.2517 33.8237
29.4361 33.7557
29.6207 32.7429
29.8053 32.4
29.99 32.1357
30.1748 32.151
30.3597 31.7334
30.5447 31.7111
30.7297 31.8608
30.915 31.1953
31.1002 30.7247
31.2855 30.5477
31.4708 30.4332
31.6563 29.906
31.8418 29.7316
32.0275 29.5558
32.2132 29.0231
32.399 28.5148
32.5848 28.175
32.7708 27.893
32.9569 27.6143
33.143 27.4111
33.3293 27.0128
33.5158 26.7226
33.7022 26.196
33.8887 26.0809
34.0753 25.6202
34.262 25.357
34.4488 25.0051
34.6357 24.6539
34.8227 24.3989
35.0098 24.1777
35.1969 23.9422
35.3842 23.8059
35.5716 23.4559
35.759 23.1674
35.9468 22.9128
36.1345 22.5978
36.3222 22.3696
36.5101 22.173
36.6981 21.8983
36.8861 21.5761
37.0743 21.2482
37.2626 21.0596
37.451 20.7174
37.6395 20.5631
37.8281 20.2325
38.0168 19.9433
38.2056 19.7072
38.3945 19.4578
38.5837 19.2421
38.7728 19.0317
38.9621 18.7847
39.1514 18.4692
39.3409 18.3084
39.5304 18.0424
39.7201 17.8337
39.9099 17.6319
40.0999 17.4199
40.2899 17.1896
40.48 16.8873
40.6703 16.7691
40.8607 16.5391
41.0512 16.4263
41.242 16.0112
41.4327 15.8373
41.6236 15.6526
41.8146 15.4468
42.0057 15.2321
42.1969 15.0438
42.3882 14.8753
42.5797 14.6508
42.7713 14.4448
42.963 14.2451
43.1549 14.046
43.3468 13.8374
43.5389 13.6567
43.7312 13.4559
43.9237 13.314
44.1162 13.0831
44.3088 12.933
44.5016 12.7563
44.6945 12.5676
44.8875 12.4336
45.0806 12.242
45.2739 12.091
45.4673 11.9035
45.6609 11.7131
45.8546 11.5473
46.0484 11.4016
46.2424 11.2338
46.4365 11.0554
46.631 10.9089
46.8254 10.7533
47.0199 10.568
47.2146 10.4549
47.4095 10.2548
47.6044 10.1352
47.7996 9.94795
47.9948 9.84158
48.1902 9.67091
48.3858 9.54263
48.5815 9.37226
48.7774 9.29907
48.9734 9.12459
49.1696 8.98417
49.3661 8.81816
49.5626 8.68917
49.7592 8.592
49.956 8.46971
50.153 8.31614
50.3501 8.20577
50.5474 8.0636
50.7448 7.93073
50.9424 7.86276
51.1402 7.71744
51.3381 7.60445
51.5362 7.49983
51.7344 7.33792
51.9328 7.23323
52.1316 7.08102
52.3304 7.00966
52.5293 6.89682
52.7284 6.75683
52.9276 6.64319
53.1271 6.53954
53.3267 6.42916
53.5265 6.29968
53.7264 6.20229
53.9266 6.10197
54.1269 5.98036
54.3274 5.84952
54.528 5.71338
54.7289 5.59716
54.9301 5.44305
55.1314 5.29038
55.3328 5.14581
55.5344 4.96693
55.7361 4.78669