File: XRD/Ni3Fe_FD0077.xy
TT I
1.27165 11.7019
1.45013 9.00192
1.62863 7.99221
1.80712 6.80411
1.98562 7.03201
2.16411 6.64819
2.34263 5.69701
2.52115 5.27617
2.69965 6.29053
2.87818 8.5481
3.05672 12.0753
3.23527 15.7178
3.4138 18.2617
3.59237 20.8289
3.77094 23.9982
3.9495 27.2074
4.12809 30.482
4.30669 36.3184
4.4853 41.956
4.6639 50.9679
4.84253 64.0906
5.02118 98.8053
5.19981 708.7
5.37848 1649.96
5.55716 121.356
5.73586 100.364
5.91455 121.985
6.09328 1204.3
6.27201 114.768
6.45075 65.2922
6.62952 56.0655
6.8083 51.4639
6.98711 49.55
7.16591 48.5059
7.34475 48.2931
7.5236 78.0033
7.70247 51.1161
7.88135 51.4186
8.06026 55.2818
8.23919 62.6747
8.41812 81.2709
8.59709 472.966
8.77609 171.241
8.9551 82.0149
9.13412 79.1129
9.31318 176.453
9.49226 77.6956
9.67134 81.391
9.85047 92.1864
10.0296 488.189
10.2088 1429.62
10.388 102.504
10.5672 150.163
10.7465 122.815
10.9257 69.5099
11.105 63.8194
11.2844 59.8832
11.4637 57.3263
11.6431 56.1566
11.8225 56.354
12.002 99.9419
12.1814 77.9315
12.3609 94.7685
12.5405 57.0808
12.72 58.3435
12.8996 62.1701
13.0792 75.4043
13.2589 135.235
13.4386 317.158
13.6183 120.009
13.7981 239.73
13.9779 70.2772
14.1577 93.8885
14.3376 63.5314
14.5175 61.8681
14.6974 62.752
14.8774 100.402
15.0574 179.215
15.2374 64.7721
15.4175 59.4379
15.5976 59.3161
15.7778 91.3083
15.958 134.101
16.1382 65.7049
16.3185 52.226
16.4988 49.6163
16.6792 48.6075
16.8596 49.1519
17.04 51.7704
17.2205 55.2809
17.401 71.8868
17.5815 53.1794
17.7622 57.1182
17.9428 74.9201
18.1237 71.4519
18.3044 85.9692
18.4852 96.1866
18.666 56.7453
18.8469 52.4979
19.0278 51.3379
19.2088 55.4241
19.3898 58.5143
19.5709 56.3429
19.752 48.0909
19.9332 51.8181
20.1144 52.8839
20.2957 54.7458
20.477 59.1155
20.6586 44.9696
20.84 45.8266
21.0215 43.9923
21.203 43.4093
21.3846 46.3835
21.5662 44.1108
21.7479 47.5754
21.9297 48.6248
22.1115 53.4945
22.2933 50.5486
22.4753 43.8495
22.6572 43.9224
22.8393 45.8018
23.0214 46.4987
23.2037 46.8157
23.3859 46.535
23.5682 44.1436
23.7505 52.9533
23.9329 41.5745
24.1154 40.0341
24.2979 39.2799
24.4805 38.4367
24.6631 39.012
24.8458 38.3186
25.0286 38.1809
25.2114 38.5426
25.3943 39.026
25.5773 38.8047
25.7605 36.6782
25.9436 36.5451
26.1268 36.3494
26.31 37.4498
26.4933 36.3481
26.6767 36.3863
26.8601 37.8545
27.0437 36.1265
27.2272 34.8579
27.4109 34.4707
27.5946 34.4316
27.7784 34.8036
27.9623 34.1975
28.1462 34.4525
28.3304 34.1812
28.5145 32.8875
28.6987 32.2189
28.8829 31.737
29.0673 31.6499
29.2517 30.874
29.4361 30.3834
29.6207 30.3845
29.8053 29.6398
29.99 29.3896
30.1748 29.1385
30.3597 29.1196
30.5447 28.7679
30.7297 28.4799
30.915 28.8201
31.1002 28.2546
31.2855 27.7597
31.4708 27.482
31.6563 27.6835
31.8418 27.0851
32.0275 26.7952
32.2132 26.7163
32.399 26.088
32.5848 25.7416
32.7708 25.3103
32.9569 25.2351
33.143 24.7461
33.3293 24.5803
33.5158 24.4985
33.7022 23.8832
33.8887 23.5738
34.0753 23.3968
34.262 23.047
34.4488 22.7213
34.6357 22.4247
34.8227 22.1376
35.0098 21.918
35.1969 21.7134
35.3842 21.416
35.5716 21.3507
35.759 21.1568
35.9468 20.7011
36.1345 20.5465
36.3222 20.4253
36.5101 20.1348
36.6981 19.8481
36.8861 19.5969
37.0743 19.2764
37.2626 19.0722
37.451 18.8154
37.6395 18.7381
37.8281 18.3892
38.0168 18.1108
38.2056 17.9306
38.3945 17.7084
38.5837 17.4843
38.7728 17.2261
38.9621 17.0112
39.1514 16.7847
39.3409 16.5933
39.5304 16.4141
39.7201 16.172
39.9099 15.9687
40.0999 15.8378
40.2899 15.6032
40.48 15.4466
40.6703 15.1736
40.8607 15.0501
41.0512 14.8576
41.242 14.5945
41.4327 14.4194
41.6236 14.1653
41.8146 14.1116
42.0057 13.9283
42.1969 13.6707
42.3882 13.4929
42.5797 13.3178
42.7713 13.1242
42.963 12.9605
43.1549 12.8158
43.3468 12.6136
43.5389 12.399
43.7312 12.2802
43.9237 12.0856
44.1162 11.9478
44.3088 11.7197
44.5016 11.5828
44.6945 11.421
44.8875 11.2868
45.0806 11.0912
45.2739 10.9472
45.4673 10.8456
45.6609 10.6719
45.8546 10.5392
46.0484 10.3893
46.2424 10.2353
46.4365 10.1197
46.631 9.94437
46.8254 9.76988
47.0199 9.65144
47.2146 9.51027
47.4095 9.38841
47.6044 9.22313
47.7996 9.08145
47.9948 8.95171
48.1902 8.85764
48.3858 8.71899
48.5815 8.59356
48.7774 8.48735
48.9734 8.33911
49.1696 8.22985
49.3661 8.10495
49.5626 7.97996
49.7592 7.82831
49.956 7.72353
50.153 7.66539
50.3501 7.52912
50.5474 7.41769
50.7448 7.32877
50.9424 7.19182
51.1402 7.0788
51.3381 6.93868
51.5362 6.81837
51.7344 6.74898
51.9328 6.61234
52.1316 6.51644
52.3304 6.39498
52.5293 6.30588
52.7284 6.20889
52.9276 6.13536
53.1271 6.01868
53.3267 5.8611
53.5265 5.7888
53.7264 5.70338
53.9266 5.58284
54.1269 5.4588
54.3274 5.29868
54.528 5.16649
54.7289 4.98757
54.9301 4.81872
55.1314 4.68085
55.3328 4.48038
55.5344 4.38243
55.7361 4.19054