File: XRD/Ni3Fe_FD0548.xy
TT I
1.27165 7.46046
1.45013 6.19566
1.62863 4.83851
1.80712 4.959
1.98562 4.98217
2.16411 5.21301
2.34263 5.21451
2.52115 6.90741
2.69965 7.74379
2.87818 8.24296
3.05672 11.2294
3.23527 14.4835
3.4138 19.1446
3.59237 24.1386
3.77094 26.4589
3.9495 30.2094
4.12809 35.3194
4.30669 198.134
4.4853 64.1297
4.6639 56.2397
4.84253 67.5864
5.02118 88.3473
5.19981 387.508
5.37848 198.798
5.55716 103.024
5.73586 92.7281
5.91455 95.7053
6.09328 4357.7
6.27201 83.9458
6.45075 67.8171
6.62952 63.3516
6.8083 58.9245
6.98711 56.5073
7.16591 56.1522
7.34475 88.015
7.5236 55.4495
7.70247 56.5205
7.88135 58.127
8.06026 62.9995
8.23919 69.8841
8.41812 86.3326
8.59709 1209.81
8.77609 100.166
8.9551 91.9282
9.13412 82.6132
9.31318 83.3903
9.49226 85.2195
9.67134 98.5013
9.85047 101.056
10.0296 360.411
10.2088 387.405
10.388 106.01
10.5672 522.242
10.7465 87.3982
10.9257 78.9701
11.105 72.2822
11.2844 70.7032
11.4637 65.2713
11.6431 64.1898
11.8225 62.8303
12.002 64.2762
12.1814 153.837
12.3609 70.2667
12.5405 64.9425
12.72 70.1585
12.8996 71.7395
13.0792 79.9541
13.2589 243.542
13.4386 122.134
13.6183 250.498
13.7981 96.8867
13.9779 76.5034
14.1577 73.0503
14.3376 72.1216
14.5175 69.1928
14.6974 71.1093
14.8774 113.016
15.0574 147.037
15.2374 71.4782
15.4175 66.9408
15.5976 66.3269
15.7778 97.1859
15.958 154.396
16.1382 62.9072
16.3185 59.119
16.4988 55.9946
16.6792 54.8685
16.8596 55.617
17.04 56.2797
17.2205 67.4736
17.401 71.2008
17.5815 59.7967
17.7622 61.6749
17.9428 74.8854
18.1237 141.461
18.3044 91.3523
18.4852 77.3168
18.666 60.7928
18.8469 58.4032
19.0278 57.3593
19.2088 59.958
19.3898 77.1741
19.5709 54.5543
19.752 53.7572
19.9332 57.0187
20.1144 70.4116
20.2957 64.3519
20.477 53.772
20.6586 50.0346
20.84 49.1779
21.0215 48.9876
21.203 51.2735
21.3846 49.3146
21.5662 49.1925
21.7479 53.2407
21.9297 65.0236
22.1115 56.3798
22.2933 50.1665
22.4753 49.226
22.6572 49.2373
22.8393 52.5126
23.0214 57.7692
23.2037 48.9965
23.3859 50.1923
23.5682 57.343
23.7505 48.4599
23.9329 45.5283
24.1154 44.4607
24.2979 43.6451
24.4805 43.2292
24.6631 43.0867
24.8458 42.5522
25.0286 43.3067
25.2114 45.1026
25.3943 44.9561
25.5773 41.1704
25.7605 40.8042
25.9436 40.9974
26.1268 42.029
26.31 40.3738
26.4933 41.0278
26.6767 42.5966
26.8601 40.6838
27.0437 39.1429
27.2272 38.8811
27.4109 38.7365
27.5946 38.7072
27.7784 38.0943
27.9623 38.7117
28.1462 39.0947
28.3304 37.4348
28.5145 36.1845
28.6987 35.9407
28.8829 35.6372
29.0673 34.9792
29.2517 34.64
29.4361 34.3105
29.6207 33.3383
29.8053 33.0432
29.99 32.8582
30.1748 32.6996
30.3597 32.4953
30.5447 32.3735
30.7297 32.3682
30.915 31.8039
31.1002 31.3361
31.2855 31.1369
31.4708 31.0135
31.6563 30.6005
31.8418 30.338
32.0275 30.2907
32.2132 29.5865
32.399 29.1408
32.5848 28.6584
32.7708 28.396
32.9569 28.239
33.143 27.9071
33.3293 27.4923
33.5158 27.1427
33.7022 26.7914
33.8887 26.5203
34.0753 26.1994
34.262 25.7886
34.4488 25.4374
34.6357 25.1557
34.8227 24.831
35.0098 24.6647
35.1969 24.405
35.3842 24.2014
35.5716 23.9476
35.759 23.6212
35.9468 23.287
36.1345 23.0485
36.3222 22.81
36.5101 22.6359
36.6981 22.3275
36.8861 21.9526
37.0743 21.6539
37.2626 21.4268
37.451 21.1299
37.6395 20.9398
37.8281 20.6038
38.0168 20.2956
38.2056 20.1209
38.3945 19.8242
38.5837 19.5558
38.7728 19.3599
38.9621 19.1181
39.1514 18.8856
39.3409 18.6047
39.5304 18.37
39.7201 18.1966
39.9099 17.9591
40.0999 17.6558
40.2899 17.5401
40.48 17.2392
40.6703 17.0341
40.8607 16.8619
41.0512 16.6207
41.242 16.3586
41.4327 16.1644
41.6236 15.9409
41.8146 15.7583
42.0057 15.5822
42.1969 15.3003
42.3882 15.2002
42.5797 15.0057
42.7713 14.6949
42.963 14.5174
43.1549 14.3271
43.3468 14.202
43.5389 13.9046
43.7312 13.7299
43.9237 13.5017
44.1162 13.3392
44.3088 13.1799
44.5016 13.0139
44.6945 12.7996
44.8875 12.6601
45.0806 12.4857
45.2739 12.2924
45.4673 12.1666
45.6609 11.9486
45.8546 11.763
46.0484 11.6181
46.2424 11.421
46.4365 11.2463
46.631 11.1169
46.8254 10.9607
47.0199 10.771
47.2146 10.6316
47.4095 10.4642
47.6044 10.3164
47.7996 10.123
47.9948 10.0011
48.1902 9.8667
48.3858 9.71944
48.5815 9.60589
48.7774 9.41964
48.9734 9.30989
49.1696 9.16228
49.3661 9.01182
49.5626 8.8568
49.7592 8.74549
49.956 8.64972
50.153 8.50464
50.3501 8.40073
50.5474 8.24658
50.7448 8.11701
50.9424 8.00803
51.1402 7.85527
51.3381 7.7736
51.5362 7.63221
51.7344 7.48755
51.9328 7.32805
52.1316 7.23774
52.3304 7.1074
52.5293 6.99575
52.7284 6.88011
52.9276 6.77627
53.1271 6.64735
53.3267 6.55541
53.5265 6.41834
53.7264 6.3395
53.9266 6.18646
54.1269 6.08892
54.3274 5.99562
54.528 5.80878
54.7289 5.73068
54.9301 5.51349
55.1314 5.42686
55.3328 5.19186
55.5344 4.96118
55.7361 4.88546