File: XRD/Ni3Fe_FD0234.xy
TT I
1.27165 7.97277
1.45013 6.47613
1.62863 6.17597
1.80712 4.90146
1.98562 5.26063
2.16411 4.75705
2.34263 3.80696
2.52115 5.88392
2.69965 6.03193
2.87818 7.34462
3.05672 11.1929
3.23527 15.3446
3.4138 19.2753
3.59237 22.0887
3.77094 26.2752
3.9495 30.3037
4.12809 34.9222
4.30669 40.5589
4.4853 48.7294
4.6639 58.2522
4.84253 71.8189
5.02118 96.3711
5.19981 888.115
5.37848 274.024
5.55716 111.763
5.73586 101.625
5.91455 109.976
6.09328 3671.47
6.27201 88.7506
6.45075 71.3194
6.62952 64.2344
6.8083 59.7417
6.98711 57.6478
7.16591 56.7877
7.34475 56.0044
7.5236 56.4345
7.70247 57.9652
7.88135 60.5537
8.06026 65.3173
8.23919 73.2727
8.41812 90.3963
8.59709 1073.9
8.77609 110.672
8.9551 90.8091
9.13412 86.6928
9.31318 88.1963
9.49226 89.6903
9.67134 95.4877
9.85047 106.569
10.0296 517.155
10.2088 553.839
10.388 115.391
10.5672 450.402
10.7465 92.3163
10.9257 80.8427
11.105 74.8855
11.2844 70.4374
11.4637 67.7836
11.6431 66.3729
11.8225 65.057
12.002 68.9574
12.1814 141.683
12.3609 69.8745
12.5405 67.4927
12.72 69.8262
12.8996 74.903
13.0792 86.4532
13.2589 231.014
13.4386 149.449
13.6183 227.055
13.7981 110.398
13.9779 79.9742
14.1577 75.2333
14.3376 73.3048
14.5175 72.5299
14.6974 74.5905
14.8774 120.237
15.0574 169.672
15.2374 72.5737
15.4175 69.8823
15.5976 69.8914
15.7778 103.376
15.958 174.272
16.1382 63.9361
16.3185 60.2312
16.4988 57.8834
16.6792 57.002
16.8596 57.2808
17.04 59.3604
17.2205 69.1711
17.401 76.8832
17.5815 62.1186
17.7622 64.6885
17.9428 82.8287
18.1237 139.236
18.3044 90.4513
18.4852 83.0791
18.666 63.3153
18.8469 60.9207
19.0278 59.8065
19.2088 62.9446
19.3898 76.4822
19.5709 56.9473
19.752 56.0008
19.9332 59.5668
20.1144 72.5551
20.2957 64.5041
20.477 56.6473
20.6586 52.1097
20.84 51.2281
21.0215 51.1197
21.203 52.5799
21.3846 51.5039
21.5662 51.8971
21.7479 55.4991
21.9297 66.7218
22.1115 57.9585
22.2933 52.482
22.4753 50.9235
22.6572 51.9356
22.8393 54.1189
23.0214 59.9552
23.2037 51.27
23.3859 52.4727
23.5682 57.7126
23.7505 51.0342
23.9329 47.3976
24.1154 46.0835
24.2979 45.5876
24.4805 44.9942
24.6631 44.8566
24.8458 44.3111
25.0286 45.1188
25.2114 46.6083
25.3943 46.5417
25.5773 42.7769
25.7605 42.3833
25.9436 42.795
26.1268 43.5745
26.31 42.2164
26.4933 42.5854
26.6767 43.987
26.8601 42.203
27.0437 40.6599
27.2272 40.5226
27.4109 40.1255
27.5946 40.4019
27.7784 39.6966
27.9623 39.937
28.1462 40.6111
28.3304 39.0043
28.5145 37.4883
28.6987 37.2866
28.8829 37.0076
29.0673 36.3465
29.2517 35.7793
29.4361 35.6108
29.6207 34.6806
29.8053 34.3405
29.99 34.1574
30.1748 33.933
30.3597 33.7436
30.5447 33.6403
30.7297 33.6971
30.915 33.1942
31.1002 32.575
31.2855 32.2511
31.4708 32.1603
31.6563 31.8415
31.8418 31.5084
32.0275 31.3145
32.2132 30.7348
32.399 30.2836
32.5848 29.8176
32.7708 29.5171
32.9569 29.2991
33.143 29.0342
33.3293 28.616
33.5158 28.3441
33.7022 27.8274
33.8887 27.5031
34.0753 27.1622
34.262 26.7907
34.4488 26.5119
34.6357 26.0743
34.8227 25.7548
35.0098 25.6447
35.1969 25.2713
35.3842 25.071
35.5716 24.9423
35.759 24.5368
35.9468 24.1103
36.1345 23.9444
36.3222 23.746
36.5101 23.4662
36.6981 23.1874
36.8861 22.7817
37.0743 22.486
37.2626 22.2498
37.451 21.9341
37.6395 21.8263
37.8281 21.4599
38.0168 21.1247
38.2056 20.82
38.3945 20.5823
38.5837 20.347
38.7728 20.0474
38.9621 19.8227
39.1514 19.5537
39.3409 19.3349
39.5304 19.0164
39.7201 18.8244
39.9099 18.6216
40.0999 18.3909
40.2899 18.1212
40.48 17.9296
40.6703 17.6946
40.8607 17.4928
41.0512 17.2781
41.242 16.9918
41.4327 16.8162
41.6236 16.4743
41.8146 16.3258
42.0057 16.1684
42.1969 15.9374
42.3882 15.748
42.5797 15.5036
42.7713 15.2611
42.963 15.0526
43.1549 14.8557
43.3468 14.6108
43.5389 14.4524
43.7312 14.2392
43.9237 14.0613
44.1162 13.8167
44.3088 13.6051
44.5016 13.4284
44.6945 13.2641
44.8875 13.0592
45.0806 12.8732
45.2739 12.751
45.4673 12.5534
45.6609 12.3729
45.8546 12.227
46.0484 11.9855
46.2424 11.851
46.4365 11.6828
46.631 11.4512
46.8254 11.282
47.0199 11.1713
47.2146 10.9813
47.4095 10.7965
47.6044 10.6811
47.7996 10.4889
47.9948 10.3527
48.1902 10.2094
48.3858 10.0603
48.5815 10.0002
48.7774 9.76752
48.9734 9.63074
49.1696 9.50075
49.3661 9.34974
49.5626 9.17372
49.7592 9.06187
49.956 8.95323
50.153 8.79324
50.3501 8.64686
50.5474 8.5119
50.7448 8.43223
50.9424 8.25353
51.1402 8.11722
51.3381 7.99453
51.5362 7.87675
51.7344 7.74466
51.9328 7.58808
52.1316 7.47412
52.3304 7.35174
52.5293 7.24605
52.7284 7.12207
52.9276 6.99067
53.1271 6.92457
53.3267 6.77628
53.5265 6.64777
53.7264 6.53396
53.9266 6.43918
54.1269 6.28309
54.3274 6.18965
54.528 6.03056
54.7289 5.87875
54.9301 5.72205
55.1314 5.58974
55.3328 5.34793
55.5344 5.14609
55.7361 5.01798