File: XRD/Ni3Fe_FD0705.xy
TT I
1.27165 7.66478
1.45013 6.65642
1.62863 5.09832
1.80712 4.71634
1.98562 4.93738
2.16411 5.3759
2.34263 5.30473
2.52115 6.86909
2.69965 8.46199
2.87818 8.83422
3.05672 10.6839
3.23527 14.9281
3.4138 18.8323
3.59237 23.1189
3.77094 25.6915
3.9495 29.1883
4.12809 34.4242
4.30669 107.878
4.4853 53.9593
4.6639 55.3623
4.84253 68.9817
5.02118 87.9254
5.19981 432.811
5.37848 195.968
5.55716 102.636
5.73586 93.3354
5.91455 95.8333
6.09328 4584.0
6.27201 81.0716
6.45075 69.2322
6.62952 62.7836
6.8083 59.285
6.98711 55.7657
7.16591 55.9123
7.34475 68.3103
7.5236 53.9391
7.70247 56.5931
7.88135 57.7567
8.06026 62.1955
8.23919 69.5611
8.41812 84.2097
8.59709 1256.25
8.77609 98.2464
8.9551 89.513
9.13412 82.6202
9.31318 84.6753
9.49226 84.8295
9.67134 95.6391
9.85047 101.69
10.0296 366.445
10.2088 355.882
10.388 105.856
10.5672 514.028
10.7465 86.1723
10.9257 77.9442
11.105 71.244
11.2844 68.3768
11.4637 64.5081
11.6431 63.4627
11.8225 62.514
12.002 64.4553
12.1814 155.389
12.3609 66.9517
12.5405 64.875
12.72 67.9488
12.8996 71.6465
13.0792 80.5088
13.2589 250.253
13.4386 120.752
13.6183 260.705
13.7981 93.9981
13.9779 75.7892
14.1577 71.8015
14.3376 70.3439
14.5175 68.9661
14.6974 70.6583
14.8774 114.462
15.0574 139.454
15.2374 69.3141
15.4175 66.3662
15.5976 65.9231
15.7778 97.1957
15.958 148.655
16.1382 61.2086
16.3185 57.8046
16.4988 55.2029
16.6792 54.3661
16.8596 54.9367
17.04 56.0545
17.2205 67.6301
17.401 69.4599
17.5815 59.0031
17.7622 61.4737
17.9428 74.4214
18.1237 141.96
18.3044 91.4826
18.4852 74.9492
18.666 59.9184
18.8469 57.8895
19.0278 56.6252
19.2088 59.3055
19.3898 75.9639
19.5709 54.0561
19.752 53.2652
19.9332 56.275
20.1144 69.6747
20.2957 64.0416
20.477 52.6876
20.6586 49.3623
20.84 48.7782
21.0215 48.582
21.203 51.0311
21.3846 48.7856
21.5662 49.0213
21.7479 52.783
21.9297 64.8779
22.1115 55.7989
22.2933 49.5311
22.4753 48.7697
22.6572 48.867
22.8393 52.1143
23.0214 57.123
23.2037 48.6534
23.3859 49.6302
23.5682 57.301
23.7505 47.8506
23.9329 45.1538
24.1154 44.0113
24.2979 43.2542
24.4805 42.814
24.6631 42.6476
24.8458 42.2706
25.0286 42.8805
25.2114 44.6293
25.3943 44.3966
25.5773 40.76
25.7605 40.2484
25.9436 40.8421
26.1268 41.5362
26.31 40.0101
26.4933 40.6272
26.6767 42.0511
26.8601 40.2361
27.0437 38.8822
27.2272 38.4303
27.4109 38.5166
27.5946 38.3139
27.7784 37.886
27.9623 38.3499
28.1462 38.7174
28.3304 37.0858
28.5145 35.8368
28.6987 35.5307
28.8829 35.2946
29.0673 34.647
29.2517 34.2711
29.4361 34.0078
29.6207 33.0613
29.8053 32.8673
29.99 32.4778
30.1748 32.3935
30.3597 32.196
30.5447 32.1726
30.7297 32.2008
30.915 31.5702
31.1002 31.0559
31.2855 30.8292
31.4708 30.7615
31.6563 30.2147
31.8418 30.0153
32.0275 29.8359
32.2132 29.4336
32.399 28.8698
32.5848 28.3801
32.7708 28.1543
32.9569 27.9483
33.143 27.7324
33.3293 27.3237
33.5158 26.9928
33.7022 26.5409
33.8887 26.2581
34.0753 25.9686
34.262 25.565
34.4488 25.2585
34.6357 24.9132
34.8227 24.6561
35.0098 24.4082
35.1969 24.1648
35.3842 23.897
35.5716 23.7124
35.759 23.3223
35.9468 23.1128
36.1345 22.8543
36.3222 22.6084
36.5101 22.3899
36.6981 22.0107
36.8861 21.7976
37.0743 21.3958
37.2626 21.2047
37.451 20.9664
37.6395 20.7603
37.8281 20.4176
38.0168 20.1285
38.2056 19.869
38.3945 19.6574
38.5837 19.3921
38.7728 19.1246
38.9621 18.9213
39.1514 18.5695
39.3409 18.3751
39.5304 18.2075
39.7201 18.0552
39.9099 17.8407
40.0999 17.6136
40.2899 17.3128
40.48 17.072
40.6703 16.8711
40.8607 16.7086
41.0512 16.4744
41.242 16.2028
41.4327 16.0222
41.6236 15.804
41.8146 15.5689
42.0057 15.3829
42.1969 15.2002
42.3882 14.9763
42.5797 14.7624
42.7713 14.5469
42.963 14.3837
43.1549 14.2012
43.3468 13.9744
43.5389 13.7748
43.7312 13.5658
43.9237 13.4561
44.1162 13.242
44.3088 13.0677
44.5016 12.8314
44.6945 12.6789
44.8875 12.5099
45.0806 12.3679
45.2739 12.2224
45.4673 11.9773
45.6609 11.789
45.8546 11.6439
46.0484 11.4634
46.2424 11.3637
46.4365 11.1519
46.631 11.0003
46.8254 10.8389
47.0199 10.6834
47.2146 10.5258
47.4095 10.34
47.6044 10.2161
47.7996 10.0856
47.9948 9.92042
48.1902 9.74318
48.3858 9.60223
48.5815 9.4984
48.7774 9.3657
48.9734 9.2602
49.1696 9.08041
49.3661 8.9293
49.5626 8.78347
49.7592 8.66194
49.956 8.52205
50.153 8.40778
50.3501 8.24843
50.5474 8.17797
50.7448 8.02786
50.9424 7.9195
51.1402 7.80867
51.3381 7.62132
51.5362 7.54832
51.7344 7.4093
51.9328 7.254
52.1316 7.15352
52.3304 7.04413
52.5293 6.92609
52.7284 6.82838
52.9276 6.68505
53.1271 6.59645
53.3267 6.4748
53.5265 6.36118
53.7264 6.27463
53.9266 6.15736
54.1269 6.06844
54.3274 5.92862
54.528 5.77975
54.7289 5.63062
54.9301 5.46129
55.1314 5.32775
55.3328 5.15702
55.5344 5.00976
55.7361 4.82184