File: XRD/Ni3Fe_FD0463.xy
TT I
1.27165 7.16973
1.45013 6.3756
1.62863 5.60916
1.80712 5.01007
1.98562 4.73429
2.16411 5.0251
2.34263 4.54391
2.52115 6.43504
2.69965 6.79987
2.87818 8.60964
3.05672 10.786
3.23527 15.1132
3.4138 18.9101
3.59237 23.2897
3.77094 25.8985
3.9495 29.8531
4.12809 34.8836
4.30669 130.183
4.4853 57.1114
4.6639 56.5401
4.84253 68.8437
5.02118 90.08
5.19981 526.363
5.37848 205.434
5.55716 104.357
5.73586 95.4209
5.91455 98.8999
6.09328 4230.44
6.27201 83.9465
6.45075 68.7837
6.62952 62.9796
6.8083 59.2676
6.98711 56.5493
7.16591 55.8114
7.34475 74.6565
7.5236 55.4016
7.70247 57.3196
7.88135 58.691
8.06026 63.2832
8.23919 70.4189
8.41812 86.7224
8.59709 1217.73
8.77609 101.896
8.9551 90.5751
9.13412 83.8436
9.31318 84.8539
9.49226 86.048
9.67134 96.6865
9.85047 102.448
10.0296 409.833
10.2088 409.698
10.388 108.083
10.5672 494.561
10.7465 87.9832
10.9257 78.9662
11.105 72.6271
11.2844 70.1373
11.4637 65.9461
11.6431 64.5649
11.8225 63.4928
12.002 65.6199
12.1814 156.234
12.3609 69.3007
12.5405 65.5822
12.72 69.5969
12.8996 72.2127
13.0792 81.8697
13.2589 250.584
13.4386 124.707
13.6183 253.806
13.7981 97.7265
13.9779 76.9301
14.1577 73.1986
14.3376 71.7958
14.5175 70.2052
14.6974 71.85
14.8774 117.913
15.0574 147.316
15.2374 71.046
15.4175 67.5132
15.5976 67.1414
15.7778 101.229
15.958 155.682
16.1382 62.7299
16.3185 59.0755
16.4988 56.2132
16.6792 55.3287
16.8596 55.8114
17.04 57.0294
17.2205 68.6286
17.401 71.7675
17.5815 60.2668
17.7622 62.4383
17.9428 77.1771
18.1237 139.856
18.3044 91.9614
18.4852 78.0023
18.666 61.3353
18.8469 58.9318
19.0278 57.8973
19.2088 60.8969
19.3898 76.5673
19.5709 54.9527
19.752 54.3363
19.9332 57.8015
20.1144 70.3257
20.2957 64.4404
20.477 54.1994
20.6586 50.2756
20.84 49.5657
21.0215 49.4705
21.203 51.5897
21.3846 49.6977
21.5662 50.0833
21.7479 54.0599
21.9297 65.4336
22.1115 56.5275
22.2933 50.6604
22.4753 49.4761
22.6572 49.9084
22.8393 53.0435
23.0214 58.0131
23.2037 49.7772
23.3859 50.7346
23.5682 57.3014
23.7505 48.8418
23.9329 45.856
24.1154 44.6969
24.2979 44.002
24.4805 43.6393
24.6631 43.2632
24.8458 43.1276
25.0286 43.7128
25.2114 45.4263
25.3943 45.3403
25.5773 41.4477
25.7605 41.0685
25.9436 41.4606
26.1268 42.3298
26.31 40.7581
26.4933 41.4914
26.6767 42.7162
26.8601 41.0158
27.0437 39.5786
27.2272 39.168
27.4109 39.1038
27.5946 39.0043
27.7784 38.4971
27.9623 39.0978
28.1462 39.368
28.3304 37.73
28.5145 36.4389
28.6987 36.2434
28.8829 35.9689
29.0673 35.1411
29.2517 34.9487
29.4361 34.5664
29.6207 33.6407
29.8053 33.4683
29.99 33.1424
30.1748 32.9168
30.3597 32.8223
30.5447 32.6023
30.7297 32.7474
30.915 32.0296
31.1002 31.705
31.2855 31.3546
31.4708 31.2701
31.6563 30.863
31.8418 30.589
32.0275 30.4195
32.2132 29.7642
32.399 29.33
32.5848 28.9222
32.7708 28.6128
32.9569 28.4895
33.143 28.1325
33.3293 27.7628
33.5158 27.4095
33.7022 27.0248
33.8887 26.7637
34.0753 26.3804
34.262 26.0488
34.4488 25.7872
34.6357 25.3012
34.8227 25.0583
35.0098 24.8951
35.1969 24.5758
35.3842 24.3461
35.5716 24.1533
35.759 23.8676
35.9468 23.5157
36.1345 23.2023
36.3222 22.9724
36.5101 22.8183
36.6981 22.5176
36.8861 22.1631
37.0743 21.7844
37.2626 21.52
37.451 21.2779
37.6395 21.1446
37.8281 20.7263
38.0168 20.5338
38.2056 20.207
38.3945 19.9573
38.5837 19.712
38.7728 19.4993
38.9621 19.246
39.1514 18.9036
39.3409 18.8022
39.5304 18.5788
39.7201 18.3316
39.9099 18.141
40.0999 17.8558
40.2899 17.6262
40.48 17.3623
40.6703 17.1378
40.8607 17.0449
41.0512 16.7493
41.242 16.5142
41.4327 16.3185
41.6236 16.0789
41.8146 15.8955
42.0057 15.6622
42.1969 15.4546
42.3882 15.3071
42.5797 15.0609
42.7713 14.8253
42.963 14.6101
43.1549 14.4122
43.3468 14.259
43.5389 14.0277
43.7312 13.8102
43.9237 13.612
44.1162 13.4804
44.3088 13.2617
44.5016 13.0869
44.6945 12.8951
44.8875 12.6846
45.0806 12.5335
45.2739 12.3462
45.4673 12.1568
45.6609 12.0111
45.8546 11.8884
46.0484 11.6948
46.2424 11.5346
46.4365 11.3802
46.631 11.2004
46.8254 11.0181
47.0199 10.883
47.2146 10.6964
47.4095 10.5083
47.6044 10.3726
47.7996 10.2341
47.9948 10.0938
48.1902 9.91698
48.3858 9.81327
48.5815 9.68064
48.7774 9.50724
48.9734 9.37795
49.1696 9.24707
49.3661 9.06499
49.5626 8.96187
49.7592 8.83103
49.956 8.70921
50.153 8.5693
50.3501 8.43632
50.5474 8.28665
50.7448 8.17927
50.9424 8.06568
51.1402 7.92663
51.3381 7.76804
51.5362 7.62999
51.7344 7.52899
51.9328 7.42394
52.1316 7.27267
52.3304 7.15926
52.5293 7.03031
52.7284 6.91272
52.9276 6.82175
53.1271 6.72747
53.3267 6.60694
53.5265 6.47491
53.7264 6.38296
53.9266 6.26369
54.1269 6.1656
54.3274 6.01429
54.528 5.87976
54.7289 5.7133
54.9301 5.56687
55.1314 5.40276
55.3328 5.20073
55.5344 5.00953
55.7361 4.86226