File: XRD/Ni3Fe_FD0600.xy
TT I
1.27165 7.41068
1.45013 6.27334
1.62863 5.55524
1.80712 4.33091
1.98562 4.29425
2.16411 4.55768
2.34263 4.84742
2.52115 6.34958
2.69965 7.60595
2.87818 8.29894
3.05672 11.1658
3.23527 14.4422
3.4138 18.3245
3.59237 23.0104
3.77094 25.6899
3.9495 29.1509
4.12809 34.458
4.30669 101.74
4.4853 53.9131
4.6639 56.0509
4.84253 69.0124
5.02118 89.1093
5.19981 457.125
5.37848 206.437
5.55716 103.59
5.73586 94.4371
5.91455 97.5502
6.09328 4319.87
6.27201 81.9224
6.45075 69.7541
6.62952 63.1813
6.8083 59.4694
6.98711 55.9647
7.16591 56.0859
7.34475 67.5436
7.5236 54.763
7.70247 56.9977
7.88135 57.8941
8.06026 63.2823
8.23919 70.2301
8.41812 85.3299
8.59709 1267.01
8.77609 100.363
8.9551 90.3186
9.13412 83.6966
9.31318 85.5027
9.49226 85.6376
9.67134 95.8872
9.85047 102.458
10.0296 382.743
10.2088 378.275
10.388 107.177
10.5672 511.629
10.7465 87.3257
10.9257 78.8419
11.105 72.2272
11.2844 69.2089
11.4637 65.3561
11.6431 64.2346
11.8225 63.061
12.002 64.8974
12.1814 157.348
12.3609 67.4464
12.5405 65.3896
12.72 68.6666
12.8996 72.2709
13.0792 81.4547
13.2589 254.041
13.4386 122.902
13.6183 255.351
13.7981 98.0037
13.9779 76.6535
14.1577 72.8792
14.3376 71.1364
14.5175 69.5524
14.6974 71.5488
14.8774 117.015
15.0574 146.011
15.2374 70.3821
15.4175 67.0328
15.5976 66.3257
15.7778 99.7481
15.958 150.871
16.1382 61.9397
16.3185 58.4418
16.4988 56.0721
16.6792 54.8862
16.8596 55.4736
17.04 56.6763
17.2205 68.2442
17.401 71.5309
17.5815 59.7398
17.7622 61.8341
17.9428 75.9522
18.1237 140.181
18.3044 92.3191
18.4852 76.798
18.666 60.7869
18.8469 58.4315
19.0278 57.1932
19.2088 60.2553
19.3898 75.8328
19.5709 54.3889
19.752 53.8179
19.9332 57.0659
20.1144 70.1279
20.2957 64.17
20.477 53.4959
20.6586 50.1944
20.84 49.2265
21.0215 49.0034
21.203 51.1779
21.3846 49.2375
21.5662 49.3977
21.7479 53.5967
21.9297 64.8943
22.1115 56.2128
22.2933 50.0938
22.4753 49.1029
22.6572 49.3694
22.8393 52.8378
23.0214 57.3967
23.2037 49.1506
23.3859 50.384
23.5682 57.018
23.7505 48.3579
23.9329 45.6358
24.1154 44.3915
24.2979 43.6675
24.4805 43.1499
24.6631 43.0609
24.8458 42.5311
25.0286 43.1879
25.2114 45.011
25.3943 44.8522
25.5773 41.2125
25.7605 40.5809
25.9436 41.2716
26.1268 42.0394
26.31 40.3275
26.4933 41.0408
26.6767 42.448
26.8601 40.6835
27.0437 39.1192
27.2272 38.8144
27.4109 38.6797
27.5946 38.6919
27.7784 38.1321
27.9623 38.8234
28.1462 39.0683
28.3304 37.2545
28.5145 36.1803
28.6987 35.9005
28.8829 35.558
29.0673 34.8327
29.2517 34.6027
29.4361 34.3106
29.6207 33.3638
29.8053 33.0249
29.99 32.7731
30.1748 32.6188
30.3597 32.3779
30.5447 32.4262
30.7297 32.5098
30.915 31.7733
31.1002 31.2684
31.2855 31.0927
31.4708 31.0032
31.6563 30.5099
31.8418 30.4946
32.0275 30.0406
32.2132 29.5371
32.399 29.1281
32.5848 28.613
32.7708 28.3568
32.9569 28.1354
33.143 27.9795
33.3293 27.5728
33.5158 27.2573
33.7022 26.7115
33.8887 26.5404
34.0753 26.1835
34.262 25.8531
34.4488 25.5214
34.6357 25.193
34.8227 24.8116
35.0098 24.714
35.1969 24.3495
35.3842 24.1104
35.5716 23.8685
35.759 23.6188
35.9468 23.2932
36.1345 22.9626
36.3222 22.8137
36.5101 22.5711
36.6981 22.2395
36.8861 21.9431
37.0743 21.6738
37.2626 21.3822
37.451 21.137
37.6395 20.9095
37.8281 20.6166
38.0168 20.3656
38.2056 20.0604
38.3945 19.763
38.5837 19.5577
38.7728 19.2529
38.9621 19.0918
39.1514 18.7802
39.3409 18.5627
39.5304 18.295
39.7201 18.159
39.9099 17.9745
40.0999 17.6658
40.2899 17.4347
40.48 17.2235
40.6703 16.9905
40.8607 16.8219
41.0512 16.5869
41.242 16.3454
41.4327 16.127
41.6236 15.9097
41.8146 15.7689
42.0057 15.5134
42.1969 15.317
42.3882 15.1119
42.5797 14.9007
42.7713 14.6637
42.963 14.5176
43.1549 14.2789
43.3468 14.0551
43.5389 13.8848
43.7312 13.6965
43.9237 13.5243
44.1162 13.3519
44.3088 13.1132
44.5016 12.963
44.6945 12.7984
44.8875 12.6389
45.0806 12.412
45.2739 12.2703
45.4673 12.1205
45.6609 11.9163
45.8546 11.7781
46.0484 11.6089
46.2424 11.4028
46.4365 11.2569
46.631 11.0756
46.8254 10.9531
47.0199 10.7743
47.2146 10.6252
47.4095 10.4262
47.6044 10.2775
47.7996 10.0973
47.9948 9.97873
48.1902 9.86599
48.3858 9.70845
48.5815 9.58709
48.7774 9.44029
48.9734 9.29225
49.1696 9.16256
49.3661 8.99787
49.5626 8.84088
49.7592 8.7459
49.956 8.59573
50.153 8.46723
50.3501 8.35494
50.5474 8.22758
50.7448 8.12387
50.9424 7.96158
51.1402 7.86438
51.3381 7.7042
51.5362 7.57397
51.7344 7.45034
51.9328 7.35326
52.1316 7.21482
52.3304 7.12324
52.5293 6.98245
52.7284 6.86831
52.9276 6.75271
53.1271 6.61963
53.3267 6.49012
53.5265 6.41469
53.7264 6.32593
53.9266 6.1952
54.1269 6.08864
54.3274 5.98336
54.528 5.84574
54.7289 5.6858
54.9301 5.49549
55.1314 5.34636
55.3328 5.19681
55.5344 5.00057
55.7361 4.82383