File: XRD/Ni3Fe_FD0072.xy
TT I
1.27165 22.0504
1.45013 17.3078
1.62863 14.7227
1.80712 12.5937
1.98562 12.2434
2.16411 12.1729
2.34263 12.2897
2.52115 12.1537
2.69965 14.232
2.87818 19.1823
3.05672 33.0513
3.23527 32.2544
3.4138 22.3224
3.59237 20.7097
3.77094 21.8972
3.9495 24.5629
4.12809 28.1898
4.30669 34.3419
4.4853 38.4688
4.6639 45.6013
4.84253 58.9156
5.02118 101.603
5.19981 498.037
5.37848 2107.74
5.55716 134.298
5.73586 100.807
5.91455 124.981
6.09328 821.723
6.27201 156.388
6.45075 61.9812
6.62952 49.2374
6.8083 44.0183
6.98711 42.5002
7.16591 42.4253
7.34475 40.9928
7.5236 71.8908
7.70247 43.5773
7.88135 42.5996
8.06026 45.3669
8.23919 51.8554
8.41812 68.1276
8.59709 272.784
8.77609 219.141
8.9551 73.5685
9.13412 68.5428
9.31318 198.121
9.49226 64.5514
9.67134 65.6554
9.85047 74.5057
10.0296 243.93
10.2088 902.441
10.388 92.0565
10.5672 115.119
10.7465 128.45
10.9257 56.1873
11.105 50.6611
11.2844 47.5097
11.4637 45.414
11.6431 44.4297
11.8225 44.955
12.002 99.2062
12.1814 57.218
12.3609 77.9072
12.5405 45.7465
12.72 45.4243
12.8996 48.1078
13.0792 58.2527
13.2589 84.8027
13.4386 217.749
13.6183 84.5009
13.7981 178.815
13.9779 56.4822
14.1577 79.8274
14.3376 49.8475
14.5175 47.7296
14.6974 48.1993
14.8774 62.891
15.0574 108.575
15.2374 53.3827
15.4175 46.072
15.5976 45.7238
15.7778 57.6839
15.958 85.1148
16.1382 58.6578
16.3185 41.0691
16.4988 38.6516
16.6792 37.6906
16.8596 37.9189
17.04 40.4335
17.2205 40.3832
17.401 49.6224
17.5815 40.8883
17.7622 43.8035
17.9428 50.0595
18.1237 52.7178
18.3044 67.5626
18.4852 65.8484
18.666 44.8933
18.8469 40.4368
19.0278 39.1416
19.2088 40.5774
19.3898 47.3841
19.5709 43.6069
19.752 36.9932
19.9332 37.9062
20.1144 38.8276
20.2957 42.0115
20.477 43.1629
20.6586 34.8657
20.84 36.3238
21.0215 33.4694
21.203 33.3002
21.3846 34.7623
21.5662 33.6669
21.7479 34.5304
21.9297 35.8319
22.1115 40.5538
22.2933 37.7209
22.4753 33.6222
22.6572 33.1585
22.8393 34.4297
23.0214 34.6941
23.2037 36.0731
23.3859 34.5452
23.5682 33.8959
23.7505 38.3949
23.9329 31.9855
24.1154 30.9787
24.2979 30.0873
24.4805 29.4772
24.6631 29.9905
24.8458 29.3009
25.0286 28.9806
25.2114 29.1426
25.3943 29.6703
25.5773 29.5481
25.7605 28.0682
25.9436 27.8576
26.1268 27.747
26.31 28.4091
26.4933 27.5413
26.6767 27.5798
26.8601 28.6202
27.0437 27.682
27.2272 26.6241
27.4109 26.3301
27.5946 26.2449
27.7784 26.3299
27.9623 25.8858
28.1462 26.1118
28.3304 26.134
28.5145 25.1095
28.6987 24.6033
28.8829 24.1459
29.0673 24.1818
29.2517 23.7192
29.4361 23.2747
29.6207 23.2288
29.8053 22.7149
29.99 22.4805
30.1748 22.3961
30.3597 22.2056
30.5447 22.0481
30.7297 21.8834
30.915 21.9366
31.1002 21.7147
31.2855 21.3023
31.4708 21.2173
31.6563 21.1553
31.8418 20.805
32.0275 20.6644
32.2132 20.511
32.399 20.1304
32.5848 19.8807
32.7708 19.6437
32.9569 19.4464
33.143 19.266
33.3293 19.0362
33.5158 18.8997
33.7022 18.5722
33.8887 18.2748
34.0753 18.1463
34.262 17.9243
34.4488 17.6412
34.6357 17.4463
34.8227 17.2358
35.0098 17.0429
35.1969 16.9346
35.3842 16.6596
35.5716 16.5479
35.759 16.3834
35.9468 16.2177
36.1345 15.9897
36.3222 15.8803
36.5101 15.6729
36.6981 15.4184
36.8861 15.2173
37.0743 15.0292
37.2626 14.8998
37.451 14.6117
37.6395 14.5986
37.8281 14.3365
38.0168 14.1484
38.2056 14.0169
38.3945 13.7349
38.5837 13.6568
38.7728 13.4267
38.9621 13.2513
39.1514 13.0342
39.3409 12.8945
39.5304 12.7298
39.7201 12.6711
39.9099 12.4867
40.0999 12.3292
40.2899 12.1415
40.48 12.0125
40.6703 11.847
40.8607 11.7531
41.0512 11.5926
41.242 11.3689
41.4327 11.2848
41.6236 11.0702
41.8146 10.9858
42.0057 10.7962
42.1969 10.6529
42.3882 10.559
42.5797 10.3873
42.7713 10.2706
42.963 10.1414
43.1549 10.0009
43.3468 9.79835
43.5389 9.73133
43.7312 9.58247
43.9237 9.425
44.1162 9.27468
44.3088 9.16658
44.5016 9.0718
44.6945 8.93854
44.8875 8.83141
45.0806 8.7265
45.2739 8.60226
45.4673 8.44678
45.6609 8.33467
45.8546 8.23481
46.0484 8.16529
46.2424 7.97649
46.4365 7.89391
46.631 7.78024
46.8254 7.66142
47.0199 7.56105
47.2146 7.49056
47.4095 7.3263
47.6044 7.20213
47.7996 7.10297
47.9948 7.01689
48.1902 6.92067
48.3858 6.82238
48.5815 6.74438
48.7774 6.64948
48.9734 6.53659
49.1696 6.46524
49.3661 6.34117
49.5626 6.21591
49.7592 6.16119
49.956 6.09338
50.153 5.99693
50.3501 5.88657
50.5474 5.83396
50.7448 5.72965
50.9424 5.63408
51.1402 5.54755
51.3381 5.42927
51.5362 5.36581
51.7344 5.24441
51.9328 5.21002
52.1316 5.11227
52.3304 5.02647
52.5293 4.93256
52.7284 4.90477
52.9276 4.79513
53.1271 4.72547
53.3267 4.65881
53.5265 4.55955
53.7264 4.45722
53.9266 4.44538
54.1269 4.28221
54.3274 4.21174
54.528 4.02627
54.7289 3.89202
54.9301 3.80222
55.1314 3.67473
55.3328 3.4896
55.5344 3.36661
55.7361 3.27015