File: XRD/Ni3Fe_FD0823.xy
TT I
1.27165 7.07694
1.45013 6.38726
1.62863 5.11167
1.80712 4.743
1.98562 4.81549
2.16411 5.19525
2.34263 5.33593
2.52115 7.07594
2.69965 8.84025
2.87818 9.10948
3.05672 11.6675
3.23527 15.4405
3.4138 18.3474
3.59237 23.0235
3.77094 25.5108
3.9495 29.3282
4.12809 34.0664
4.30669 98.4347
4.4853 53.1017
4.6639 55.3826
4.84253 68.2029
5.02118 86.7656
5.19981 404.067
5.37848 193.655
5.55716 101.866
5.73586 92.9118
5.91455 95.1125
6.09328 4559.01
6.27201 79.8223
6.45075 69.8364
6.62952 62.9334
6.8083 59.0736
6.98711 55.2786
7.16591 56.2262
7.34475 65.341
7.5236 53.5235
7.70247 56.5026
7.88135 57.1327
8.06026 62.6355
8.23919 69.1233
8.41812 83.2644
8.59709 1224.46
8.77609 96.9422
8.9551 89.0012
9.13412 82.6397
9.31318 84.866
9.49226 84.6824
9.67134 95.1743
9.85047 101.081
10.0296 346.399
10.2088 349.35
10.388 104.563
10.5672 542.025
10.7465 85.6638
10.9257 77.6999
11.105 71.0127
11.2844 67.773
11.4637 64.157
11.6431 62.6807
11.8225 62.4354
12.002 64.1263
12.1814 161.993
12.3609 65.9197
12.5405 64.5866
12.72 67.2715
12.8996 70.8911
13.0792 80.1453
13.2589 250.768
13.4386 116.749
13.6183 260.219
13.7981 93.3897
13.9779 75.081
14.1577 71.017
14.3376 69.5239
14.5175 68.3302
14.6974 70.2535
14.8774 112.631
15.0574 138.83
15.2374 68.7459
15.4175 65.7188
15.5976 65.3561
15.7778 95.7884
15.958 146.632
16.1382 60.746
16.3185 57.5054
16.4988 54.8215
16.6792 53.9171
16.8596 54.333
17.04 55.6612
17.2205 67.0324
17.401 68.405
17.5815 58.6765
17.7622 60.8058
17.9428 73.3854
18.1237 141.834
18.3044 91.3076
18.4852 73.9976
18.666 59.5873
18.8469 57.5254
19.0278 56.2056
19.2088 58.8164
19.3898 75.1705
19.5709 53.5488
19.752 52.5964
19.9332 55.906
20.1144 69.7651
20.2957 63.9973
20.477 52.3227
20.6586 49.1219
20.84 48.3331
21.0215 48.1968
21.203 50.5367
21.3846 48.2469
21.5662 48.5096
21.7479 52.3836
21.9297 64.1105
22.1115 55.7208
22.2933 48.8558
22.4753 48.2343
22.6572 48.4918
22.8393 51.8729
23.0214 56.4641
23.2037 48.303
23.3859 49.1844
23.5682 57.0557
23.7505 47.336
23.9329 44.8527
24.1154 43.7189
24.2979 42.8923
24.4805 42.5103
24.6631 42.3145
24.8458 41.8858
25.0286 42.4516
25.2114 44.158
25.3943 43.9965
25.5773 40.4207
25.7605 39.9454
25.9436 40.4341
26.1268 41.1822
26.31 39.6067
26.4933 40.423
26.6767 41.8491
26.8601 39.9968
27.0437 38.4047
27.2272 38.1146
27.4109 38.0779
27.5946 37.9853
27.7784 37.4808
27.9623 38.1012
28.1462 38.4157
28.3304 36.5953
28.5145 35.5363
28.6987 35.2533
28.8829 35.0447
29.0673 34.2339
29.2517 33.9798
29.4361 33.7402
29.6207 32.7515
29.8053 32.6467
29.99 32.2861
30.1748 32.1058
30.3597 31.8779
30.5447 31.8394
30.7297 31.9221
30.915 31.2489
31.1002 30.7463
31.2855 30.5686
31.4708 30.5409
31.6563 30.0128
31.8418 29.7328
32.0275 29.552
32.2132 29.0778
32.399 28.6352
32.5848 28.1651
32.7708 27.755
32.9569 27.7275
33.143 27.5256
33.3293 27.1189
33.5158 26.7028
33.7022 26.322
33.8887 26.0298
34.0753 25.621
34.262 25.2995
34.4488 24.9896
34.6357 24.7126
34.8227 24.4949
35.0098 24.1928
35.1969 23.9602
35.3842 23.7409
35.5716 23.5283
35.759 23.3032
35.9468 22.8857
36.1345 22.6624
36.3222 22.4107
36.5101 22.1872
36.6981 21.9176
36.8861 21.5644
37.0743 21.2237
37.2626 21.0946
37.451 20.7839
37.6395 20.5941
37.8281 20.2752
38.0168 19.9201
38.2056 19.7431
38.3945 19.433
38.5837 19.2546
38.7728 18.9893
38.9621 18.7878
39.1514 18.549
39.3409 18.2438
39.5304 17.999
39.7201 17.8606
39.9099 17.5965
40.0999 17.4278
40.2899 17.1152
40.48 16.934
40.6703 16.7381
40.8607 16.5102
41.0512 16.3504
41.242 16.0787
41.4327 15.8757
41.6236 15.6536
41.8146 15.4903
42.0057 15.1906
42.1969 15.0394
42.3882 14.9016
42.5797 14.6118
42.7713 14.4325
42.963 14.2896
43.1549 13.9953
43.3468 13.8193
43.5389 13.6913
43.7312 13.5033
43.9237 13.3017
44.1162 13.1143
44.3088 12.957
44.5016 12.6997
44.6945 12.5509
44.8875 12.437
45.0806 12.2177
45.2739 12.0814
45.4673 11.8797
45.6609 11.7327
45.8546 11.5797
46.0484 11.3939
46.2424 11.2081
46.4365 11.0731
46.631 10.905
46.8254 10.7344
47.0199 10.5791
47.2146 10.4574
47.4095 10.2887
47.6044 10.1022
47.7996 10.0139
47.9948 9.81722
48.1902 9.71495
48.3858 9.57817
48.5815 9.39556
48.7774 9.28137
48.9734 9.14775
49.1696 9.01952
49.3661 8.87537
49.5626 8.69827
49.7592 8.60548
49.956 8.48509
50.153 8.3237
50.3501 8.20044
50.5474 8.12284
50.7448 7.95579
50.9424 7.81268
51.1402 7.71963
51.3381 7.54828
51.5362 7.48621
51.7344 7.33416
51.9328 7.20201
52.1316 7.10906
52.3304 7.02091
52.5293 6.85015
52.7284 6.75399
52.9276 6.63604
53.1271 6.54935
53.3267 6.41237
53.5265 6.29491
53.7264 6.14873
53.9266 6.14434
54.1269 5.95854
54.3274 5.85604
54.528 5.72032
54.7289 5.61157
54.9301 5.39686
55.1314 5.28549
55.3328 5.05966
55.5344 4.89164
55.7361 4.72689