File: XRD/Ni3Fe_FD0997.xy
TT I
1.27165 7.27926
1.45013 6.14374
1.62863 5.36987
1.80712 4.6365
1.98562 5.23702
2.16411 4.87378
2.34263 5.91195
2.52115 7.31353
2.69965 8.58075
2.87818 9.09511
3.05672 11.0147
3.23527 15.2522
3.4138 19.1396
3.59237 24.3674
3.77094 26.6512
3.9495 29.8593
4.12809 34.5288
4.30669 257.65
4.4853 69.8968
4.6639 54.2139
4.84253 65.8946
5.02118 83.9819
5.19981 267.865
5.37848 173.509
5.55716 99.2652
5.73586 89.5924
5.91455 89.8278
6.09328 4537.48
6.27201 81.2054
6.45075 66.341
6.62952 62.0395
6.8083 58.1423
6.98711 55.2825
7.16591 54.6351
7.34475 99.5148
7.5236 53.9163
7.70247 55.5442
7.88135 56.7062
8.06026 61.058
8.23919 67.9906
8.41812 83.274
8.59709 1101.96
8.77609 96.8032
8.9551 91.3077
9.13412 80.1531
9.31318 80.5264
9.49226 82.7871
9.67134 98.5324
9.85047 97.9615
10.0296 282.077
10.2088 372.836
10.388 102.25
10.5672 528.605
10.7465 84.7079
10.9257 77.1647
11.105 70.5689
11.2844 69.9531
11.4637 63.8493
11.6431 62.5271
11.8225 61.2764
12.002 62.1873
12.1814 148.174
12.3609 70.1263
12.5405 63.1235
12.72 69.5468
12.8996 69.3803
13.0792 76.5582
13.2589 222.248
13.4386 121.208
13.6183 235.241
13.7981 94.7319
13.9779 74.0498
14.1577 71.195
14.3376 70.7286
14.5175 67.4279
14.6974 68.7636
14.8774 102.599
15.0574 150.142
15.2374 70.1562
15.4175 65.0625
15.5976 64.0683
15.7778 88.3154
15.958 153.671
16.1382 61.9323
16.3185 57.6029
16.4988 54.6525
16.6792 53.3667
16.8596 54.122
17.04 54.4214
17.2205 64.4712
17.401 69.0213
17.5815 57.7771
17.7622 59.905
17.9428 70.0342
18.1237 139.016
18.3044 88.015
18.4852 75.7254
18.666 59.1553
18.8469 56.7715
19.0278 55.7424
19.2088 57.9018
19.3898 75.4462
19.5709 53.1345
19.752 52.2099
19.9332 54.6284
20.1144 69.1908
20.2957 63.1277
20.477 52.5641
20.6586 48.6386
20.84 47.754
21.0215 47.5511
21.203 49.9742
21.3846 47.8375
21.5662 47.6618
21.7479 50.9615
21.9297 63.5847
22.1115 55.3739
22.2933 48.9703
22.4753 47.9348
22.6572 47.5981
22.8393 50.4432
23.0214 56.5087
23.2037 47.7458
23.3859 48.4071
23.5682 56.3473
23.7505 47.3762
23.9329 44.2562
24.1154 43.2809
24.2979 42.7177
24.4805 42.2139
24.6631 41.897
24.8458 41.3164
25.0286 41.7791
25.2114 43.76
25.3943 43.7951
25.5773 40.1279
25.7605 39.6953
25.9436 40.0037
26.1268 41.0065
26.31 39.3558
26.4933 39.8305
26.6767 41.4399
26.8601 39.5369
27.0437 37.9803
27.2272 37.5463
27.4109 37.6621
27.5946 37.678
27.7784 36.9909
27.9623 37.6378
28.1462 38.0998
28.3304 36.5199
28.5145 35.3233
28.6987 34.9423
28.8829 34.8527
29.0673 33.892
29.2517 33.6638
29.4361 33.5036
29.6207 32.5469
29.8053 32.4708
29.99 31.9539
30.1748 31.7477
30.3597 31.7345
30.5447 31.5283
30.7297 31.6909
30.915 30.9099
31.1002 30.5106
31.2855 30.2727
31.4708 30.2809
31.6563 29.826
31.8418 29.5806
32.0275 29.3224
32.2132 28.8559
32.399 28.4833
32.5848 28.0059
32.7708 27.5774
32.9569 27.4095
33.143 27.2535
33.3293 26.8586
33.5158 26.5011
33.7022 26.1041
33.8887 25.8407
34.0753 25.5078
34.262 25.2023
34.4488 24.8064
34.6357 24.5243
34.8227 24.2586
35.0098 24.0383
35.1969 23.8179
35.3842 23.524
35.5716 23.2863
35.759 23.0767
35.9468 22.6542
36.1345 22.4935
36.3222 22.1734
36.5101 21.9574
36.6981 21.7601
36.8861 21.446
37.0743 21.1169
37.2626 20.8244
37.451 20.6133
37.6395 20.4601
37.8281 20.1689
38.0168 19.866
38.2056 19.6063
38.3945 19.3268
38.5837 19.1052
38.7728 18.8316
38.9621 18.5968
39.1514 18.3276
39.3409 18.1046
39.5304 17.8814
39.7201 17.7556
39.9099 17.5079
40.0999 17.2562
40.2899 17.0016
40.48 16.7902
40.6703 16.5968
40.8607 16.4468
41.0512 16.1465
41.242 15.9392
41.4327 15.7774
41.6236 15.5238
41.8146 15.3262
42.0057 15.1439
42.1969 14.9248
42.3882 14.7622
42.5797 14.5413
42.7713 14.3861
42.963 14.1999
43.1549 13.9339
43.3468 13.7368
43.5389 13.5642
43.7312 13.3585
43.9237 13.2392
44.1162 13.0495
44.3088 12.8751
44.5016 12.6874
44.6945 12.542
44.8875 12.3104
45.0806 12.1633
45.2739 11.9682
45.4673 11.8247
45.6609 11.6325
45.8546 11.4994
46.0484 11.3094
46.2424 11.1439
46.4365 10.9728
46.631 10.8587
46.8254 10.6849
47.0199 10.5641
47.2146 10.3692
47.4095 10.2196
47.6044 10.0509
47.7996 9.92782
47.9948 9.8145
48.1902 9.6406
48.3858 9.47508
48.5815 9.37906
48.7774 9.24022
48.9734 9.06969
49.1696 8.96387
49.3661 8.79516
49.5626 8.67037
49.7592 8.56118
49.956 8.41463
50.153 8.26553
50.3501 8.15745
50.5474 8.06458
50.7448 7.93359
50.9424 7.818
51.1402 7.71243
51.3381 7.52706
51.5362 7.42245
51.7344 7.32064
51.9328 7.14556
52.1316 7.03919
52.3304 6.96226
52.5293 6.84262
52.7284 6.75116
52.9276 6.61745
53.1271 6.5216
53.3267 6.38884
53.5265 6.30958
53.7264 6.20796
53.9266 6.06883
54.1269 5.94103
54.3274 5.85215
54.528 5.71025
54.7289 5.55362
54.9301 5.36834
55.1314 5.29344
55.3328 5.07275
55.5344 4.85324
55.7361 4.74152