File: XRD/Ni3Fe_FD0494.xy
TT I
1.27165 7.75219
1.45013 6.28141
1.62863 5.94633
1.80712 5.36155
1.98562 5.19093
2.16411 4.92711
2.34263 5.42473
2.52115 6.21629
2.69965 8.04803
2.87818 8.76168
3.05672 11.3521
3.23527 15.0684
3.4138 18.7265
3.59237 24.3435
3.77094 26.493
3.9495 30.0914
4.12809 34.9372
4.30669 181.327
4.4853 62.5605
4.6639 56.0641
4.84253 68.6977
5.02118 88.9009
5.19981 419.475
5.37848 204.94
5.55716 104.208
5.73586 93.8069
5.91455 97.4648
6.09328 4196.08
6.27201 85.0434
6.45075 68.4429
6.62952 63.8199
6.8083 59.4272
6.98711 56.3394
7.16591 55.9141
7.34475 85.3411
7.5236 55.4918
7.70247 56.8488
7.88135 58.7676
8.06026 63.2456
8.23919 70.3049
8.41812 86.6002
8.59709 1207.97
8.77609 102.391
8.9551 91.8454
9.13412 83.2458
9.31318 84.2502
9.49226 86.1248
9.67134 98.6123
9.85047 101.629
10.0296 375.326
10.2088 460.019
10.388 106.561
10.5672 500.201
10.7465 87.9659
10.9257 79.263
11.105 72.8203
11.2844 70.7831
11.4637 65.8914
11.6431 64.5919
11.8225 63.5014
12.002 64.5555
12.1814 155.405
12.3609 71.0721
12.5405 65.7323
12.72 70.3104
12.8996 71.943
13.0792 80.4077
13.2589 244.192
13.4386 131.494
13.6183 249.44
13.7981 103.45
13.9779 76.9858
14.1577 73.2258
14.3376 72.2755
14.5175 70.2019
14.6974 71.481
14.8774 114.241
15.0574 156.509
15.2374 71.9308
15.4175 67.3975
15.5976 66.9813
15.7778 98.2954
15.958 158.66
16.1382 63.2506
16.3185 59.1302
16.4988 56.2796
16.6792 55.2353
16.8596 55.9931
17.04 56.5782
17.2205 68.0109
17.401 72.8001
17.5815 60.1995
17.7622 62.2235
17.9428 75.7684
18.1237 135.983
18.3044 91.7214
18.4852 80.4302
18.666 61.2962
18.8469 59.0118
19.0278 57.7369
19.2088 60.7347
19.3898 75.9558
19.5709 55.191
19.752 54.1275
19.9332 57.1805
20.1144 70.0983
20.2957 64.1897
20.477 54.7787
20.6586 50.5182
20.84 49.67
21.0215 49.4138
21.203 51.5317
21.3846 49.7479
21.5662 49.632
21.7479 53.5773
21.9297 64.6351
22.1115 56.4121
22.2933 50.7609
22.4753 49.5866
22.6572 49.5492
22.8393 52.7249
23.0214 57.8494
23.2037 49.5579
23.3859 50.4951
23.5682 57.0358
23.7505 49.4454
23.9329 45.8684
24.1154 44.9356
24.2979 44.0747
24.4805 43.5961
24.6631 43.403
24.8458 42.8189
25.0286 43.568
25.2114 45.2901
25.3943 45.0345
25.5773 41.5659
25.7605 41.1311
25.9436 41.4824
26.1268 42.3337
26.31 40.7977
26.4933 41.3477
26.6767 42.6964
26.8601 40.9935
27.0437 39.5019
27.2272 39.0625
27.4109 39.013
27.5946 39.0102
27.7784 38.3697
27.9623 38.9299
28.1462 39.4127
28.3304 37.7957
28.5145 36.4667
28.6987 36.2289
28.8829 35.8722
29.0673 35.1252
29.2517 34.8379
29.4361 34.6884
29.6207 33.7249
29.8053 33.4471
29.99 33.0756
30.1748 32.9145
30.3597 32.8457
30.5447 32.6345
30.7297 32.7486
30.915 32.1314
31.1002 31.537
31.2855 31.3759
31.4708 31.1898
31.6563 30.6796
31.8418 30.6029
32.0275 30.3209
32.2132 29.8625
32.399 29.2916
32.5848 28.929
32.7708 28.6125
32.9569 28.4201
33.143 28.1476
33.3293 27.7157
33.5158 27.3895
33.7022 27.003
33.8887 26.6701
34.0753 26.4622
34.262 25.9968
34.4488 25.6898
34.6357 25.3854
34.8227 25.0275
35.0098 24.7543
35.1969 24.6106
35.3842 24.3162
35.5716 24.1589
35.759 23.8726
35.9468 23.4459
36.1345 23.191
36.3222 22.9866
36.5101 22.7103
36.6981 22.4298
36.8861 22.2051
37.0743 21.864
37.2626 21.6647
37.451 21.3026
37.6395 21.1318
37.8281 20.8335
38.0168 20.5911
38.2056 20.2416
38.3945 19.994
38.5837 19.7278
38.7728 19.445
38.9621 19.2303
39.1514 18.987
39.3409 18.776
39.5304 18.5489
39.7201 18.3079
39.9099 18.1077
40.0999 17.8439
40.2899 17.5563
40.48 17.3552
40.6703 17.2002
40.8607 16.9872
41.0512 16.7436
41.242 16.5621
41.4327 16.264
41.6236 16.054
41.8146 15.8504
42.0057 15.6551
42.1969 15.388
42.3882 15.1559
42.5797 15.0168
42.7713 14.8466
42.963 14.6581
43.1549 14.4313
43.3468 14.1888
43.5389 14.1045
43.7312 13.8483
43.9237 13.676
44.1162 13.4848
44.3088 13.2749
44.5016 13.1202
44.6945 12.9148
44.8875 12.7035
45.0806 12.524
45.2739 12.3413
45.4673 12.179
45.6609 12.0163
45.8546 11.8849
46.0484 11.6905
46.2424 11.5731
46.4365 11.3585
46.631 11.2123
46.8254 11.0455
47.0199 10.8849
47.2146 10.7285
47.4095 10.5459
47.6044 10.371
47.7996 10.2174
47.9948 10.0735
48.1902 9.93717
48.3858 9.82151
48.5815 9.65669
48.7774 9.51897
48.9734 9.377
49.1696 9.20854
49.3661 9.09632
49.5626 8.94852
49.7592 8.86445
49.956 8.68755
50.153 8.56877
50.3501 8.39007
50.5474 8.2873
50.7448 8.16862
50.9424 8.03943
51.1402 7.88714
51.3381 7.78887
51.5362 7.67473
51.7344 7.5702
51.9328 7.4005
52.1316 7.27897
52.3304 7.14535
52.5293 7.06471
52.7284 6.94332
52.9276 6.80452
53.1271 6.71149
53.3267 6.57163
53.5265 6.49912
53.7264 6.31476
53.9266 6.21745
54.1269 6.14917
54.3274 6.03864
54.528 5.90706
54.7289 5.7372
54.9301 5.5745
55.1314 5.44129
55.3328 5.22393
55.5344 5.04361
55.7361 4.88528