File: XRD/Ni3Fe_FD0054.xy
TT I
1.27165 32.6046
1.45013 26.6327
1.62863 23.5466
1.80712 21.4257
1.98562 20.4034
2.16411 20.5797
2.34263 21.1791
2.52115 21.3241
2.69965 26.0623
2.87818 35.9994
3.05672 63.5062
3.23527 66.4169
3.4138 34.2123
3.59237 27.2807
3.77094 26.0128
3.9495 27.2821
4.12809 29.5256
4.30669 37.8213
4.4853 37.5641
4.6639 42.8473
4.84253 55.0447
5.02118 105.03
5.19981 317.356
5.37848 3076.08
5.55716 150.165
5.73586 103.411
5.91455 119.115
6.09328 578.24
6.27201 216.056
6.45075 64.3617
6.62952 47.8164
6.8083 41.8475
6.98711 41.4544
7.16591 43.6519
7.34475 39.3378
7.5236 60.5224
7.70247 44.0753
7.88135 38.6108
8.06026 41.0935
8.23919 46.8781
8.41812 59.8033
8.59709 187.907
8.77609 356.258
8.9551 74.8989
9.13412 65.3632
9.31318 323.322
9.49226 59.2821
9.67134 58.0122
9.85047 64.0714
10.0296 121.62
10.2088 693.205
10.388 99.0669
10.5672 99.1015
10.7465 193.741
10.9257 52.0223
11.105 45.3874
11.2844 43.2317
11.4637 40.3639
11.6431 39.5216
11.8225 40.083
12.002 116.247
12.1814 50.9001
12.3609 84.5573
12.5405 42.5919
12.72 40.0783
12.8996 41.7485
13.0792 48.5879
13.2589 69.0154
13.4386 189.275
13.6183 80.2633
13.7981 182.434
13.9779 54.8769
14.1577 65.8294
14.3376 46.9932
14.5175 42.1913
14.6974 41.7125
14.8774 49.1655
15.0574 78.5464
15.2374 59.5916
15.4175 42.1185
15.5976 41.0804
15.7778 46.1457
15.958 65.2787
16.1382 78.3712
16.3185 38.5452
16.4988 35.2583
16.6792 34.2284
16.8596 34.2504
17.04 42.0213
17.2205 35.8886
17.401 41.3851
17.5815 39.4646
17.7622 38.4898
17.9428 41.379
18.1237 46.2127
18.3044 80.3281
18.4852 56.3687
18.666 48.3047
18.8469 37.2839
19.0278 35.7485
19.2088 35.9279
19.3898 47.4118
19.5709 44.1412
19.752 34.5489
19.9332 33.5615
20.1144 34.5438
20.2957 42.4361
20.477 39.5251
20.6586 33.3817
20.84 35.1762
21.0215 30.6074
21.203 30.2326
21.3846 31.4537
21.5662 31.7147
21.7479 31.0859
21.9297 32.3828
22.1115 40.7295
22.2933 37.1538
22.4753 31.8396
22.6572 30.6097
22.8393 32.145
23.0214 32.081
23.2037 36.8861
23.3859 31.8552
23.5682 33.2715
23.7505 35.9251
23.9329 31.5793
24.1154 29.5137
24.2979 28.0649
24.4805 27.4528
24.6631 27.9384
24.8458 27.4718
25.0286 26.9471
25.2114 27.1308
25.3943 28.5671
25.5773 28.9878
25.7605 26.6171
25.9436 26.8392
26.1268 25.9589
26.31 26.9809
26.4933 26.1321
26.6767 25.8861
26.8601 27.5136
27.0437 27.4609
27.2272 25.4188
27.4109 24.9952
27.5946 24.9222
27.7784 25.1222
27.9623 24.6501
28.1462 25.2369
28.3304 25.6991
28.5145 24.6353
28.6987 23.7227
28.8829 23.0532
29.0673 22.798
29.2517 22.6937
29.4361 22.1485
29.6207 22.1382
29.8053 21.7091
29.99 21.3823
30.1748 21.5409
30.3597 21.107
30.5447 21.1441
30.7297 20.8817
30.915 21.0963
31.1002 21.1221
31.2855 20.5229
31.4708 20.1861
31.6563 20.3067
31.8418 20.268
32.0275 19.8516
32.2132 19.9202
32.399 19.5195
32.5848 19.1237
32.7708 18.7973
32.9569 18.6771
33.143 18.4937
33.3293 18.2446
33.5158 18.3118
33.7022 17.9064
33.8887 17.5817
34.0753 17.4087
34.262 17.174
34.4488 16.9084
34.6357 16.7864
34.8227 16.5799
35.0098 16.3689
35.1969 16.2455
35.3842 16.0379
35.5716 15.8771
35.759 15.8732
35.9468 15.631
36.1345 15.421
36.3222 15.289
36.5101 15.1199
36.6981 14.9872
36.8861 14.7623
37.0743 14.5618
37.2626 14.4092
37.451 14.2307
37.6395 14.1284
37.8281 13.8521
38.0168 13.6855
38.2056 13.5706
38.3945 13.3925
38.5837 13.1917
38.7728 13.0629
38.9621 12.9401
39.1514 12.7919
39.3409 12.5823
39.5304 12.4754
39.7201 12.29
39.9099 12.17
40.0999 12.0224
40.2899 11.8819
40.48 11.684
40.6703 11.5975
40.8607 11.4372
41.0512 11.3532
41.242 11.1322
41.4327 11.0717
41.6236 10.9302
41.8146 10.8109
42.0057 10.6202
42.1969 10.4747
42.3882 10.3759
42.5797 10.2347
42.7713 10.091
42.963 9.98922
43.1549 9.82026
43.3468 9.67022
43.5389 9.57743
43.7312 9.43164
43.9237 9.30479
44.1162 9.1975
44.3088 9.06932
44.5016 8.98218
44.6945 8.80896
44.8875 8.73937
45.0806 8.61301
45.2739 8.53125
45.4673 8.41339
45.6609 8.3029
45.8546 8.13681
46.0484 8.05137
46.2424 7.86153
46.4365 7.85629
46.631 7.73789
46.8254 7.60572
47.0199 7.48504
47.2146 7.35611
47.4095 7.24868
47.6044 7.1333
47.7996 7.08142
47.9948 6.96959
48.1902 6.85527
48.3858 6.7953
48.5815 6.66656
48.7774 6.59459
48.9734 6.47006
49.1696 6.42208
49.3661 6.30553
49.5626 6.18272
49.7592 6.11758
49.956 6.04495
50.153 5.95163
50.3501 5.88153
50.5474 5.7921
50.7448 5.65961
50.9424 5.60931
51.1402 5.56349
51.3381 5.44226
51.5362 5.38113
51.7344 5.30638
51.9328 5.18391
52.1316 5.09304
52.3304 5.06385
52.5293 4.9726
52.7284 4.8889
52.9276 4.7987
53.1271 4.77735
53.3267 4.64129
53.5265 4.56474
53.7264 4.47516
53.9266 4.40353
54.1269 4.32419
54.3274 4.22023
54.528 4.11473
54.7289 3.99074
54.9301 3.85915
55.1314 3.80528
55.3328 3.57374
55.5344 3.39205
55.7361 3.37115