File: XRD/Ni3Fe_FD0583.xy
TT I
1.27165 7.11087
1.45013 5.69673
1.62863 5.69748
1.80712 5.08923
1.98562 4.90392
2.16411 4.55945
2.34263 5.86501
2.52115 6.36164
2.69965 8.06614
2.87818 8.50994
3.05672 10.8575
3.23527 14.8857
3.4138 18.6505
3.59237 23.2485
3.77094 25.7237
3.9495 29.4932
4.12809 34.2157
4.30669 120.545
4.4853 55.7607
4.6639 55.6024
4.84253 68.3571
5.02118 88.4468
5.19981 472.203
5.37848 199.606
5.55716 103.072
5.73586 93.7238
5.91455 97.3597
6.09328 4412.07
6.27201 81.7883
6.45075 69.0481
6.62952 62.727
6.8083 59.0423
6.98711 55.6549
7.16591 55.7756
7.34475 71.5791
7.5236 54.2933
7.70247 56.6204
7.88135 57.9826
8.06026 62.5521
8.23919 69.7268
8.41812 85.1443
8.59709 1260.53
8.77609 99.53
8.9551 89.5583
9.13412 82.8184
9.31318 84.2995
9.49226 85.0419
9.67134 95.889
9.85047 101.429
10.0296 380.815
10.2088 369.804
10.388 106.533
10.5672 517.614
10.7465 87.1051
10.9257 78.0753
11.105 71.6646
11.2844 69.0255
11.4637 65.1447
11.6431 63.5148
11.8225 62.8352
12.002 64.803
12.1814 155.532
12.3609 67.6191
12.5405 64.9314
12.72 69.1533
12.8996 71.6356
13.0792 81.0045
13.2589 252.074
13.4386 121.413
13.6183 254.47
13.7981 96.3889
13.9779 76.5546
14.1577 72.4879
14.3376 70.9803
14.5175 69.4094
14.6974 71.1714
14.8774 116.096
15.0574 142.681
15.2374 70.1318
15.4175 66.8327
15.5976 66.5372
15.7778 99.0959
15.958 150.614
16.1382 61.9187
16.3185 58.1113
16.4988 55.6919
16.6792 54.7407
16.8596 55.4757
17.04 56.4152
17.2205 67.9073
17.401 70.7404
17.5815 59.5262
17.7622 61.7925
17.9428 75.5525
18.1237 140.902
18.3044 92.0345
18.4852 76.9525
18.666 60.5622
18.8469 58.2959
19.0278 57.3458
19.2088 59.9834
19.3898 75.9171
19.5709 54.4722
19.752 53.6866
19.9332 56.7629
20.1144 70.0198
20.2957 64.1584
20.477 53.5397
20.6586 49.9246
20.84 49.2062
21.0215 49.0075
21.203 51.2086
21.3846 49.0725
21.5662 49.4485
21.7479 53.409
21.9297 65.0402
22.1115 56.425
22.2933 50.011
22.4753 49.0212
22.6572 49.3601
22.8393 52.5259
23.0214 57.3616
23.2037 49.1221
23.3859 50.2099
23.5682 57.2258
23.7505 48.3087
23.9329 45.5531
24.1154 44.3592
24.2979 43.5729
24.4805 43.2416
24.6631 43.0767
24.8458 42.5392
25.0286 43.2784
25.2114 44.9978
25.3943 44.7829
25.5773 41.1225
25.7605 40.6314
25.9436 41.1574
26.1268 41.8622
26.31 40.4122
26.4933 41.0699
26.6767 42.5264
26.8601 40.6302
27.0437 39.1788
27.2272 38.8248
27.4109 38.6808
27.5946 38.5964
27.7784 38.1211
27.9623 38.6655
28.1462 39.0779
28.3304 37.3123
28.5145 36.0773
28.6987 35.8356
28.8829 35.5886
29.0673 34.8986
29.2517 34.5931
29.4361 34.3653
29.6207 33.3505
29.8053 33.0979
29.99 32.7296
30.1748 32.6614
30.3597 32.4623
30.5447 32.3628
30.7297 32.4645
30.915 31.8023
31.1002 31.2698
31.2855 30.9916
31.4708 30.9699
31.6563 30.6584
31.8418 30.3352
32.0275 30.0761
32.2132 29.4872
32.399 29.0601
32.5848 28.6971
32.7708 28.4098
32.9569 28.1954
33.143 28.0192
33.3293 27.5993
33.5158 27.1583
33.7022 26.7668
33.8887 26.5663
34.0753 26.1877
34.262 25.7035
34.4488 25.514
34.6357 25.0842
34.8227 24.8599
35.0098 24.5572
35.1969 24.2958
35.3842 24.1912
35.5716 23.8642
35.759 23.5726
35.9468 23.2453
36.1345 23.1127
36.3222 22.7761
36.5101 22.5739
36.6981 22.2729
36.8861 22.0136
37.0743 21.6388
37.2626 21.37
37.451 21.14
37.6395 20.9491
37.8281 20.6773
38.0168 20.328
38.2056 20.0709
38.3945 19.8233
38.5837 19.5424
38.7728 19.3037
38.9621 19.0463
39.1514 18.7776
39.3409 18.6131
39.5304 18.3839
39.7201 18.1528
39.9099 17.8793
40.0999 17.6802
40.2899 17.4717
40.48 17.2054
40.6703 17.001
40.8607 16.866
41.0512 16.5878
41.242 16.3247
41.4327 16.1788
41.6236 15.9453
41.8146 15.7644
42.0057 15.5048
42.1969 15.3034
42.3882 15.1123
42.5797 14.8895
42.7713 14.6688
42.963 14.4214
43.1549 14.27
43.3468 14.0923
43.5389 13.9118
43.7312 13.7356
43.9237 13.4883
44.1162 13.3476
44.3088 13.172
44.5016 12.9493
44.6945 12.8474
44.8875 12.619
45.0806 12.4598
45.2739 12.2758
45.4673 12.094
45.6609 11.8605
45.8546 11.7766
46.0484 11.6573
46.2424 11.4486
46.4365 11.2479
46.631 11.0841
46.8254 10.9139
47.0199 10.7591
47.2146 10.6508
47.4095 10.4498
47.6044 10.2552
47.7996 10.1396
47.9948 9.93594
48.1902 9.83377
48.3858 9.70914
48.5815 9.57699
48.7774 9.40092
48.9734 9.30702
49.1696 9.17773
49.3661 8.98595
49.5626 8.87825
49.7592 8.71866
49.956 8.60232
50.153 8.48508
50.3501 8.31594
50.5474 8.22612
50.7448 8.0965
50.9424 7.98852
51.1402 7.85225
51.3381 7.68774
51.5362 7.56331
51.7344 7.46847
51.9328 7.33404
52.1316 7.19153
52.3304 7.09149
52.5293 6.98229
52.7284 6.85894
52.9276 6.74653
53.1271 6.66595
53.3267 6.5168
53.5265 6.39817
53.7264 6.31759
53.9266 6.22482
54.1269 6.11082
54.3274 5.98693
54.528 5.83735
54.7289 5.69405
54.9301 5.53339
55.1314 5.43024
55.3328 5.22401
55.5344 4.97045
55.7361 4.85522