File: XRD/Ni3Fe_FD0876.xy
TT I
1.27165 7.07823
1.45013 5.95662
1.62863 5.13678
1.80712 4.86532
1.98562 5.0395
2.16411 5.52197
2.34263 5.83086
2.52115 7.31369
2.69965 8.34145
2.87818 8.09298
3.05672 10.7002
3.23527 15.2105
3.4138 19.2252
3.59237 24.225
3.77094 26.5659
3.9495 29.5902
4.12809 34.6187
4.30669 255.323
4.4853 68.7444
4.6639 54.8573
4.84253 66.4993
5.02118 84.2775
5.19981 290.982
5.37848 177.837
5.55716 100.255
5.73586 90.0602
5.91455 90.9296
6.09328 4361.3
6.27201 82.0073
6.45075 66.7061
6.62952 62.1706
6.8083 58.4045
6.98711 55.362
7.16591 54.9698
7.34475 97.9235
7.5236 54.3428
7.70247 55.5249
7.88135 57.1385
8.06026 61.4048
8.23919 68.8346
8.41812 83.6676
8.59709 1108.63
8.77609 97.3409
8.9551 91.9193
9.13412 80.8286
9.31318 81.4172
9.49226 83.2946
9.67134 98.9049
9.85047 97.9715
10.0296 296.196
10.2088 404.976
10.388 102.705
10.5672 524.859
10.7465 85.4369
10.9257 77.8774
11.105 71.0593
11.2844 70.1289
11.4637 64.3656
11.6431 62.8994
11.8225 61.6674
12.002 62.693
12.1814 149.463
12.3609 71.1364
12.5405 63.8158
12.72 69.8647
12.8996 69.7335
13.0792 77.2367
13.2589 224.25
13.4386 123.398
13.6183 240.164
13.7981 95.6675
13.9779 74.624
14.1577 71.6173
14.3376 71.0534
14.5175 67.8879
14.6974 69.166
14.8774 104.782
15.0574 146.435
15.2374 70.4875
15.4175 65.3593
15.5976 64.7381
15.7778 89.7709
15.958 155.07
16.1382 62.2509
16.3185 58.073
16.4988 54.7557
16.6792 53.8148
16.8596 54.5091
17.04 54.9213
17.2205 65.0314
17.401 69.8439
17.5815 58.4726
17.7622 60.3356
17.9428 70.8917
18.1237 138.423
18.3044 88.5512
18.4852 76.7898
18.666 59.6048
18.8469 57.1221
19.0278 56.1257
19.2088 58.2931
19.3898 76.5073
19.5709 53.536
19.752 52.5235
19.9332 55.1199
20.1144 69.4642
20.2957 63.3478
20.477 53.2435
20.6586 49.0084
20.84 48.1174
21.0215 47.7765
21.203 50.3063
21.3846 48.3493
21.5662 48.0998
21.7479 51.4631
21.9297 63.9912
22.1115 55.49
22.2933 49.1341
22.4753 48.1882
22.6572 48.1442
22.8393 51.1196
23.0214 56.946
23.2037 48.1869
23.3859 48.9033
23.5682 56.4052
23.7505 47.7415
23.9329 44.752
24.1154 43.535
24.2979 42.879
24.4805 42.4317
24.6631 42.3291
24.8458 41.744
25.0286 42.2933
25.2114 44.1058
25.3943 44.1576
25.5773 40.4546
25.7605 39.9319
25.9436 40.1681
26.1268 41.0594
26.31 39.5753
26.4933 40.2684
26.6767 41.6325
26.8601 39.8306
27.0437 38.4002
27.2272 38.0734
27.4109 37.973
27.5946 37.9379
27.7784 37.3758
27.9623 37.9521
28.1462 38.3627
28.3304 36.7289
28.5145 35.6623
28.6987 35.1327
28.8829 35.1229
29.0673 34.247
29.2517 33.9091
29.4361 33.617
29.6207 32.7582
29.8053 32.4875
29.99 32.236
30.1748 32.0043
30.3597 31.9477
30.5447 31.7839
30.7297 31.8784
30.915 31.2929
31.1002 30.7297
31.2855 30.5289
31.4708 30.519
31.6563 29.9821
31.8418 29.7348
32.0275 29.5815
32.2132 29.0171
32.399 28.64
32.5848 28.1422
32.7708 27.8199
32.9569 27.7122
33.143 27.4696
33.3293 27.106
33.5158 26.7394
33.7022 26.2902
33.8887 26.0514
34.0753 25.6461
34.262 25.3363
34.4488 25.0965
34.6357 24.6428
34.8227 24.4316
35.0098 24.2184
35.1969 23.885
35.3842 23.7295
35.5716 23.4681
35.759 23.1689
35.9468 22.8684
36.1345 22.6764
36.3222 22.3471
36.5101 22.1689
36.6981 21.8812
36.8861 21.5525
37.0743 21.2751
37.2626 20.9802
37.451 20.6767
37.6395 20.631
37.8281 20.2709
38.0168 19.9685
38.2056 19.7317
38.3945 19.4737
38.5837 19.2368
38.7728 19.0265
38.9621 18.7795
39.1514 18.4937
39.3409 18.2275
39.5304 18.0532
39.7201 17.9148
39.9099 17.6405
40.0999 17.4086
40.2899 17.1282
40.48 16.8923
40.6703 16.7263
40.8607 16.5649
41.0512 16.3533
41.242 16.081
41.4327 15.8691
41.6236 15.7049
41.8146 15.4657
42.0057 15.3055
42.1969 15.0537
42.3882 14.8575
42.5797 14.6219
42.7713 14.4703
42.963 14.2659
43.1549 14.0722
43.3468 13.8822
43.5389 13.6504
43.7312 13.4736
43.9237 13.3097
44.1162 13.1749
44.3088 12.9225
44.5016 12.7379
44.6945 12.5827
44.8875 12.4008
45.0806 12.1986
45.2739 12.0802
45.4673 11.8811
45.6609 11.7334
45.8546 11.5463
46.0484 11.3894
46.2424 11.2347
46.4365 11.0769
46.631 10.9116
46.8254 10.6936
47.0199 10.5963
47.2146 10.421
47.4095 10.2902
47.6044 10.1289
47.7996 9.97107
47.9948 9.82677
48.1902 9.68908
48.3858 9.53712
48.5815 9.44009
48.7774 9.27135
48.9734 9.13065
49.1696 9.01735
49.3661 8.87455
49.5626 8.705
49.7592 8.63777
49.956 8.48714
50.153 8.37006
50.3501 8.21721
50.5474 8.08277
50.7448 7.94602
50.9424 7.83956
51.1402 7.72968
51.3381 7.58418
51.5362 7.46133
51.7344 7.35771
51.9328 7.20877
52.1316 7.11361
52.3304 7.01888
52.5293 6.89423
52.7284 6.75146
52.9276 6.65448
53.1271 6.56854
53.3267 6.41212
53.5265 6.33631
53.7264 6.21347
53.9266 6.11931
54.1269 5.99308
54.3274 5.90413
54.528 5.74982
54.7289 5.58535
54.9301 5.4162
55.1314 5.27956
55.3328 5.09547
55.5344 4.95695
55.7361 4.78254