File: XRD/Ni3Fe_FD0755.xy
TT I
1.27165 7.01606
1.45013 5.88019
1.62863 5.27165
1.80712 5.26522
1.98562 4.75131
2.16411 5.32964
2.34263 5.7725
2.52115 6.93212
2.69965 8.4318
2.87818 8.91026
3.05672 11.396
3.23527 15.1137
3.4138 18.8157
3.59237 24.3242
3.77094 26.3821
3.9495 29.9813
4.12809 35.2314
4.30669 251.313
4.4853 68.6129
4.6639 54.8262
4.84253 66.4643
5.02118 85.513
5.19981 308.238
5.37848 187.944
5.55716 100.525
5.73586 91.4231
5.91455 92.1965
6.09328 4265.26
6.27201 82.7867
6.45075 66.9779
6.62952 62.8293
6.8083 58.7628
6.98711 55.2744
7.16591 55.2552
7.34475 98.974
7.5236 54.6595
7.70247 55.873
7.88135 57.3289
8.06026 61.994
8.23919 69.1017
8.41812 84.4128
8.59709 1110.83
8.77609 98.4581
8.9551 92.0228
9.13412 81.3446
9.31318 81.5699
9.49226 83.6186
9.67134 99.2498
9.85047 98.6068
10.0296 307.547
10.2088 410.302
10.388 103.926
10.5672 508.879
10.7465 85.888
10.9257 78.0024
11.105 71.3758
11.2844 70.5278
11.4637 64.5429
11.6431 63.0693
11.8225 62.2272
12.002 62.9004
12.1814 149.077
12.3609 71.5632
12.5405 64.4206
12.72 69.9885
12.8996 70.2699
13.0792 77.791
13.2589 228.111
13.4386 127.174
13.6183 239.456
13.7981 98.1762
13.9779 75.2939
14.1577 72.2339
14.3376 71.5429
14.5175 68.317
14.6974 69.5454
14.8774 106.276
15.0574 153.476
15.2374 71.2935
15.4175 65.972
15.5976 65.2655
15.7778 91.5102
15.958 157.859
16.1382 62.9668
16.3185 58.577
16.4988 55.1495
16.6792 54.2329
16.8596 54.9335
17.04 55.2915
17.2205 65.5811
17.401 70.908
17.5815 58.8001
17.7622 60.4622
17.9428 71.9879
18.1237 138.745
18.3044 88.9284
18.4852 77.9843
18.666 60.2243
18.8469 57.7458
19.0278 56.5996
19.2088 58.8965
19.3898 76.7362
19.5709 53.8977
19.752 52.9673
19.9332 55.5725
20.1144 69.4201
20.2957 63.2615
20.477 53.4572
20.6586 49.3513
20.84 48.4878
21.0215 48.1152
21.203 50.3606
21.3846 48.6094
21.5662 48.3255
21.7479 51.8584
21.9297 64.1642
22.1115 55.6636
22.2933 49.5342
22.4753 48.5563
22.6572 48.4494
22.8393 51.4126
23.0214 57.1922
23.2037 48.3116
23.3859 49.1756
23.5682 56.4445
23.7505 48.2689
23.9329 44.9841
24.1154 43.8278
24.2979 43.2747
24.4805 42.5567
24.6631 42.6535
24.8458 42.0424
25.0286 42.5077
25.2114 44.261
25.3943 44.6651
25.5773 40.7229
25.7605 40.1906
25.9436 40.6783
26.1268 41.4995
26.31 39.7857
26.4933 40.3537
26.6767 41.8764
26.8601 40.2872
27.0437 38.6734
27.2272 38.3423
27.4109 38.2305
27.5946 38.1358
27.7784 37.6592
27.9623 38.1808
28.1462 38.6104
28.3304 37.0499
28.5145 35.7495
28.6987 35.43
28.8829 35.1615
29.0673 34.4304
29.2517 34.1731
29.4361 33.9713
29.6207 33.0007
29.8053 32.7105
29.99 32.3977
30.1748 32.2269
30.3597 32.1122
30.5447 31.9693
30.7297 32.1194
30.915 31.4243
31.1002 30.9341
31.2855 30.6433
31.4708 30.6603
31.6563 30.2385
31.8418 30.0111
32.0275 29.7444
32.2132 29.3248
32.399 28.7725
32.5848 28.3653
32.7708 28.0037
32.9569 27.8974
33.143 27.5971
33.3293 27.2733
33.5158 26.8808
33.7022 26.4558
33.8887 26.1738
34.0753 25.8605
34.262 25.5002
34.4488 25.1734
34.6357 24.8854
34.8227 24.577
35.0098 24.3613
35.1969 24.1118
35.3842 23.8071
35.5716 23.6391
35.759 23.3046
35.9468 22.9933
36.1345 22.7057
36.3222 22.5292
36.5101 22.2865
36.6981 21.9801
36.8861 21.6728
37.0743 21.4526
37.2626 21.107
37.451 20.9083
37.6395 20.7222
37.8281 20.3103
38.0168 20.1366
38.2056 19.8799
38.3945 19.5644
38.5837 19.3903
38.7728 19.0592
38.9621 18.8393
39.1514 18.5668
39.3409 18.3976
39.5304 18.1955
39.7201 17.9763
39.9099 17.7342
40.0999 17.5507
40.2899 17.2591
40.48 17.0763
40.6703 16.8729
40.8607 16.7159
41.0512 16.4384
41.242 16.1601
41.4327 16.0002
41.6236 15.7483
41.8146 15.5324
42.0057 15.3546
42.1969 15.209
42.3882 14.9929
42.5797 14.7642
42.7713 14.5512
42.963 14.354
43.1549 14.1804
43.3468 13.9672
43.5389 13.7952
43.7312 13.5918
43.9237 13.4078
44.1162 13.1974
44.3088 13.029
44.5016 12.8303
44.6945 12.6806
44.8875 12.5139
45.0806 12.2836
45.2739 12.1663
45.4673 11.9833
45.6609 11.7768
45.8546 11.6495
46.0484 11.5254
46.2424 11.3055
46.4365 11.1729
46.631 10.9956
46.8254 10.7984
47.0199 10.674
47.2146 10.5371
47.4095 10.3318
47.6044 10.2271
47.7996 10.0206
47.9948 9.8833
48.1902 9.7647
48.3858 9.59797
48.5815 9.49148
48.7774 9.3493
48.9734 9.20783
49.1696 9.02014
49.3661 8.95406
49.5626 8.77201
49.7592 8.69489
49.956 8.528
50.153 8.37868
50.3501 8.25389
50.5474 8.11456
50.7448 8.00714
50.9424 7.88056
51.1402 7.78082
51.3381 7.64551
51.5362 7.53339
51.7344 7.40248
51.9328 7.30652
52.1316 7.14975
52.3304 7.00276
52.5293 6.91307
52.7284 6.83941
52.9276 6.67244
53.1271 6.61423
53.3267 6.48881
53.5265 6.37554
53.7264 6.25474
53.9266 6.1649
54.1269 6.04806
54.3274 5.94389
54.528 5.78348
54.7289 5.619
54.9301 5.47829
55.1314 5.30065
55.3328 5.12891
55.5344 4.89751
55.7361 4.84479