File: XRD/Ni3Fe_FD0916.xy
TT I
1.27165 6.91112
1.45013 5.54916
1.62863 4.59374
1.80712 4.29185
1.98562 5.12411
2.16411 4.87564
2.34263 6.3703
2.52115 7.2446
2.69965 8.31054
2.87818 8.92943
3.05672 11.5943
3.23527 14.9298
3.4138 18.7021
3.59237 23.6268
3.77094 25.8737
3.9495 29.6178
4.12809 33.5982
4.30669 117.701
4.4853 55.0826
4.6639 54.8088
4.84253 67.7553
5.02118 85.7839
5.19981 355.976
5.37848 185.151
5.55716 100.264
5.73586 91.0738
5.91455 93.265
6.09328 4619.11
6.27201 78.9096
6.45075 68.4933
6.62952 62.1983
6.8083 58.3951
6.98711 54.8378
7.16591 55.1041
7.34475 70.3415
7.5236 53.6249
7.70247 55.8238
7.88135 56.6938
8.06026 61.8075
8.23919 68.3665
8.41812 82.6478
8.59709 1201.59
8.77609 95.4541
8.9551 88.7713
9.13412 81.7123
9.31318 83.1414
9.49226 83.7026
9.67134 94.1978
9.85047 99.8039
10.0296 328.189
10.2088 323.82
10.388 102.916
10.5672 544.464
10.7465 84.7635
10.9257 76.6093
11.105 70.1391
11.2844 67.606
11.4637 63.755
11.6431 62.3082
11.8225 61.3965
12.002 62.9327
12.1814 158.375
12.3609 66.2037
12.5405 63.9258
12.72 67.0053
12.8996 70.1868
13.0792 78.4897
13.2589 244.406
13.4386 114.093
13.6183 257.901
13.7981 91.7547
13.9779 74.4371
14.1577 70.8249
14.3376 69.4975
14.5175 67.8155
14.6974 69.4569
14.8774 110.036
15.0574 137.499
15.2374 68.3064
15.4175 65.3232
15.5976 64.8415
15.7778 93.6096
15.958 146.464
16.1382 60.4352
16.3185 56.8654
16.4988 54.4642
16.6792 53.3858
16.8596 53.9683
17.04 54.6629
17.2205 65.8671
17.401 67.4189
17.5815 58.1428
17.7622 60.1465
17.9428 72.2327
18.1237 139.771
18.3044 90.6964
18.4852 72.9937
18.666 59.1735
18.8469 56.985
19.0278 55.7366
19.2088 58.2031
19.3898 74.9044
19.5709 52.7805
19.752 52.486
19.9332 55.1216
20.1144 69.4046
20.2957 64.1342
20.477 51.8208
20.6586 48.7353
20.84 47.9718
21.0215 47.8291
21.203 50.1202
21.3846 47.8605
21.5662 48.1721
21.7479 51.7989
21.9297 64.3259
22.1115 55.4421
22.2933 48.7663
22.4753 47.7945
22.6572 48.2063
22.8393 51.2405
23.0214 56.0728
23.2037 47.7093
23.3859 48.8627
23.5682 56.793
23.7505 47.021
23.9329 44.4307
24.1154 43.4198
24.2979 42.5854
24.4805 42.282
24.6631 42.0109
24.8458 41.4467
25.0286 42.2163
25.2114 43.9352
25.3943 43.8558
25.5773 40.082
25.7605 39.6907
25.9436 40.1899
26.1268 40.9252
26.31 39.3394
26.4933 40.0462
26.6767 41.3905
26.8601 39.6419
27.0437 38.1546
27.2272 37.9495
27.4109 37.8328
27.5946 37.6872
27.7784 37.2308
27.9623 37.7806
28.1462 38.1064
28.3304 36.5318
28.5145 35.2482
28.6987 34.998
28.8829 34.8283
29.0673 34.0208
29.2517 33.7975
29.4361 33.5931
29.6207 32.5899
29.8053 32.3173
29.99 32.0594
30.1748 32.0006
30.3597 31.6125
30.5447 31.643
30.7297 31.7337
30.915 31.0035
31.1002 30.5754
31.2855 30.3847
31.4708 30.3297
31.6563 29.8429
31.8418 29.5952
32.0275 29.451
32.2132 28.774
32.399 28.3698
32.5848 27.9459
32.7708 27.688
32.9569 27.4457
33.143 27.3833
33.3293 26.9569
33.5158 26.5181
33.7022 26.1368
33.8887 25.8555
34.0753 25.5036
34.262 25.1714
34.4488 24.9052
34.6357 24.5435
34.8227 24.2955
35.0098 24.1122
35.1969 23.7458
35.3842 23.5806
35.5716 23.3519
35.759 23.0326
35.9468 22.7896
36.1345 22.5364
36.3222 22.2568
36.5101 22.0702
36.6981 21.7085
36.8861 21.4812
37.0743 21.1264
37.2626 20.9149
37.451 20.6815
37.6395 20.4611
37.8281 20.1246
38.0168 19.9023
38.2056 19.6227
38.3945 19.4119
38.5837 19.1543
38.7728 18.8419
38.9621 18.6128
39.1514 18.3856
39.3409 18.1586
39.5304 17.9026
39.7201 17.7514
39.9099 17.506
40.0999 17.2199
40.2899 17.1387
40.48 16.7527
40.6703 16.6319
40.8607 16.4847
41.0512 16.2187
41.242 15.9755
41.4327 15.7934
41.6236 15.561
41.8146 15.3846
42.0057 15.201
42.1969 14.9807
42.3882 14.7769
42.5797 14.5849
42.7713 14.3747
42.963 14.1528
43.1549 13.9642
43.3468 13.8262
43.5389 13.5589
43.7312 13.4636
43.9237 13.2093
44.1162 12.9884
44.3088 12.8587
44.5016 12.6446
44.6945 12.5108
44.8875 12.3823
45.0806 12.1411
45.2739 11.9639
45.4673 11.8543
45.6609 11.6631
45.8546 11.4888
46.0484 11.3071
46.2424 11.1488
46.4365 11.0193
46.631 10.8289
46.8254 10.6688
47.0199 10.5318
47.2146 10.3831
47.4095 10.2109
47.6044 10.0494
47.7996 9.89942
47.9948 9.74028
48.1902 9.6254
48.3858 9.53562
48.5815 9.36019
48.7774 9.25057
48.9734 9.10037
49.1696 8.94862
49.3661 8.76433
49.5626 8.63722
49.7592 8.4974
49.956 8.41646
50.153 8.30613
50.3501 8.13951
50.5474 8.03078
50.7448 7.92733
50.9424 7.7808
51.1402 7.65884
51.3381 7.5496
51.5362 7.38465
51.7344 7.28056
51.9328 7.1606
52.1316 7.08107
52.3304 6.92051
52.5293 6.78398
52.7284 6.70978
52.9276 6.60747
53.1271 6.54403
53.3267 6.33777
53.5265 6.26556
53.7264 6.13193
53.9266 6.08343
54.1269 5.9475
54.3274 5.83884
54.528 5.68564
54.7289 5.54819
54.9301 5.39256
55.1314 5.28328
55.3328 5.10855
55.5344 4.85729
55.7361 4.76243