File: XRD/Ni3Fe_FD0993.xy
TT I
1.27165 7.58493
1.45013 6.06837
1.62863 5.35112
1.80712 4.56378
1.98562 3.7911
2.16411 5.30985
2.34263 5.90786
2.52115 7.00066
2.69965 8.44944
2.87818 8.74511
3.05672 11.3351
3.23527 15.1977
3.4138 18.8788
3.59237 24.2683
3.77094 26.1309
3.9495 29.8369
4.12809 34.3737
4.30669 251.027
4.4853 68.232
4.6639 54.4607
4.84253 65.1981
5.02118 83.7242
5.19981 267.546
5.37848 173.58
5.55716 99.138
5.73586 89.2309
5.91455 90.0694
6.09328 4523.05
6.27201 80.9271
6.45075 66.0063
6.62952 61.9223
6.8083 58.1101
6.98711 55.077
7.16591 54.5975
7.34475 98.5388
7.5236 53.8612
7.70247 55.5657
7.88135 56.7068
8.06026 61.5041
8.23919 68.0362
8.41812 83.064
8.59709 1107.4
8.77609 96.5352
8.9551 91.2224
9.13412 80.3288
9.31318 80.4804
9.49226 82.4057
9.67134 98.1859
9.85047 97.2255
10.0296 283.066
10.2088 374.905
10.388 102.211
10.5672 528.667
10.7465 84.5724
10.9257 76.9405
11.105 70.599
11.2844 69.5598
11.4637 63.7954
11.6431 62.2809
11.8225 61.2249
12.002 61.9247
12.1814 148.898
12.3609 70.295
12.5405 63.0954
12.72 69.5664
12.8996 69.2051
13.0792 76.3932
13.2589 222.618
13.4386 121.652
13.6183 237.417
13.7981 94.6631
13.9779 74.1315
14.1577 70.8464
14.3376 70.5179
14.5175 67.3598
14.6974 68.5831
14.8774 102.603
15.0574 150.786
15.2374 70.0232
15.4175 64.815
15.5976 64.2273
15.7778 88.3145
15.958 154.286
16.1382 61.9858
16.3185 57.5335
16.4988 54.3157
16.6792 53.318
16.8596 54.0972
17.04 54.6251
17.2205 64.5527
17.401 68.9761
17.5815 57.9716
17.7622 59.8472
17.9428 69.9195
18.1237 138.485
18.3044 87.8841
18.4852 75.9224
18.666 59.0298
18.8469 56.6121
19.0278 55.6569
19.2088 57.75
19.3898 75.283
19.5709 53.0291
19.752 51.9295
19.9332 54.4936
20.1144 69.0467
20.2957 62.9347
20.477 52.6012
20.6586 48.6092
20.84 47.7679
21.0215 47.4084
21.203 49.9748
21.3846 47.8628
21.5662 47.5533
21.7479 50.8703
21.9297 63.6654
22.1115 55.3906
22.2933 48.7833
22.4753 47.9156
22.6572 47.6855
22.8393 50.6133
23.0214 56.3767
23.2037 47.761
23.3859 48.3368
23.5682 56.3796
23.7505 47.2213
23.9329 44.2193
24.1154 43.1357
24.2979 42.5473
24.4805 41.9797
24.6631 41.8137
24.8458 41.1834
25.0286 41.8175
25.2114 43.651
25.3943 43.9207
25.5773 40.1614
25.7605 39.6574
25.9436 40.0174
26.1268 41.0158
26.31 39.3092
26.4933 39.9577
26.6767 41.3222
26.8601 39.616
27.0437 38.1474
27.2272 37.6123
27.4109 37.6197
27.5946 37.6789
27.7784 37.0054
27.9623 37.6319
28.1462 38.026
28.3304 36.4766
28.5145 35.3319
28.6987 34.8168
28.8829 34.7598
29.0673 33.9752
29.2517 33.6282
29.4361 33.5231
29.6207 32.5037
29.8053 32.2249
29.99 31.8784
30.1748 31.8567
30.3597 31.6186
30.5447 31.5493
30.7297 31.5309
30.915 30.9648
31.1002 30.4939
31.2855 30.1756
31.4708 30.2744
31.6563 29.7956
31.8418 29.569
32.0275 29.3725
32.2132 28.7997
32.399 28.3726
32.5848 27.8992
32.7708 27.6219
32.9569 27.5096
33.143 27.2379
33.3293 26.8438
33.5158 26.5146
33.7022 26.0091
33.8887 25.7983
34.0753 25.4984
34.262 25.129
34.4488 24.8233
34.6357 24.5425
34.8227 24.2063
35.0098 24.0363
35.1969 23.7985
35.3842 23.5265
35.5716 23.3221
35.759 22.987
35.9468 22.5612
36.1345 22.5339
36.3222 22.2216
36.5101 21.9958
36.6981 21.7123
36.8861 21.3827
37.0743 21.0728
37.2626 20.8995
37.451 20.5904
37.6395 20.4541
37.8281 20.1156
38.0168 19.8378
38.2056 19.5668
38.3945 19.2962
38.5837 19.014
38.7728 18.8299
38.9621 18.6326
39.1514 18.3998
39.3409 18.107
39.5304 17.908
39.7201 17.6719
39.9099 17.5239
40.0999 17.2028
40.2899 17.0045
40.48 16.83
40.6703 16.5889
40.8607 16.4776
41.0512 16.2115
41.242 15.9454
41.4327 15.7421
41.6236 15.5347
41.8146 15.3683
42.0057 15.1282
42.1969 14.9557
42.3882 14.7494
42.5797 14.5536
42.7713 14.3823
42.963 14.2093
43.1549 13.9694
43.3468 13.7349
43.5389 13.6537
43.7312 13.3846
43.9237 13.2892
44.1162 13.0366
44.3088 12.8545
44.5016 12.6685
44.6945 12.4866
44.8875 12.3251
45.0806 12.1563
45.2739 11.9786
45.4673 11.833
45.6609 11.6325
45.8546 11.4739
46.0484 11.3232
46.2424 11.1577
46.4365 11.0412
46.631 10.8263
46.8254 10.6526
47.0199 10.475
47.2146 10.3783
47.4095 10.2434
47.6044 10.0756
47.7996 9.89041
47.9948 9.76276
48.1902 9.62376
48.3858 9.5117
48.5815 9.34943
48.7774 9.26352
48.9734 9.07633
49.1696 8.94316
49.3661 8.79411
49.5626 8.66059
49.7592 8.54842
49.956 8.43925
50.153 8.28013
50.3501 8.14774
50.5474 8.0478
50.7448 7.91865
50.9424 7.80478
51.1402 7.65581
51.3381 7.54756
51.5362 7.44823
51.7344 7.30776
51.9328 7.16065
52.1316 7.04044
52.3304 6.9473
52.5293 6.855
52.7284 6.72176
52.9276 6.58763
53.1271 6.52858
53.3267 6.40437
53.5265 6.29298
53.7264 6.19918
53.9266 6.03533
54.1269 5.97719
54.3274 5.83476
54.528 5.7057
54.7289 5.56193
54.9301 5.36505
55.1314 5.23454
55.3328 5.01482
55.5344 4.94608
55.7361 4.72419