File: XRD/Ni3Fe_FD0972.xy
TT I
1.27165 7.2108
1.45013 6.36816
1.62863 4.96521
1.80712 4.94222
1.98562 5.12358
2.16411 5.72015
2.34263 5.97361
2.52115 7.83168
2.69965 8.37242
2.87818 8.78247
3.05672 11.3929
3.23527 15.4417
3.4138 19.0408
3.59237 23.8679
3.77094 26.1544
3.9495 29.6512
4.12809 34.1488
4.30669 211.83
4.4853 63.9954
4.6639 54.5049
4.84253 65.7759
5.02118 84.3831
5.19981 275.407
5.37848 172.709
5.55716 99.5352
5.73586 89.9042
5.91455 90.2084
6.09328 4617.16
6.27201 80.3088
6.45075 66.0797
6.62952 61.4771
6.8083 57.7285
6.98711 55.2165
7.16591 54.5093
7.34475 89.6973
7.5236 53.8541
7.70247 55.3105
7.88135 56.4975
8.06026 60.7779
8.23919 67.9185
8.41812 83.0275
8.59709 1135.27
8.77609 96.3666
8.9551 89.5902
9.13412 80.0654
9.31318 80.4914
9.49226 82.8573
9.67134 95.8859
9.85047 97.2254
10.0296 294.852
10.2088 365.285
10.388 101.571
10.5672 523.605
10.7465 84.5668
10.9257 76.9665
11.105 70.5615
11.2844 68.8531
11.4637 63.995
11.6431 62.2892
11.8225 61.2274
12.002 61.9177
12.1814 153.453
12.3609 69.1625
12.5405 63.3843
12.72 68.7004
12.8996 69.338
13.0792 76.5663
13.2589 232.674
13.4386 120.054
13.6183 245.879
13.7981 94.7669
13.9779 74.177
14.1577 70.8157
14.3376 69.9449
14.5175 67.261
14.6974 68.8131
14.8774 105.307
15.0574 146.966
15.2374 69.5448
15.4175 64.8247
15.5976 64.1542
15.7778 90.4687
15.958 152.023
16.1382 61.1728
16.3185 57.3907
16.4988 54.3065
16.6792 53.2675
16.8596 54.2522
17.04 54.5445
17.2205 64.8328
17.401 68.7678
17.5815 57.9854
17.7622 59.9182
17.9428 70.5513
18.1237 137.549
18.3044 89.2701
18.4852 75.2875
18.666 59.1669
18.8469 56.7235
19.0278 55.7391
19.2088 57.8802
19.3898 74.8893
19.5709 52.8849
19.752 52.2508
19.9332 54.6946
20.1144 68.715
20.2957 63.3984
20.477 52.5381
20.6586 48.7601
20.84 47.9123
21.0215 47.365
21.203 50.0167
21.3846 48.0145
21.5662 47.7803
21.7479 51.2955
21.9297 63.6511
22.1115 55.3141
22.2933 48.8978
22.4753 47.8851
22.6572 47.7007
22.8393 50.6547
23.0214 56.1098
23.2037 47.7688
23.3859 48.599
23.5682 56.5161
23.7505 47.3118
23.9329 44.3583
24.1154 43.3193
24.2979 42.6264
24.4805 41.9817
24.6631 41.9152
24.8458 41.2156
25.0286 41.8492
25.2114 43.7382
25.3943 43.7341
25.5773 40.0932
25.7605 39.6028
25.9436 40.029
26.1268 41.0039
26.31 39.2685
26.4933 39.9602
26.6767 41.5092
26.8601 39.6554
27.0437 38.0624
27.2272 37.8091
27.4109 37.6442
27.5946 37.4449
27.7784 37.0796
27.9623 37.7268
28.1462 38.0665
28.3304 36.5111
28.5145 35.3522
28.6987 34.9821
28.8829 34.7042
29.0673 34.0403
29.2517 33.6086
29.4361 33.5002
29.6207 32.5444
29.8053 32.2588
29.99 31.842
30.1748 31.9104
30.3597 31.6248
30.5447 31.6842
30.7297 31.5372
30.915 31.0231
31.1002 30.5313
31.2855 30.273
31.4708 30.2808
31.6563 29.8108
31.8418 29.6108
32.0275 29.3542
32.2132 28.6987
32.399 28.3235
32.5848 27.9381
32.7708 27.6616
32.9569 27.5307
33.143 27.2902
33.3293 26.8847
33.5158 26.5129
33.7022 26.0976
33.8887 25.824
34.0753 25.4778
34.262 25.0997
34.4488 24.8647
34.6357 24.5367
34.8227 24.2252
35.0098 24.1084
35.1969 23.7609
35.3842 23.5744
35.5716 23.3461
35.759 23.0947
35.9468 22.719
36.1345 22.5222
36.3222 22.2347
36.5101 22.1077
36.6981 21.6951
36.8861 21.3332
37.0743 21.1121
37.2626 20.8215
37.451 20.6163
37.6395 20.4425
37.8281 20.0895
38.0168 19.8485
38.2056 19.5457
38.3945 19.3289
38.5837 19.0419
38.7728 18.8632
38.9621 18.5969
39.1514 18.3352
39.3409 18.0951
39.5304 17.892
39.7201 17.7291
39.9099 17.5632
40.0999 17.2496
40.2899 17.0736
40.48 16.7929
40.6703 16.5849
40.8607 16.4647
41.0512 16.1655
41.242 15.9391
41.4327 15.7743
41.6236 15.525
41.8146 15.3599
42.0057 15.1363
42.1969 14.9913
42.3882 14.7717
42.5797 14.5657
42.7713 14.3216
42.963 14.1316
43.1549 13.9938
43.3468 13.7446
43.5389 13.6003
43.7312 13.4002
43.9237 13.2527
44.1162 13.0305
44.3088 12.838
44.5016 12.6896
44.6945 12.5414
44.8875 12.3508
45.0806 12.1232
45.2739 11.9934
45.4673 11.8736
45.6609 11.6608
45.8546 11.5034
46.0484 11.343
46.2424 11.1564
46.4365 10.9888
46.631 10.8164
46.8254 10.6503
47.0199 10.488
47.2146 10.3793
47.4095 10.2129
47.6044 10.0453
47.7996 9.90752
47.9948 9.80099
48.1902 9.60598
48.3858 9.5123
48.5815 9.3633
48.7774 9.24483
48.9734 9.07937
49.1696 8.9544
49.3661 8.8379
49.5626 8.64566
49.7592 8.55444
49.956 8.42222
50.153 8.31014
50.3501 8.15397
50.5474 8.04413
50.7448 7.91472
50.9424 7.7894
51.1402 7.65222
51.3381 7.54405
51.5362 7.42621
51.7344 7.30697
51.9328 7.18306
52.1316 7.06379
52.3304 6.96435
52.5293 6.82205
52.7284 6.72198
52.9276 6.62083
53.1271 6.56645
53.3267 6.38117
53.5265 6.25708
53.7264 6.1605
53.9266 6.01937
54.1269 5.94704
54.3274 5.81705
54.528 5.72766
54.7289 5.51008
54.9301 5.35986
55.1314 5.23834
55.3328 5.03463
55.5344 4.84459
55.7361 4.81403