File: XRD/Ni3Fe_FD0433.xy
TT I
1.27165 7.20531
1.45013 6.26846
1.62863 5.73359
1.80712 4.97411
1.98562 4.78629
2.16411 5.04636
2.34263 5.02388
2.52115 5.81408
2.69965 7.12936
2.87818 8.7486
3.05672 10.8463
3.23527 14.9818
3.4138 18.9167
3.59237 24.0235
3.77094 26.3272
3.9495 29.5853
4.12809 35.2345
4.30669 204.361
4.4853 64.8698
4.6639 56.2435
4.84253 68.6676
5.02118 89.1083
5.19981 437.666
5.37848 207.258
5.55716 104.322
5.73586 94.4098
5.91455 98.215
6.09328 4259.7
6.27201 85.3321
6.45075 68.4739
6.62952 63.6314
6.8083 59.4873
6.98711 56.6091
7.16591 56.0517
7.34475 90.2465
7.5236 55.6299
7.70247 56.96
7.88135 59.0153
8.06026 63.4
8.23919 70.6684
8.41812 87.4405
8.59709 1197.72
8.77609 102.137
8.9551 92.8845
9.13412 83.2209
9.31318 84.4442
9.49226 86.0463
9.67134 99.6722
9.85047 102.177
10.0296 379.582
10.2088 430.111
10.388 106.977
10.5672 503.912
10.7465 88.2653
10.9257 79.812
11.105 72.887
11.2844 71.5018
11.4637 65.864
11.6431 64.4775
11.8225 63.4642
12.002 64.819
12.1814 153.289
12.3609 71.5644
12.5405 65.5701
12.72 70.9745
12.8996 72.299
13.0792 80.5179
13.2589 240.233
13.4386 128.824
13.6183 245.82
13.7981 99.5095
13.9779 77.0739
14.1577 73.657
14.3376 72.923
14.5175 70.0846
14.6974 71.7442
14.8774 114.446
15.0574 154.917
15.2374 72.1185
15.4175 67.7043
15.5976 66.9726
15.7778 98.384
15.958 159.575
16.1382 63.7962
16.3185 59.5815
16.4988 56.5227
16.6792 55.4804
16.8596 56.2394
17.04 56.9973
17.2205 68.0638
17.401 72.4534
17.5815 60.28
17.7622 62.4084
17.9428 76.0982
18.1237 139.976
18.3044 91.4244
18.4852 79.3576
18.666 61.5138
18.8469 59.0744
19.0278 57.9407
19.2088 60.7756
19.3898 77.4846
19.5709 55.1745
19.752 54.2488
19.9332 57.4742
20.1144 71.0597
20.2957 64.4059
20.477 54.737
20.6586 50.5631
20.84 49.8536
21.0215 49.4412
21.203 51.8199
21.3846 49.9506
21.5662 49.7282
21.7479 53.6959
21.9297 65.4829
22.1115 56.6781
22.2933 50.9584
22.4753 49.853
22.6572 49.9228
22.8393 52.945
23.0214 58.3508
23.2037 49.7364
23.3859 50.7384
23.5682 57.5707
23.7505 49.2502
23.9329 46.0511
24.1154 44.8975
24.2979 44.1569
24.4805 43.7583
24.6631 43.6444
24.8458 42.9993
25.0286 43.6212
25.2114 45.284
25.3943 45.4537
25.5773 41.7518
25.7605 41.093
25.9436 41.5769
26.1268 42.5087
26.31 40.8485
26.4933 41.582
26.6767 42.9213
26.8601 41.1882
27.0437 39.6015
27.2272 39.2041
27.4109 39.1236
27.5946 39.1474
27.7784 38.5437
27.9623 39.0723
28.1462 39.6363
28.3304 37.8741
28.5145 36.6117
28.6987 36.2332
28.8829 36.1107
29.0673 35.243
29.2517 34.981
29.4361 34.7838
29.6207 33.7145
29.8053 33.4487
29.99 33.0454
30.1748 33.0432
30.3597 32.9332
30.5447 32.7692
30.7297 32.7526
30.915 32.1003
31.1002 31.6255
31.2855 31.4304
31.4708 31.2976
31.6563 30.9154
31.8418 30.628
32.0275 30.5229
32.2132 29.915
32.399 29.4916
32.5848 29.0228
32.7708 28.6683
32.9569 28.4633
33.143 28.2893
33.3293 27.8197
33.5158 27.5179
33.7022 27.0759
33.8887 26.7787
34.0753 26.4369
34.262 26.1408
34.4488 25.7861
34.6357 25.3638
34.8227 25.1765
35.0098 24.9016
35.1969 24.6461
35.3842 24.4426
35.5716 24.1754
35.759 23.8967
35.9468 23.5514
36.1345 23.2583
36.3222 23.004
36.5101 22.8706
36.6981 22.4352
36.8861 22.1976
37.0743 21.8512
37.2626 21.6031
37.451 21.3565
37.6395 21.1979
37.8281 20.8739
38.0168 20.5167
38.2056 20.252
38.3945 20.0863
38.5837 19.8057
38.7728 19.5584
38.9621 19.2552
39.1514 19.0319
39.3409 18.8293
39.5304 18.5724
39.7201 18.419
39.9099 18.1701
40.0999 17.8981
40.2899 17.6213
40.48 17.4134
40.6703 17.2601
40.8607 17.0452
41.0512 16.7915
41.242 16.594
41.4327 16.3921
41.6236 16.1038
41.8146 15.9139
42.0057 15.674
42.1969 15.4823
42.3882 15.2981
42.5797 15.1242
42.7713 14.888
42.963 14.6922
43.1549 14.4833
43.3468 14.19
43.5389 14.083
43.7312 13.8559
43.9237 13.6905
44.1162 13.5112
44.3088 13.3116
44.5016 13.0591
44.6945 12.9724
44.8875 12.767
45.0806 12.6118
45.2739 12.4104
45.4673 12.2396
45.6609 12.0396
45.8546 11.9432
46.0484 11.7581
46.2424 11.5771
46.4365 11.4291
46.631 11.245
46.8254 11.0417
47.0199 10.8867
47.2146 10.7435
47.4095 10.538
47.6044 10.4436
47.7996 10.2723
47.9948 10.1219
48.1902 9.9541
48.3858 9.76656
48.5815 9.72523
48.7774 9.57222
48.9734 9.40337
49.1696 9.30029
49.3661 9.08784
49.5626 8.96688
49.7592 8.85592
49.956 8.74388
50.153 8.59972
50.3501 8.41346
50.5474 8.35912
50.7448 8.19277
50.9424 8.0641
51.1402 7.94328
51.3381 7.76673
51.5362 7.63256
51.7344 7.56741
51.9328 7.42166
52.1316 7.3157
52.3304 7.18345
52.5293 7.05092
52.7284 6.93642
52.9276 6.83688
53.1271 6.72579
53.3267 6.60155
53.5265 6.49953
53.7264 6.40089
53.9266 6.32989
54.1269 6.15958
54.3274 6.02973
54.528 5.90669
54.7289 5.71582
54.9301 5.60966
55.1314 5.44692
55.3328 5.27779
55.5344 5.04633
55.7361 4.91665