File: XRD/Ni3Fe_FD0021.xy
TT I
1.27165 34.4775
1.45013 29.9862
1.62863 26.6103
1.80712 25.1564
1.98562 24.1082
2.16411 25.1426
2.34263 26.0333
2.52115 25.215
2.69965 28.532
2.87818 38.9074
3.05672 65.4956
3.23527 77.3253
3.4138 42.0296
3.59237 38.7499
3.77094 39.9901
3.9495 39.7742
4.12809 51.5128
4.30669 84.7135
4.4853 61.8651
4.6639 47.4572
4.84253 53.3946
5.02118 87.0715
5.19981 266.368
5.37848 3862.57
5.55716 157.446
5.73586 100.148
5.91455 110.084
6.09328 445.684
6.27201 323.466
6.45075 72.4132
6.62952 55.3552
6.8083 53.4208
6.98711 45.5527
7.16591 48.2691
7.34475 70.6923
7.5236 58.5258
7.70247 46.69
7.88135 37.8355
8.06026 39.1768
8.23919 44.1009
8.41812 55.898
8.59709 154.157
8.77609 681.934
8.9551 77.6858
9.13412 58.8018
9.31318 249.451
9.49226 52.4988
9.67134 52.4834
9.85047 59.0748
10.0296 96.5746
10.2088 466.906
10.388 135.427
10.5672 90.4815
10.7465 277.093
10.9257 48.6543
11.105 42.4634
11.2844 40.8636
11.4637 38.3816
11.6431 37.4935
11.8225 36.7179
12.002 71.1011
12.1814 46.564
12.3609 93.3797
12.5405 44.8695
12.72 40.5537
12.8996 39.7905
13.0792 42.2516
13.2589 62.9309
13.4386 142.389
13.6183 93.7105
13.7981 152.825
13.9779 62.9258
14.1577 47.2663
14.3376 48.0039
14.5175 37.8516
14.6974 37.6785
14.8774 42.4275
15.0574 59.1079
15.2374 95.9031
15.4175 41.0393
15.5976 37.9415
15.7778 40.7418
15.958 53.1073
16.1382 121.554
16.3185 39.6886
16.4988 33.5837
16.6792 31.5924
16.8596 31.5922
17.04 39.3454
17.2205 33.2232
17.401 36.1411
17.5815 48.747
17.7622 34.7154
17.9428 40.1546
18.1237 42.6415
18.3044 88.0132
18.4852 56.4563
18.666 66.7006
18.8469 36.1095
19.0278 33.3884
19.2088 33.3047
19.3898 39.0963
19.5709 46.4688
19.752 35.8483
19.9332 31.7209
20.1144 32.3139
20.2957 42.1399
20.477 38.9269
20.6586 39.6749
20.84 31.6138
21.0215 29.7222
21.203 28.4785
21.3846 29.0202
21.5662 32.2523
21.7479 29.3445
21.9297 30.8271
22.1115 40.2743
22.2933 43.1576
22.4753 35.9443
22.6572 29.8178
22.8393 30.178
23.0214 31.2033
23.2037 38.5148
23.3859 34.2149
23.5682 34.1276
23.7505 33.8301
23.9329 42.5751
24.1154 29.2251
24.2979 27.3856
24.4805 26.34
24.6631 26.167
24.8458 27.7577
25.0286 26.0963
25.2114 26.0698
25.3943 28.5834
25.5773 30.2326
25.7605 29.0559
25.9436 26.7526
26.1268 25.392
26.31 26.3503
26.4933 28.0199
26.6767 25.6594
26.8601 27.1372
27.0437 30.7189
27.2272 27.0022
27.4109 24.5941
27.5946 24.5143
27.7784 24.8853
27.9623 25.2151
28.1462 25.5443
28.3304 26.7683
28.5145 27.3175
28.6987 25.0875
28.8829 22.922
29.0673 22.5051
29.2517 23.3639
29.4361 22.0804
29.6207 21.922
29.8053 22.712
29.99 21.327
30.1748 21.3391
30.3597 21.0592
30.5447 21.3607
30.7297 21.0218
30.915 21.1361
31.1002 22.8488
31.2855 21.775
31.4708 20.4877
31.6563 20.4942
31.8418 21.396
32.0275 20.4636
32.2132 20.5039
32.399 20.9091
32.5848 19.7427
32.7708 19.0179
32.9569 18.7895
33.143 18.7733
33.3293 18.404
33.5158 18.7712
33.7022 19.0149
33.8887 17.9727
34.0753 17.677
34.262 17.6267
34.4488 17.2974
34.6357 17.0554
34.8227 16.9107
35.0098 16.5328
35.1969 16.3019
35.3842 16.2437
35.5716 16.2259
35.759 16.4756
35.9468 16.7037
36.1345 16.0661
36.3222 15.6932
36.5101 15.5993
36.6981 15.5045
36.8861 15.1917
37.0743 15.1718
37.2626 14.8115
37.451 14.5737
37.6395 14.4376
37.8281 14.13
38.0168 13.9929
38.2056 13.9529
38.3945 13.6536
38.5837 13.502
38.7728 13.4289
38.9621 13.2097
39.1514 13.1746
39.3409 12.9081
39.5304 12.7377
39.7201 12.5515
39.9099 12.4223
40.0999 12.2796
40.2899 12.2484
40.48 12.0326
40.6703 11.9848
40.8607 11.8318
41.0512 11.6269
41.242 11.5591
41.4327 11.382
41.6236 11.1656
41.8146 11.0969
42.0057 10.924
42.1969 10.9019
42.3882 10.7438
42.5797 10.5276
42.7713 10.3293
42.963 10.2443
43.1549 10.0734
43.3468 9.89612
43.5389 9.78242
43.7312 9.63449
43.9237 9.54974
44.1162 9.44393
44.3088 9.31357
44.5016 9.23561
44.6945 9.09575
44.8875 8.97803
45.0806 8.87907
45.2739 8.71374
45.4673 8.61744
45.6609 8.52288
45.8546 8.39148
46.0484 8.26385
46.2424 8.13156
46.4365 8.07638
46.631 7.95492
46.8254 7.80197
47.0199 7.75016
47.2146 7.60666
47.4095 7.46825
47.6044 7.36995
47.7996 7.30181
47.9948 7.17467
48.1902 7.07853
48.3858 6.93703
48.5815 6.88039
48.7774 6.79039
48.9734 6.70507
49.1696 6.57423
49.3661 6.48947
49.5626 6.41048
49.7592 6.31714
49.956 6.22963
50.153 6.17223
50.3501 6.04669
50.5474 5.96338
50.7448 5.91049
50.9424 5.83068
51.1402 5.71093
51.3381 5.59254
51.5362 5.52339
51.7344 5.47767
51.9328 5.3451
52.1316 5.25367
52.3304 5.22187
52.5293 5.12281
52.7284 5.04422
52.9276 4.98617
53.1271 4.9027
53.3267 4.84702
53.5265 4.71322
53.7264 4.6311
53.9266 4.57621
54.1269 4.44095
54.3274 4.33932
54.528 4.21671
54.7289 4.15118
54.9301 3.98539
55.1314 3.83845
55.3328 3.68105
55.5344 3.59782
55.7361 3.52588