File: XRD/Ni3Fe_FD0027.xy
TT I
1.27165 33.6133
1.45013 28.1189
1.62863 25.6523
1.80712 23.1455
1.98562 23.1448
2.16411 24.354
2.34263 25.832
2.52115 24.9784
2.69965 28.1103
2.87818 37.9124
3.05672 64.5769
3.23527 74.1527
3.4138 40.2317
3.59237 38.7063
3.77094 38.9877
3.9495 36.629
4.12809 49.0215
4.30669 91.963
4.4853 60.1073
4.6639 45.5724
4.84253 51.9668
5.02118 87.0493
5.19981 282.296
5.37848 3672.27
5.55716 154.721
5.73586 100.176
5.91455 112.114
6.09328 469.611
6.27201 301.455
6.45075 71.6843
6.62952 56.1907
6.8083 55.8254
6.98711 44.4903
7.16591 47.4219
7.34475 76.8669
7.5236 55.6488
7.70247 45.3016
7.88135 37.5034
8.06026 39.5604
8.23919 44.7396
8.41812 57.5633
8.59709 163.748
8.77609 624.714
8.9551 77.2827
9.13412 59.0608
9.31318 248.523
9.49226 53.4043
9.67134 53.8068
9.85047 61.0272
10.0296 102.428
10.2088 517.317
10.388 127.419
10.5672 91.6318
10.7465 257.391
10.9257 49.1587
11.105 43.202
11.2844 42.4341
11.4637 38.5224
11.6431 38.1239
11.8225 36.9927
12.002 73.8465
12.1814 47.3599
12.3609 95.3934
12.5405 44.6572
12.72 42.0019
12.8996 40.2575
13.0792 43.0699
13.2589 64.4151
13.4386 155.984
13.6183 90.3031
13.7981 165.51
13.9779 60.3345
14.1577 48.7024
14.3376 46.9347
14.5175 38.6549
14.6974 38.8694
14.8774 43.6991
15.0574 61.8669
15.2374 86.3019
15.4175 41.5685
15.5976 38.8418
15.7778 41.6861
15.958 55.0821
16.1382 111.033
16.3185 39.4648
16.4988 34.0496
16.6792 32.164
16.8596 32.1746
17.04 39.8638
17.2205 34.0298
17.401 36.9266
17.5815 46.3537
17.7622 35.4807
17.9428 40.1137
18.1237 43.3171
18.3044 91.5662
18.4852 55.6059
18.666 61.3748
18.8469 36.289
19.0278 33.9284
19.2088 33.9816
19.3898 40.3417
19.5709 46.8272
19.752 35.2035
19.9332 31.9865
20.1144 32.7263
20.2957 43.215
20.477 38.8297
20.6586 37.7624
20.84 31.9857
21.0215 29.744
21.203 28.8164
21.3846 29.3463
21.5662 31.9629
21.7479 29.8402
21.9297 31.3316
22.1115 41.3056
22.2933 41.2351
22.4753 34.8501
22.6572 30.2327
22.8393 30.5366
23.0214 31.2975
23.2037 39.3749
23.3859 33.2112
23.5682 34.1159
23.7505 34.4114
23.9329 39.6207
24.1154 29.2733
24.2979 27.6221
24.4805 26.7065
24.6631 26.7133
24.8458 27.6761
25.0286 26.2836
25.2114 26.5318
25.3943 28.7547
25.5773 30.2098
25.7605 28.2257
25.9436 26.808
26.1268 25.6134
26.31 26.6174
26.4933 27.4548
26.6767 25.9341
26.8601 27.5492
27.0437 29.7568
27.2272 26.5944
27.4109 24.7718
27.5946 24.588
27.7784 25.0176
27.9623 25.057
28.1462 25.5574
28.3304 26.9746
28.5145 26.7858
28.6987 24.6658
28.8829 23.0498
29.0673 22.628
29.2517 23.3868
29.4361 22.1414
29.6207 22.1542
29.8053 22.5654
29.99 21.3148
30.1748 21.4176
30.3597 21.0524
30.5447 21.3626
30.7297 20.9965
30.915 21.2241
31.1002 22.5563
31.2855 21.429
31.4708 20.457
31.6563 20.5659
31.8418 21.2389
32.0275 20.3693
32.2132 20.4277
32.399 20.6573
32.5848 19.5707
32.7708 18.9555
32.9569 18.7586
33.143 18.8314
33.3293 18.4276
33.5158 18.7902
33.7022 18.8729
33.8887 17.9204
34.0753 17.6119
34.262 17.5892
34.4488 17.1838
34.6357 17.0383
34.8227 16.8888
35.0098 16.609
35.1969 16.3438
35.3842 16.2657
35.5716 16.2006
35.759 16.3667
35.9468 16.3807
36.1345 15.8792
36.3222 15.6229
36.5101 15.5709
36.6981 15.4378
36.8861 15.1879
37.0743 15.0647
37.2626 14.7901
37.451 14.5355
37.6395 14.4201
37.8281 14.1497
38.0168 14.024
38.2056 13.9488
38.3945 13.6104
38.5837 13.4924
38.7728 13.3769
38.9621 13.1816
39.1514 13.0996
39.3409 12.8398
39.5304 12.6105
39.7201 12.5433
39.9099 12.4445
40.0999 12.2836
40.2899 12.2144
40.48 11.9733
40.6703 11.8633
40.8607 11.8187
41.0512 11.6326
41.242 11.5283
41.4327 11.3224
41.6236 11.1601
41.8146 11.0043
42.0057 10.9074
42.1969 10.8279
42.3882 10.648
42.5797 10.46
42.7713 10.3386
42.963 10.2052
43.1549 10.0605
43.3468 9.8801
43.5389 9.80152
43.7312 9.65461
43.9237 9.5087
44.1162 9.46703
44.3088 9.30437
44.5016 9.15115
44.6945 9.06877
44.8875 8.92944
45.0806 8.89843
45.2739 8.68361
45.4673 8.58555
45.6609 8.43193
45.8546 8.39591
46.0484 8.26433
46.2424 8.15185
46.4365 8.0296
46.631 7.90217
46.8254 7.83055
47.0199 7.66525
47.2146 7.56015
47.4095 7.44581
47.6044 7.33019
47.7996 7.21281
47.9948 7.13737
48.1902 7.04204
48.3858 6.94633
48.5815 6.84004
48.7774 6.78384
48.9734 6.6721
49.1696 6.57027
49.3661 6.44882
49.5626 6.35815
49.7592 6.27167
49.956 6.21576
50.153 6.14743
50.3501 6.01726
50.5474 5.96325
50.7448 5.85302
50.9424 5.74888
51.1402 5.70573
51.3381 5.59612
51.5362 5.5206
51.7344 5.40399
51.9328 5.34789
52.1316 5.26171
52.3304 5.19041
52.5293 5.08983
52.7284 4.99898
52.9276 4.94872
53.1271 4.87946
53.3267 4.74669
53.5265 4.69447
53.7264 4.60568
53.9266 4.55936
54.1269 4.43606
54.3274 4.31879
54.528 4.26176
54.7289 4.1076
54.9301 4.00737
55.1314 3.87822
55.3328 3.68576
55.5344 3.58157
55.7361 3.51466