File: XRD/Ni3Fe_FD0686.xy
TT I
1.27165 7.45976
1.45013 5.91748
1.62863 5.4302
1.80712 4.95096
1.98562 4.94857
2.16411 4.6993
2.34263 5.99806
2.52115 6.43309
2.69965 8.61954
2.87818 8.85152
3.05672 11.0563
3.23527 14.6227
3.4138 18.4151
3.59237 23.3157
3.77094 26.0672
3.9495 29.4551
4.12809 34.3633
4.30669 132.938
4.4853 56.5468
4.6639 55.3677
4.84253 68.1606
5.02118 87.3879
5.19981 416.146
5.37848 190.712
5.55716 102.521
5.73586 92.9282
5.91455 95.6414
6.09328 4581.3
6.27201 80.9814
6.45075 68.1693
6.62952 62.334
6.8083 58.617
6.98711 55.6923
7.16591 55.5617
7.34475 74.2036
7.5236 54.1367
7.70247 56.2776
7.88135 57.6026
8.06026 62.0853
8.23919 69.2023
8.41812 84.7093
8.59709 1233.87
8.77609 98.4075
8.9551 89.4282
9.13412 82.335
9.31318 83.9572
9.49226 84.5141
9.67134 95.4111
9.85047 100.704
10.0296 366.478
10.2088 361.791
10.388 105.042
10.5672 513.017
10.7465 86.1842
10.9257 77.8498
11.105 71.3205
11.2844 68.8835
11.4637 64.617
11.6431 63.2037
11.8225 62.7042
12.002 64.2433
12.1814 154.895
12.3609 67.8276
12.5405 64.5404
12.72 68.7338
12.8996 71.3864
13.0792 79.8642
13.2589 248.263
13.4386 120.146
13.6183 256.303
13.7981 94.0416
13.9779 75.7961
14.1577 71.9207
14.3376 70.5409
14.5175 68.78
14.6974 70.5728
14.8774 113.722
15.0574 140.481
15.2374 69.9205
15.4175 66.231
15.5976 65.8681
15.7778 97.0117
15.958 149.549
16.1382 61.502
16.3185 58.0656
16.4988 55.406
16.6792 54.3631
16.8596 54.9371
17.04 56.0015
17.2205 67.1583
17.401 69.9397
17.5815 58.9707
17.7622 61.1848
17.9428 74.4262
18.1237 142.523
18.3044 91.4648
18.4852 75.2194
18.666 60.3263
18.8469 57.8873
19.0278 56.8223
19.2088 59.3786
19.3898 76.0819
19.5709 54.1953
19.752 53.3836
19.9332 56.3105
20.1144 69.9991
20.2957 64.063
20.477 52.6676
20.6586 49.4927
20.84 48.7327
21.0215 48.5444
21.203 50.8587
21.3846 48.8144
21.5662 48.9691
21.7479 52.7476
21.9297 64.7285
22.1115 56.0615
22.2933 49.623
22.4753 48.6468
22.6572 48.977
22.8393 52.171
23.0214 57.23
23.2037 48.6714
23.3859 49.8698
23.5682 57.3675
23.7505 47.8912
23.9329 45.1828
24.1154 44.0046
24.2979 43.3295
24.4805 42.9345
24.6631 42.7055
24.8458 42.0889
25.0286 42.8961
25.2114 44.7228
25.3943 44.32
25.5773 40.9215
25.7605 40.5125
25.9436 40.7594
26.1268 41.6795
26.31 40.0944
26.4933 40.7433
26.6767 42.1601
26.8601 40.4302
27.0437 38.8138
27.2272 38.5065
27.4109 38.4087
27.5946 38.3347
27.7784 37.8514
27.9623 38.4408
28.1462 38.826
28.3304 37.0856
28.5145 35.8004
28.6987 35.6261
28.8829 35.4144
29.0673 34.5871
29.2517 34.2347
29.4361 34.0909
29.6207 33.0485
29.8053 32.8663
29.99 32.5919
30.1748 32.3296
30.3597 32.1527
30.5447 32.1439
30.7297 32.1792
30.915 31.5165
31.1002 31.0908
31.2855 30.7812
31.4708 30.7996
31.6563 30.257
31.8418 30.1833
32.0275 29.8195
32.2132 29.3589
32.399 28.9265
32.5848 28.5089
32.7708 28.0515
32.9569 27.9525
33.143 27.7614
33.3293 27.3678
33.5158 27.0765
33.7022 26.6211
33.8887 26.3303
34.0753 25.9707
34.262 25.6195
34.4488 25.24
34.6357 24.9083
34.8227 24.6299
35.0098 24.4528
35.1969 24.197
35.3842 23.9819
35.5716 23.748
35.759 23.4554
35.9468 23.1384
36.1345 22.8377
36.3222 22.5938
36.5101 22.4186
36.6981 22.0584
36.8861 21.747
37.0743 21.4871
37.2626 21.2187
37.451 20.9391
37.6395 20.8519
37.8281 20.4134
38.0168 20.2066
38.2056 19.9665
38.3945 19.7114
38.5837 19.4281
38.7728 19.2123
38.9621 18.9844
39.1514 18.6143
39.3409 18.4353
39.5304 18.2782
39.7201 18.0413
39.9099 17.8118
40.0999 17.574
40.2899 17.3568
40.48 17.1043
40.6703 16.8583
40.8607 16.6987
41.0512 16.5286
41.242 16.2154
41.4327 16.0533
41.6236 15.809
41.8146 15.6529
42.0057 15.4302
42.1969 15.1877
42.3882 15.0472
42.5797 14.7791
42.7713 14.5873
42.963 14.4126
43.1549 14.1841
43.3468 14.0
43.5389 13.8004
43.7312 13.5872
43.9237 13.4183
44.1162 13.2372
44.3088 13.0877
44.5016 12.8333
44.6945 12.686
44.8875 12.5106
45.0806 12.3587
45.2739 12.1816
45.4673 12.0306
45.6609 11.8362
45.8546 11.6908
46.0484 11.4779
46.2424 11.3429
46.4365 11.1949
46.631 11.0119
46.8254 10.8823
47.0199 10.7218
47.2146 10.5327
47.4095 10.3973
47.6044 10.2326
47.7996 10.0878
47.9948 9.93427
48.1902 9.82472
48.3858 9.66166
48.5815 9.47594
48.7774 9.38158
48.9734 9.22985
49.1696 9.10231
49.3661 8.95563
49.5626 8.77371
49.7592 8.66522
49.956 8.53687
50.153 8.40179
50.3501 8.30999
50.5474 8.16076
50.7448 8.02232
50.9424 7.91219
51.1402 7.78308
51.3381 7.67157
51.5362 7.53995
51.7344 7.42725
51.9328 7.27284
52.1316 7.17695
52.3304 7.03844
52.5293 6.9272
52.7284 6.82845
52.9276 6.69955
53.1271 6.63121
53.3267 6.48719
53.5265 6.38578
53.7264 6.28429
53.9266 6.16153
54.1269 6.03949
54.3274 5.94325
54.528 5.79937
54.7289 5.63959
54.9301 5.46315
55.1314 5.30553
55.3328 5.14462
55.5344 4.96691
55.7361 4.85349