File: XRD/Ni3Fe_FD0786.xy
TT I
1.27165 7.07224
1.45013 5.91219
1.62863 5.4914
1.80712 4.62135
1.98562 4.69617
2.16411 4.88237
2.34263 5.40618
2.52115 7.6834
2.69965 7.97635
2.87818 9.21158
3.05672 11.7803
3.23527 15.0914
3.4138 18.7007
3.59237 23.5904
3.77094 26.0041
3.9495 29.2162
4.12809 34.3633
4.30669 162.634
4.4853 59.7141
4.6639 54.7394
4.84253 66.5336
5.02118 86.1688
5.19981 350.504
5.37848 175.506
5.55716 101.108
5.73586 91.632
5.91455 93.2413
6.09328 4537.77
6.27201 80.4526
6.45075 66.6157
6.62952 62.2313
6.8083 57.795
6.98711 54.9906
7.16591 54.6956
7.34475 79.6425
7.5236 54.027
7.70247 55.569
7.88135 57.1509
8.06026 61.4883
8.23919 68.7572
8.41812 83.9421
8.59709 1208.24
8.77609 96.7728
8.9551 89.0241
9.13412 81.6406
9.31318 81.916
9.49226 83.3857
9.67134 94.9563
9.85047 98.8481
10.0296 340.553
10.2088 345.019
10.388 103.171
10.5672 534.591
10.7465 85.2184
10.9257 77.0312
11.105 70.7237
11.2844 68.8004
11.4637 64.2489
11.6431 62.8408
11.8225 61.5789
12.002 63.3023
12.1814 157.75
12.3609 67.9197
12.5405 63.5454
12.72 68.6383
12.8996 70.1611
13.0792 78.553
13.2589 243.74
13.4386 117.024
13.6183 254.426
13.7981 92.4345
13.9779 74.8616
14.1577 71.4058
14.3376 70.1257
14.5175 68.1559
14.6974 69.832
14.8774 110.362
15.0574 142.309
15.2374 69.4706
15.4175 65.3785
15.5976 65.0748
15.7778 93.8337
15.958 148.102
16.1382 61.253
16.3185 57.6072
16.4988 54.7832
16.6792 53.8333
16.8596 54.3984
17.04 55.3184
17.2205 66.5331
17.401 68.9106
17.5815 58.4738
17.7622 60.587
17.9428 72.8221
18.1237 141.736
18.3044 90.753
18.4852 74.2543
18.666 59.5176
18.8469 57.3952
19.0278 56.258
19.2088 58.6906
19.3898 75.9751
19.5709 53.3419
19.752 52.8176
19.9332 55.5715
20.1144 69.7728
20.2957 64.1568
20.477 52.4461
20.6586 49.0606
20.84 48.2469
21.0215 48.1083
21.203 50.4855
21.3846 48.2536
21.5662 48.2847
21.7479 52.1243
21.9297 64.2598
22.1115 55.7177
22.2933 49.0215
22.4753 48.3016
22.6572 48.3069
22.8393 51.5757
23.0214 56.6629
23.2037 48.213
23.3859 49.3381
23.5682 56.9449
23.7505 47.5585
23.9329 44.8393
24.1154 43.5056
24.2979 42.9074
24.4805 42.5163
24.6631 42.2891
24.8458 41.8804
25.0286 42.5397
25.2114 44.1272
25.3943 44.1934
25.5773 40.5834
25.7605 40.0157
25.9436 40.4922
26.1268 41.4359
26.31 39.603
26.4933 40.2987
26.6767 41.7929
26.8601 39.9541
27.0437 38.3944
27.2272 38.0855
27.4109 38.0085
27.5946 38.0696
27.7784 37.4643
27.9623 37.9963
28.1462 38.3751
28.3304 36.6392
28.5145 35.6517
28.6987 35.1609
28.8829 34.9576
29.0673 34.3456
29.2517 34.0755
29.4361 33.7872
29.6207 32.8588
29.8053 32.5234
29.99 32.2857
30.1748 32.0921
30.3597 31.8447
30.5447 31.845
30.7297 31.9122
30.915 31.2284
31.1002 30.8508
31.2855 30.5344
31.4708 30.6265
31.6563 29.9426
31.8418 29.7848
32.0275 29.5503
32.2132 29.0748
32.399 28.6608
32.5848 28.242
32.7708 27.8349
32.9569 27.7633
33.143 27.5395
33.3293 27.1039
33.5158 26.7771
33.7022 26.3292
33.8887 26.0627
34.0753 25.7465
34.262 25.3861
34.4488 24.9868
34.6357 24.8038
34.8227 24.3971
35.0098 24.2439
35.1969 23.9513
35.3842 23.7542
35.5716 23.4959
35.759 23.2107
35.9468 22.8843
36.1345 22.647
36.3222 22.4155
36.5101 22.2093
36.6981 21.821
36.8861 21.5438
37.0743 21.2793
37.2626 21.0558
37.451 20.8312
37.6395 20.6255
37.8281 20.2212
38.0168 19.984
38.2056 19.8009
38.3945 19.4632
38.5837 19.2255
38.7728 18.9648
38.9621 18.8067
39.1514 18.5053
39.3409 18.2136
39.5304 18.0776
39.7201 17.8581
39.9099 17.6256
40.0999 17.3928
40.2899 17.2176
40.48 16.9489
40.6703 16.7684
40.8607 16.5744
41.0512 16.3326
41.242 16.0622
41.4327 15.8942
41.6236 15.6599
41.8146 15.4567
42.0057 15.236
42.1969 15.07
42.3882 14.8849
42.5797 14.6734
42.7713 14.4761
42.963 14.2746
43.1549 14.0758
43.3468 13.8585
43.5389 13.7199
43.7312 13.4969
43.9237 13.2925
44.1162 13.101
44.3088 12.9719
44.5016 12.773
44.6945 12.5686
44.8875 12.4263
45.0806 12.2577
45.2739 12.0533
45.4673 11.9264
45.6609 11.8014
45.8546 11.5583
46.0484 11.3988
46.2424 11.2573
46.4365 11.1122
46.631 10.933
46.8254 10.7695
47.0199 10.6085
47.2146 10.4717
47.4095 10.2793
47.6044 10.142
47.7996 10.0066
47.9948 9.80317
48.1902 9.7071
48.3858 9.52785
48.5815 9.40232
48.7774 9.32289
48.9734 9.18105
49.1696 9.03269
49.3661 8.86052
49.5626 8.72333
49.7592 8.58273
49.956 8.48475
50.153 8.34727
50.3501 8.24094
50.5474 8.11946
50.7448 7.96485
50.9424 7.862
51.1402 7.75853
51.3381 7.58409
51.5362 7.47556
51.7344 7.36254
51.9328 7.23336
52.1316 7.09609
52.3304 6.99751
52.5293 6.89188
52.7284 6.7608
52.9276 6.68681
53.1271 6.56192
53.3267 6.413
53.5265 6.2766
53.7264 6.18121
53.9266 6.10247
54.1269 5.97647
54.3274 5.88135
54.528 5.73666
54.7289 5.6121
54.9301 5.41426
55.1314 5.31811
55.3328 5.15314
55.5344 4.89267
55.7361 4.76135