File: XRD/Ni3Fe_FD0279.xy
TT I
1.27165 7.58129
1.45013 5.61434
1.62863 5.8142
1.80712 5.12303
1.98562 4.89421
2.16411 5.09162
2.34263 4.98947
2.52115 6.16476
2.69965 6.94725
2.87818 8.2981
3.05672 11.8478
3.23527 15.5103
3.4138 19.2257
3.59237 24.9359
3.77094 26.713
3.9495 30.4452
4.12809 35.9396
4.30669 234.134
4.4853 67.8168
4.6639 57.2705
4.84253 69.5262
5.02118 92.2512
5.19981 521.657
5.37848 266.495
5.55716 108.671
5.73586 97.1362
5.91455 102.32
6.09328 3683.66
6.27201 90.7283
6.45075 70.8028
6.62952 65.4486
6.8083 61.2928
6.98711 58.0236
7.16591 57.7015
7.34475 98.0698
7.5236 56.8058
7.70247 58.5225
7.88135 59.838
8.06026 64.8483
8.23919 72.5743
8.41812 89.8519
8.59709 1059.06
8.77609 109.101
8.9551 96.2278
9.13412 85.3512
9.31318 86.2555
9.49226 88.0074
9.67134 103.246
9.85047 104.959
10.0296 410.482
10.2088 587.809
10.388 110.988
10.5672 457.014
10.7465 91.3332
10.9257 81.8705
11.105 75.1742
11.2844 73.6855
11.4637 67.4393
11.6431 65.9585
11.8225 64.9526
12.002 66.2472
12.1814 140.51
12.3609 75.7088
12.5405 67.1823
12.72 73.3258
12.8996 73.8905
13.0792 82.4167
13.2589 221.284
13.4386 151.391
13.6183 223.065
13.7981 114.468
13.9779 79.3607
14.1577 75.6269
14.3376 74.5899
14.5175 71.6916
14.6974 73.6756
14.8774 112.999
15.0574 174.398
15.2374 74.486
15.4175 69.1084
15.5976 68.5259
15.7778 98.3158
15.958 177.717
16.1382 65.8248
16.3185 61.4851
16.4988 57.8463
16.6792 56.8467
16.8596 57.5402
17.04 58.2613
17.2205 67.9656
17.401 77.7374
17.5815 61.7887
17.7622 63.7624
17.9428 78.6795
18.1237 136.704
18.3044 89.969
18.4852 86.2713
18.666 63.2007
18.8469 60.6446
19.0278 59.375
19.2088 62.3929
19.3898 77.7459
19.5709 56.8635
19.752 55.5611
19.9332 58.7148
20.1144 71.6429
20.2957 64.6501
20.477 57.1075
20.6586 51.8915
20.84 51.0622
21.0215 50.7597
21.203 52.6064
21.3846 51.2819
21.5662 50.896
21.7479 54.6483
21.9297 66.6934
22.1115 57.761
22.2933 52.4027
22.4753 51.0623
22.6572 51.0765
22.8393 53.5893
23.0214 59.8967
23.2037 50.8684
23.3859 52.0359
23.5682 57.6126
23.7505 51.4023
23.9329 47.0646
24.1154 45.9627
24.2979 45.2511
24.4805 44.6472
24.6631 44.8227
24.8458 44.0732
25.0286 44.4966
25.2114 46.2543
25.3943 46.5087
25.5773 42.7338
25.7605 42.1713
25.9436 42.5111
26.1268 43.3519
26.31 41.8493
26.4933 42.1515
26.6767 43.6889
26.8601 42.1738
27.0437 40.6598
27.2272 40.1745
27.4109 39.9303
27.5946 40.0406
27.7784 39.4444
27.9623 39.7751
28.1462 40.471
28.3304 38.8821
28.5145 37.4593
28.6987 37.0713
28.8829 36.763
29.0673 36.3444
29.2517 35.7793
29.4361 35.5449
29.6207 34.5354
29.8053 34.2353
29.99 33.9611
30.1748 33.8615
30.3597 33.6771
30.5447 33.4819
30.7297 33.4723
30.915 32.9816
31.1002 32.4833
31.2855 32.2361
31.4708 32.0482
31.6563 31.6382
31.8418 31.3084
32.0275 31.1643
32.2132 30.6704
32.399 30.2123
32.5848 29.7358
32.7708 29.3884
32.9569 29.2225
33.143 28.8705
33.3293 28.5025
33.5158 28.2491
33.7022 27.7292
33.8887 27.4086
34.0753 27.0993
34.262 26.6837
34.4488 26.4227
34.6357 26.0651
34.8227 25.7607
35.0098 25.4462
35.1969 25.233
35.3842 24.9948
35.5716 24.773
35.759 24.5079
35.9468 23.9946
36.1345 23.8742
36.3222 23.5803
36.5101 23.4045
36.6981 23.0238
36.8861 22.7164
37.0743 22.4166
37.2626 22.1503
37.451 21.8587
37.6395 21.7636
37.8281 21.3506
38.0168 21.0128
38.2056 20.7978
38.3945 20.5774
38.5837 20.2927
38.7728 20.003
38.9621 19.7423
39.1514 19.5048
39.3409 19.2397
39.5304 18.9836
39.7201 18.8379
39.9099 18.592
40.0999 18.3009
40.2899 18.1109
40.48 17.8003
40.6703 17.6402
40.8607 17.449
41.0512 17.2036
41.242 16.9118
41.4327 16.7198
41.6236 16.481
41.8146 16.2589
42.0057 16.0728
42.1969 15.8669
42.3882 15.6548
42.5797 15.4741
42.7713 15.2216
42.963 14.9992
43.1549 14.8042
43.3468 14.6
43.5389 14.4068
43.7312 14.1895
43.9237 14.0259
44.1162 13.8124
44.3088 13.6546
44.5016 13.3799
44.6945 13.2083
44.8875 13.0566
45.0806 12.8619
45.2739 12.71
45.4673 12.4853
45.6609 12.3207
45.8546 12.1289
46.0484 12.0532
46.2424 11.8335
46.4365 11.6888
46.631 11.4833
46.8254 11.3129
47.0199 11.1367
47.2146 10.9822
47.4095 10.7875
47.6044 10.6243
47.7996 10.4761
47.9948 10.3373
48.1902 10.1719
48.3858 10.0434
48.5815 9.93097
48.7774 9.73806
48.9734 9.59548
49.1696 9.4902
49.3661 9.3394
49.5626 9.20549
49.7592 9.01343
49.956 8.89618
50.153 8.80848
50.3501 8.634
50.5474 8.53846
50.7448 8.40478
50.9424 8.22808
51.1402 8.12993
51.3381 8.01787
51.5362 7.8759
51.7344 7.7335
51.9328 7.60022
52.1316 7.40846
52.3304 7.3324
52.5293 7.22781
52.7284 7.09795
52.9276 6.97014
53.1271 6.90978
53.3267 6.73651
53.5265 6.62314
53.7264 6.58609
53.9266 6.44582
54.1269 6.29084
54.3274 6.17028
54.528 6.05157
54.7289 5.89855
54.9301 5.72338
55.1314 5.57806
55.3328 5.38421
55.5344 5.17116
55.7361 4.95558