File: XRD/Ni3Fe_FD1009.xy
TT I
1.27165 6.4566
1.45013 6.45689
1.62863 4.64823
1.80712 4.43083
1.98562 4.55515
2.16411 4.76865
2.34263 6.34819
2.52115 7.59449
2.69965 8.48406
2.87818 8.80034
3.05672 11.5748
3.23527 14.9958
3.4138 18.4954
3.59237 23.741
3.77094 25.1854
3.9495 28.9535
4.12809 33.4145
4.30669 275.1
4.4853 67.6777
4.6639 52.0751
4.84253 62.7016
5.02118 80.282
5.19981 242.295
5.37848 176.365
5.55716 94.6459
5.73586 85.8846
5.91455 86.0859
6.09328 4283.1
6.27201 77.4376
6.45075 63.2308
6.62952 59.3107
6.8083 55.8738
6.98711 53.0211
7.16591 52.514
7.34475 110.228
7.5236 51.9421
7.70247 53.6813
7.88135 54.4888
8.06026 58.7702
8.23919 65.6026
8.41812 77.9724
8.59709 975.068
8.77609 93.9668
8.9551 88.2618
9.13412 77.3863
9.31318 77.3725
9.49226 79.4284
9.67134 94.4442
9.85047 92.799
10.0296 256.899
10.2088 451.42
10.388 99.3337
10.5672 503.657
10.7465 81.784
10.9257 73.8632
11.105 67.9772
11.2844 67.9037
11.4637 61.4839
11.6431 60.5727
11.8225 59.2077
12.002 59.807
12.1814 138.968
12.3609 70.6549
12.5405 60.7902
12.72 69.2956
12.8996 66.7386
13.0792 73.7113
13.2589 204.305
13.4386 132.663
13.6183 219.237
13.7981 100.218
13.9779 72.0105
14.1577 69.0043
14.3376 68.3699
14.5175 65.4438
14.6974 66.9518
14.8774 97.2126
15.0574 165.986
15.2374 67.9595
15.4175 63.2049
15.5976 62.6053
15.7778 84.2129
15.958 172.885
16.1382 61.0227
16.3185 55.8142
16.4988 52.9497
16.6792 52.0625
16.8596 52.6257
17.04 53.0744
17.2205 62.1609
17.401 71.0539
17.5815 56.371
17.7622 58.5986
17.9428 68.1999
18.1237 140.723
18.3044 85.8035
18.4852 79.6023
18.666 58.1587
18.8469 55.7666
19.0278 54.4939
19.2088 56.6256
19.3898 75.7795
19.5709 52.2659
19.752 51.0102
19.9332 53.3896
20.1144 69.3726
20.2957 62.2902
20.477 52.7158
20.6586 47.8365
20.84 46.9432
21.0215 46.5597
21.203 48.8351
21.3846 47.173
21.5662 46.8015
21.7479 49.9191
21.9297 64.5613
22.1115 55.3488
22.2933 48.68
22.4753 47.457
22.6572 47.0203
22.8393 49.6556
23.0214 57.1982
23.2037 47.2548
23.3859 47.8603
23.5682 56.2258
23.7505 47.7638
23.9329 43.6063
24.1154 42.6059
24.2979 41.8918
24.4805 41.4981
24.6631 41.3277
24.8458 40.6997
25.0286 41.2514
25.2114 43.6078
25.3943 44.0053
25.5773 39.6697
25.7605 39.1178
25.9436 39.3213
26.1268 40.7718
26.31 38.9446
26.4933 39.2895
26.6767 41.461
26.8601 39.62
27.0437 37.8579
27.2272 37.3005
27.4109 37.2459
27.5946 37.2229
27.7784 36.8251
27.9623 37.3658
28.1462 38.1818
28.3304 36.3682
28.5145 35.0101
28.6987 34.5532
28.8829 34.3601
29.0673 33.5838
29.2517 33.2913
29.4361 33.3415
29.6207 32.2817
29.8053 31.9597
29.99 31.596
30.1748 31.5098
30.3597 31.464
30.5447 31.2312
30.7297 31.4937
30.915 30.8424
31.1002 30.2688
31.2855 30.0436
31.4708 30.0206
31.6563 29.6751
31.8418 29.3538
32.0275 29.1722
32.2132 28.6397
32.399 28.1115
32.5848 27.6243
32.7708 27.3039
32.9569 27.1557
33.143 27.0434
33.3293 26.7923
33.5158 26.3867
33.7022 25.7725
33.8887 25.5789
34.0753 25.3271
34.262 24.9752
34.4488 24.5771
34.6357 24.2592
34.8227 24.0279
35.0098 23.7794
35.1969 23.4542
35.3842 23.4855
35.5716 23.2224
35.759 22.9671
35.9468 22.5158
36.1345 22.3531
36.3222 22.1413
36.5101 21.7907
36.6981 21.6188
36.8861 21.2715
37.0743 20.8858
37.2626 20.7155
37.451 20.4668
37.6395 20.2599
37.8281 19.9379
38.0168 19.6547
38.2056 19.4342
38.3945 19.1213
38.5837 18.9822
38.7728 18.6797
38.9621 18.4795
39.1514 18.2265
39.3409 18.003
39.5304 17.7636
39.7201 17.5685
39.9099 17.3991
40.0999 17.1554
40.2899 16.9263
40.48 16.6474
40.6703 16.48
40.8607 16.3253
41.0512 16.091
41.242 15.8517
41.4327 15.6802
41.6236 15.4004
41.8146 15.2528
42.0057 15.022
42.1969 14.8178
42.3882 14.6549
42.5797 14.4469
42.7713 14.2563
42.963 14.0266
43.1549 13.8788
43.3468 13.6839
43.5389 13.473
43.7312 13.2351
43.9237 13.1119
44.1162 12.9155
44.3088 12.7472
44.5016 12.5336
44.6945 12.4061
44.8875 12.2324
45.0806 12.0422
45.2739 11.8722
45.4673 11.7177
45.6609 11.5168
45.8546 11.4243
46.0484 11.2325
46.2424 11.087
46.4365 10.9453
46.631 10.7797
46.8254 10.557
47.0199 10.4649
47.2146 10.3147
47.4095 10.1312
47.6044 9.98937
47.7996 9.85047
47.9948 9.7089
48.1902 9.59192
48.3858 9.39578
48.5815 9.29087
48.7774 9.19191
48.9734 9.00032
49.1696 8.86082
49.3661 8.74357
49.5626 8.57622
49.7592 8.51286
49.956 8.36753
50.153 8.20003
50.3501 8.05831
50.5474 7.96639
50.7448 7.89026
50.9424 7.75589
51.1402 7.62383
51.3381 7.48882
51.5362 7.33131
51.7344 7.24973
51.9328 7.15183
52.1316 7.01176
52.3304 6.93827
52.5293 6.76868
52.7284 6.67627
52.9276 6.56394
53.1271 6.44496
53.3267 6.34324
53.5265 6.2361
53.7264 6.16268
53.9266 6.01265
54.1269 5.93203
54.3274 5.82224
54.528 5.66764
54.7289 5.47948
54.9301 5.38539
55.1314 5.27241
55.3328 5.05638
55.5344 4.82604
55.7361 4.73023