File: XRD/Ni3Fe_FD0838.xy
TT I
1.27165 7.3446
1.45013 6.59738
1.62863 5.29132
1.80712 4.79379
1.98562 4.7192
2.16411 5.23652
2.34263 5.37526
2.52115 7.46855
2.69965 8.64753
2.87818 8.58183
3.05672 11.4794
3.23527 15.2393
3.4138 18.792
3.59237 23.9335
3.77094 26.3386
3.9495 29.4694
4.12809 35.0475
4.30669 159.461
4.4853 59.3498
4.6639 55.1493
4.84253 66.8515
5.02118 86.4209
5.19981 327.847
5.37848 181.335
5.55716 101.314
5.73586 91.5751
5.91455 93.1679
6.09328 4360.13
6.27201 80.8622
6.45075 67.6158
6.62952 62.2913
6.8083 58.1716
6.98711 54.846
7.16591 55.1298
7.34475 78.165
7.5236 54.0784
7.70247 55.7035
7.88135 57.1116
8.06026 61.7916
8.23919 68.8569
8.41812 84.0316
8.59709 1190.78
8.77609 97.602
8.9551 89.3969
9.13412 81.2895
9.31318 82.5888
9.49226 84.1241
9.67134 95.5091
9.85047 99.5248
10.0296 331.457
10.2088 395.901
10.388 103.036
10.5672 524.53
10.7465 85.2944
10.9257 77.4755
11.105 71.0424
11.2844 68.7501
11.4637 63.992
11.6431 63.0771
11.8225 61.9595
12.002 63.0469
12.1814 155.727
12.3609 68.1682
12.5405 63.8889
12.72 68.1685
12.8996 70.6368
13.0792 78.3186
13.2589 245.453
13.4386 121.441
13.6183 252.557
13.7981 96.0077
13.9779 75.1949
14.1577 71.494
14.3376 70.2422
14.5175 68.2515
14.6974 69.5
14.8774 110.279
15.0574 144.193
15.2374 69.6368
15.4175 65.7526
15.5976 65.2178
15.7778 94.374
15.958 148.944
16.1382 61.2179
16.3185 57.8438
16.4988 54.9872
16.6792 54.0374
16.8596 54.4919
17.04 55.1882
17.2205 66.4771
17.401 69.5797
17.5815 58.5649
17.7622 60.6385
17.9428 72.7507
18.1237 137.386
18.3044 91.2465
18.4852 75.7693
18.666 59.7197
18.8469 57.4078
19.0278 56.2097
19.2088 58.5013
19.3898 74.5762
19.5709 53.6572
19.752 52.6051
19.9332 55.6624
20.1144 69.0074
20.2957 63.6275
20.477 52.9597
20.6586 49.2572
20.84 48.1989
21.0215 48.085
21.203 50.4104
21.3846 48.4945
21.5662 48.3186
21.7479 52.0285
21.9297 63.5391
22.1115 55.5268
22.2933 49.1979
22.4753 48.2797
22.6572 48.4314
22.8393 51.5936
23.0214 56.3355
23.2037 48.2993
23.3859 49.2497
23.5682 56.5237
23.7505 47.7736
23.9329 44.7464
24.1154 43.605
24.2979 42.9241
24.4805 42.3344
24.6631 42.4189
24.8458 41.8202
25.0286 42.4634
25.2114 44.1496
25.3943 44.1651
25.5773 40.5003
25.7605 40.06
25.9436 40.4046
26.1268 41.1604
26.31 39.6619
26.4933 40.3759
26.6767 41.6656
26.8601 40.0485
27.0437 38.5231
27.2272 38.1583
27.4109 38.0197
27.5946 37.9483
27.7784 37.4645
27.9623 38.055
28.1462 38.5183
28.3304 36.8457
28.5145 35.5736
28.6987 35.2573
28.8829 35.011
29.0673 34.2938
29.2517 33.9523
29.4361 33.7694
29.6207 32.7033
29.8053 32.5942
29.99 32.1986
30.1748 32.1171
30.3597 31.9241
30.5447 31.704
30.7297 31.9713
30.915 31.2769
31.1002 30.805
31.2855 30.5786
31.4708 30.4205
31.6563 30.0223
31.8418 29.7256
32.0275 29.6232
32.2132 29.0663
32.399 28.675
32.5848 28.2688
32.7708 27.8562
32.9569 27.7067
33.143 27.4829
33.3293 27.1781
33.5158 26.7903
33.7022 26.3256
33.8887 26.0154
34.0753 25.734
34.262 25.3734
34.4488 25.0019
34.6357 24.6968
34.8227 24.4749
35.0098 24.1883
35.1969 23.9513
35.3842 23.8214
35.5716 23.4978
35.759 23.2188
35.9468 22.9556
36.1345 22.6334
36.3222 22.4448
36.5101 22.1926
36.6981 21.9324
36.8861 21.5402
37.0743 21.2799
37.2626 21.0031
37.451 20.8076
37.6395 20.6533
37.8281 20.2993
38.0168 19.9964
38.2056 19.7153
38.3945 19.5565
38.5837 19.2833
38.7728 19.0247
38.9621 18.802
39.1514 18.559
39.3409 18.2619
39.5304 18.0771
39.7201 17.8657
39.9099 17.6519
40.0999 17.4047
40.2899 17.2088
40.48 16.9317
40.6703 16.7181
40.8607 16.5533
41.0512 16.3246
41.242 16.1242
41.4327 15.9231
41.6236 15.7007
41.8146 15.4997
42.0057 15.2907
42.1969 15.0712
42.3882 14.8746
42.5797 14.6644
42.7713 14.5168
42.963 14.2139
43.1549 14.0523
43.3468 13.8705
43.5389 13.6205
43.7312 13.5027
43.9237 13.2878
44.1162 13.1352
44.3088 12.9841
44.5016 12.758
44.6945 12.5731
44.8875 12.4431
45.0806 12.2034
45.2739 12.0626
45.4673 11.8834
45.6609 11.7475
45.8546 11.5942
46.0484 11.4625
46.2424 11.2509
46.4365 11.105
46.631 10.9026
46.8254 10.7143
47.0199 10.5875
47.2146 10.4188
47.4095 10.2885
47.6044 10.1362
47.7996 10.0193
47.9948 9.83448
48.1902 9.70369
48.3858 9.59047
48.5815 9.43959
48.7774 9.27079
48.9734 9.13637
49.1696 9.00739
49.3661 8.86638
49.5626 8.73311
49.7592 8.56208
49.956 8.49106
50.153 8.37134
50.3501 8.20834
50.5474 8.1051
50.7448 7.9595
50.9424 7.83784
51.1402 7.71639
51.3381 7.60589
51.5362 7.46107
51.7344 7.34937
51.9328 7.23085
52.1316 7.10677
52.3304 7.01251
52.5293 6.93615
52.7284 6.7192
52.9276 6.65799
53.1271 6.5896
53.3267 6.40349
53.5265 6.34521
53.7264 6.17362
53.9266 6.10744
54.1269 6.01023
54.3274 5.91178
54.528 5.73415
54.7289 5.56957
54.9301 5.44073
55.1314 5.35653
55.3328 5.0871
55.5344 4.92793
55.7361 4.79759