File: XRD/Ni3Fe_FD0511.xy
TT I
1.27165 7.42099
1.45013 6.13287
1.62863 5.16799
1.80712 4.69458
1.98562 5.05934
2.16411 4.65688
2.34263 5.07902
2.52115 6.94725
2.69965 7.70037
2.87818 8.32809
3.05672 11.0859
3.23527 14.8
3.4138 18.7398
3.59237 24.2595
3.77094 26.539
3.9495 30.003
4.12809 35.1934
4.30669 227.194
4.4853 67.8576
4.6639 56.2184
4.84253 67.9801
5.02118 88.4507
5.19981 392.463
5.37848 204.275
5.55716 103.574
5.73586 93.8435
5.91455 95.878
6.09328 4120.21
6.27201 85.2413
6.45075 68.3642
6.62952 64.0062
6.8083 59.1551
6.98711 56.3708
7.16591 56.2047
7.34475 94.1401
7.5236 55.5642
7.70247 57.2773
7.88135 58.4153
8.06026 62.9612
8.23919 70.495
8.41812 86.7985
8.59709 1149.64
8.77609 102.208
8.9551 93.2736
9.13412 83.2987
9.31318 83.7117
9.49226 85.3843
9.67134 100.557
9.85047 101.344
10.0296 354.99
10.2088 446.759
10.388 106.425
10.5672 501.406
10.7465 88.2837
10.9257 79.4785
11.105 72.7442
11.2844 71.444
11.4637 66.1525
11.6431 64.6877
11.8225 63.3103
12.002 64.3091
12.1814 153.658
12.3609 72.3029
12.5405 65.5609
12.72 71.0183
12.8996 72.0003
13.0792 79.8883
13.2589 235.677
13.4386 131.052
13.6183 242.044
13.7981 102.742
13.9779 76.7215
14.1577 73.6271
14.3376 72.4866
14.5175 69.6397
14.6974 71.5602
14.8774 111.349
15.0574 155.563
15.2374 72.3214
15.4175 67.5131
15.5976 66.6895
15.7778 95.7216
15.958 159.928
16.1382 63.82
16.3185 59.6805
16.4988 56.2375
16.6792 55.4104
16.8596 56.0987
17.04 56.5354
17.2205 67.2183
17.401 72.7088
17.5815 59.949
17.7622 61.9176
17.9428 74.5032
18.1237 137.577
18.3044 91.0899
18.4852 80.4809
18.666 61.2233
18.8469 58.8029
19.0278 57.6775
19.2088 60.4245
19.3898 76.5842
19.5709 55.1587
19.752 54.0247
19.9332 56.8358
20.1144 70.2304
20.2957 64.1658
20.477 54.8903
20.6586 50.3987
20.84 49.5335
21.0215 49.3306
21.203 51.378
21.3846 49.81
21.5662 49.431
21.7479 53.2938
21.9297 64.7997
22.1115 56.5295
22.2933 50.8283
22.4753 49.5178
22.6572 49.5352
22.8393 52.3997
23.0214 57.9207
23.2037 49.3633
23.3859 50.4004
23.5682 56.9262
23.7505 49.1444
23.9329 45.9205
24.1154 44.8036
24.2979 44.0787
24.4805 43.4623
24.6631 43.3651
24.8458 42.8548
25.0286 43.2453
25.2114 45.2393
25.3943 45.1964
25.5773 41.464
25.7605 41.0322
25.9436 41.3887
26.1268 42.0857
26.31 40.7326
26.4933 41.2317
26.6767 42.6234
26.8601 40.9664
27.0437 39.4469
27.2272 39.1143
27.4109 38.9438
27.5946 38.8121
27.7784 38.3469
27.9623 38.7715
28.1462 39.2711
28.3304 37.6596
28.5145 36.3922
28.6987 36.0665
28.8829 35.9724
29.0673 35.1362
29.2517 34.7757
29.4361 34.5456
29.6207 33.6634
29.8053 33.2977
29.99 33.0184
30.1748 32.9369
30.3597 32.6361
30.5447 32.5333
30.7297 32.6954
30.915 31.9766
31.1002 31.5798
31.2855 31.2675
31.4708 31.1626
31.6563 30.85
31.8418 30.4971
32.0275 30.2303
32.2132 29.7852
32.399 29.2588
32.5848 28.9477
32.7708 28.5777
32.9569 28.4349
33.143 28.1066
33.3293 27.757
33.5158 27.3961
33.7022 26.9623
33.8887 26.6712
34.0753 26.3246
34.262 25.9839
34.4488 25.65
34.6357 25.1718
34.8227 24.991
35.0098 24.9248
35.1969 24.4536
35.3842 24.2962
35.5716 24.0947
35.759 23.7493
35.9468 23.4229
36.1345 23.1584
36.3222 22.9266
36.5101 22.7458
36.6981 22.4827
36.8861 22.0482
37.0743 21.7638
37.2626 21.5573
37.451 21.2195
37.6395 21.1415
37.8281 20.7565
38.0168 20.4786
38.2056 20.2253
38.3945 19.9558
38.5837 19.7566
38.7728 19.4947
38.9621 19.1774
39.1514 18.9641
39.3409 18.7262
39.5304 18.5329
39.7201 18.2352
39.9099 18.0688
40.0999 17.8863
40.2899 17.6764
40.48 17.34
40.6703 17.14
40.8607 17.0381
41.0512 16.7357
41.242 16.4616
41.4327 16.2828
41.6236 16.0273
41.8146 15.7926
42.0057 15.6397
42.1969 15.3949
42.3882 15.1936
42.5797 15.0108
42.7713 14.8276
42.963 14.6374
43.1549 14.4524
43.3468 14.2146
43.5389 14.016
43.7312 13.8264
43.9237 13.6803
44.1162 13.4509
44.3088 13.2585
44.5016 13.031
44.6945 12.9027
44.8875 12.7435
45.0806 12.5628
45.2739 12.3852
45.4673 12.1976
45.6609 12.0006
45.8546 11.842
46.0484 11.6716
46.2424 11.4956
46.4365 11.4063
46.631 11.2028
46.8254 10.9624
47.0199 10.8061
47.2146 10.698
47.4095 10.5161
47.6044 10.4012
47.7996 10.1945
47.9948 10.0946
48.1902 9.91266
48.3858 9.78936
48.5815 9.6604
48.7774 9.53501
48.9734 9.40065
49.1696 9.22546
49.3661 9.09328
49.5626 8.94554
49.7592 8.81657
49.956 8.69404
50.153 8.5354
50.3501 8.39785
50.5474 8.3049
50.7448 8.20159
50.9424 8.07158
51.1402 7.91427
51.3381 7.7438
51.5362 7.67123
51.7344 7.52967
51.9328 7.35647
52.1316 7.27617
52.3304 7.17001
52.5293 7.04095
52.7284 6.92808
52.9276 6.8202
53.1271 6.76613
53.3267 6.60154
53.5265 6.44255
53.7264 6.36199
53.9266 6.29625
54.1269 6.13181
54.3274 6.06586
54.528 5.87243
54.7289 5.70789
54.9301 5.53084
55.1314 5.47126
55.3328 5.23783
55.5344 5.06146
55.7361 4.83279