File: XRD/Ni3Fe_FD0663.xy
TT I
1.27165 7.77505
1.45013 5.83761
1.62863 5.10194
1.80712 5.07778
1.98562 4.96812
2.16411 5.04781
2.34263 5.51738
2.52115 6.713
2.69965 7.85366
2.87818 8.82781
3.05672 11.0328
3.23527 15.2438
3.4138 18.959
3.59237 24.2029
3.77094 25.8117
3.9495 30.2296
4.12809 34.5892
4.30669 200.193
4.4853 63.0103
4.6639 54.9862
4.84253 67.3164
5.02118 86.7524
5.19981 343.995
5.37848 183.112
5.55716 102.065
5.73586 91.6281
5.91455 93.9547
6.09328 4545.57
6.27201 82.1502
6.45075 66.8475
6.62952 62.2997
6.8083 58.1548
6.98711 55.6741
7.16591 55.0835
7.34475 88.3874
7.5236 54.6216
7.70247 55.7788
7.88135 57.6768
8.06026 62.1263
8.23919 69.1774
8.41812 85.3377
8.59709 1192.84
8.77609 98.6027
8.9551 90.5221
9.13412 81.8334
9.31318 82.4516
9.49226 84.6121
9.67134 97.3447
9.85047 99.6365
10.0296 343.575
10.2088 379.984
10.388 104.159
10.5672 516.504
10.7465 86.1301
10.9257 78.3138
11.105 71.4682
11.2844 69.8839
11.4637 64.6327
11.6431 63.4343
11.8225 62.5144
12.002 63.5441
12.1814 153.474
12.3609 69.2348
12.5405 64.2952
12.72 69.6703
12.8996 70.6077
13.0792 79.0496
13.2589 241.651
13.4386 119.884
13.6183 251.226
13.7981 94.4884
13.9779 75.822
14.1577 72.0228
14.3376 71.0366
14.5175 68.853
14.6974 70.4115
14.8774 110.635
15.0574 144.102
15.2374 70.6815
15.4175 66.2705
15.5976 65.6609
15.7778 94.4277
15.958 153.0
16.1382 62.4673
16.3185 58.3436
16.4988 55.5294
16.6792 54.6184
16.8596 55.0169
17.04 55.6317
17.2205 66.5864
17.401 70.0258
17.5815 59.1474
17.7622 61.0397
17.9428 73.6696
18.1237 142.394
18.3044 90.6074
18.4852 76.1679
18.666 60.2459
18.8469 57.7772
19.0278 56.7747
19.2088 59.4336
19.3898 76.9177
19.5709 53.9776
19.752 53.1583
19.9332 56.1831
20.1144 69.8044
20.2957 63.889
20.477 53.2751
20.6586 49.7347
20.84 48.6786
21.0215 48.4462
21.203 50.85
21.3846 48.8151
21.5662 48.717
21.7479 52.5822
21.9297 64.8595
22.1115 56.1114
22.2933 49.7318
22.4753 48.6202
22.6572 48.729
22.8393 51.8178
23.0214 57.4322
23.2037 48.565
23.3859 49.7413
23.5682 57.4339
23.7505 47.8589
23.9329 45.2283
24.1154 44.0009
24.2979 43.289
24.4805 42.8721
24.6631 42.7013
24.8458 42.0833
25.0286 42.7399
25.2114 44.6098
25.3943 44.571
25.5773 40.9358
25.7605 40.4996
25.9436 40.7981
26.1268 41.7905
26.31 39.9823
26.4933 40.5838
26.6767 42.23
26.8601 40.4035
27.0437 38.7811
27.2272 38.3331
27.4109 38.2898
27.5946 38.2979
27.7784 37.8298
27.9623 38.2652
28.1462 38.6792
28.3304 37.0748
28.5145 35.8472
28.6987 35.4892
28.8829 35.3186
29.0673 34.6594
29.2517 34.2727
29.4361 34.0933
29.6207 33.0005
29.8053 32.8025
29.99 32.5488
30.1748 32.392
30.3597 32.2927
30.5447 32.1534
30.7297 32.0837
30.915 31.5441
31.1002 31.0847
31.2855 30.7875
31.4708 30.7172
31.6563 30.3492
31.8418 30.0128
32.0275 29.846
32.2132 29.3194
32.399 28.9767
32.5848 28.4477
32.7708 28.1115
32.9569 27.9915
33.143 27.7718
33.3293 27.3944
33.5158 27.0337
33.7022 26.5923
33.8887 26.2938
34.0753 25.9239
34.262 25.6143
34.4488 25.2401
34.6357 24.9239
34.8227 24.5891
35.0098 24.4429
35.1969 24.1756
35.3842 23.947
35.5716 23.7303
35.759 23.4478
35.9468 23.1206
36.1345 22.8587
36.3222 22.6319
36.5101 22.4157
36.6981 22.0853
36.8861 21.8453
37.0743 21.4583
37.2626 21.2517
37.451 20.9849
37.6395 20.8585
37.8281 20.5072
38.0168 20.2243
38.2056 20.0192
38.3945 19.6169
38.5837 19.4197
38.7728 19.1507
38.9621 18.9899
39.1514 18.6506
39.3409 18.4356
39.5304 18.1967
39.7201 18.0368
39.9099 17.8035
40.0999 17.6258
40.2899 17.322
40.48 17.1549
40.6703 16.9013
40.8607 16.7344
41.0512 16.4987
41.242 16.2467
41.4327 16.0239
41.6236 15.7873
41.8146 15.6292
42.0057 15.4066
42.1969 15.2174
42.3882 15.0019
42.5797 14.854
42.7713 14.639
42.963 14.3802
43.1549 14.1921
43.3468 14.0165
43.5389 13.8233
43.7312 13.5996
43.9237 13.4607
44.1162 13.2768
44.3088 13.0778
44.5016 12.8775
44.6945 12.6971
44.8875 12.5322
45.0806 12.312
45.2739 12.2183
45.4673 12.0174
45.6609 11.8496
45.8546 11.6734
46.0484 11.4942
46.2424 11.3904
46.4365 11.2036
46.631 11.0024
46.8254 10.8437
47.0199 10.6776
47.2146 10.5429
47.4095 10.3782
47.6044 10.2283
47.7996 10.0755
47.9948 9.90001
48.1902 9.78169
48.3858 9.63103
48.5815 9.55947
48.7774 9.39451
48.9734 9.23864
49.1696 9.11452
49.3661 8.94152
49.5626 8.78597
49.7592 8.70735
49.956 8.57127
50.153 8.42301
50.3501 8.30122
50.5474 8.18264
50.7448 8.05842
50.9424 7.94182
51.1402 7.81721
51.3381 7.66228
51.5362 7.57076
51.7344 7.4334
51.9328 7.29625
52.1316 7.17097
52.3304 7.05607
52.5293 6.92885
52.7284 6.83193
52.9276 6.72544
53.1271 6.61879
53.3267 6.48665
53.5265 6.41493
53.7264 6.2322
53.9266 6.14471
54.1269 6.06436
54.3274 5.9688
54.528 5.79852
54.7289 5.63902
54.9301 5.43864
55.1314 5.36355
55.3328 5.14091
55.5344 4.96422
55.7361 4.76311