File: XRD/Ni3Fe_FD0484.xy
TT I
1.27165 7.38943
1.45013 6.6767
1.62863 5.32008
1.80712 5.15414
1.98562 5.0527
2.16411 4.33018
2.34263 5.15392
2.52115 6.27004
2.69965 6.93278
2.87818 7.9912
3.05672 11.1437
3.23527 14.9139
3.4138 18.8379
3.59237 23.0409
3.77094 25.9698
3.9495 29.6694
4.12809 34.5444
4.30669 106.958
4.4853 54.6777
4.6639 56.4605
4.84253 69.0882
5.02118 90.3178
5.19981 538.41
5.37848 208.084
5.55716 104.872
5.73586 95.1808
5.91455 99.2052
6.09328 4269.37
6.27201 83.2168
6.45075 69.7742
6.62952 63.179
6.8083 59.5293
6.98711 56.221
7.16591 56.5794
7.34475 68.9797
7.5236 54.7846
7.70247 56.7933
7.88135 58.3682
8.06026 63.6006
8.23919 70.6965
8.41812 86.2115
8.59709 1240.84
8.77609 101.629
8.9551 90.2774
9.13412 84.0483
9.31318 85.2357
9.49226 86.133
9.67134 96.1904
9.85047 102.924
10.0296 412.751
10.2088 403.821
10.388 108.708
10.5672 498.473
10.7465 87.7337
10.9257 79.0915
11.105 72.6811
11.2844 69.6007
11.4637 65.5248
11.6431 64.2567
11.8225 63.4357
12.002 65.6883
12.1814 156.112
12.3609 68.1924
12.5405 65.7529
12.72 68.9269
12.8996 72.7254
13.0792 82.2355
13.2589 253.032
13.4386 125.398
13.6183 254.169
13.7981 97.6905
13.9779 76.9119
14.1577 73.3056
14.3376 71.4651
14.5175 69.8656
14.6974 71.627
14.8774 118.812
15.0574 149.038
15.2374 70.8252
15.4175 67.4343
15.5976 67.1323
15.7778 101.318
15.958 154.001
16.1382 62.5596
16.3185 58.7754
16.4988 56.1028
16.6792 55.3611
16.8596 55.9157
17.04 57.1528
17.2205 68.6143
17.401 71.4157
17.5815 60.2487
17.7622 62.346
17.9428 76.96
18.1237 141.126
18.3044 92.1567
18.4852 77.8298
18.666 61.1417
18.8469 58.8676
19.0278 57.8433
19.2088 60.7343
19.3898 76.3123
19.5709 54.9604
19.752 54.2807
19.9332 57.5353
20.1144 70.6449
20.2957 64.3099
20.477 53.9216
20.6586 50.2751
20.84 49.4864
21.0215 49.411
21.203 51.5089
21.3846 49.502
21.5662 50.003
21.7479 54.0475
21.9297 65.4226
22.1115 56.3838
22.2933 50.4712
22.4753 49.4355
22.6572 49.7496
22.8393 53.0758
23.0214 58.0001
23.2037 49.6794
23.3859 50.7788
23.5682 57.2447
23.7505 48.6596
23.9329 45.9005
24.1154 44.6382
24.2979 43.8193
24.4805 43.4249
24.6631 43.4842
24.8458 42.9669
25.0286 43.6494
25.2114 45.3746
25.3943 45.3511
25.5773 41.4795
25.7605 41.121
25.9436 41.4576
26.1268 42.3432
26.31 40.8371
26.4933 41.3439
26.6767 42.8527
26.8601 40.8517
27.0437 39.4294
27.2272 39.1227
27.4109 38.9672
27.5946 38.9155
27.7784 38.5601
27.9623 39.0746
28.1462 39.4016
28.3304 37.5484
28.5145 36.3316
28.6987 36.1341
28.8829 35.9076
29.0673 35.1725
29.2517 34.8368
29.4361 34.6224
29.6207 33.4994
29.8053 33.3436
29.99 33.1331
30.1748 32.9077
30.3597 32.6314
30.5447 32.6028
30.7297 32.6581
30.915 32.0253
31.1002 31.6317
31.2855 31.4038
31.4708 31.2654
31.6563 30.727
31.8418 30.6213
32.0275 30.2641
32.2132 29.859
32.399 29.4047
32.5848 28.9042
32.7708 28.5882
32.9569 28.4377
33.143 28.2305
33.3293 27.7679
33.5158 27.4512
33.7022 26.9882
33.8887 26.7085
34.0753 26.3959
34.262 26.0567
34.4488 25.6143
34.6357 25.2795
34.8227 24.968
35.0098 24.8882
35.1969 24.5623
35.3842 24.3375
35.5716 24.0887
35.759 23.8766
35.9468 23.4235
36.1345 23.2021
36.3222 22.9534
36.5101 22.7446
36.6981 22.4487
36.8861 22.0674
37.0743 21.7423
37.2626 21.5634
37.451 21.2596
37.6395 21.1304
37.8281 20.7327
38.0168 20.4665
38.2056 20.1991
38.3945 20.0124
38.5837 19.7099
38.7728 19.4857
38.9621 19.1535
39.1514 18.9201
39.3409 18.7265
39.5304 18.4339
39.7201 18.3516
39.9099 18.1133
40.0999 17.8032
40.2899 17.6552
40.48 17.3176
40.6703 17.1342
40.8607 16.9247
41.0512 16.7317
41.242 16.4425
41.4327 16.2988
41.6236 16.0628
41.8146 15.8554
42.0057 15.6358
42.1969 15.4208
42.3882 15.2224
42.5797 15.0407
42.7713 14.8176
42.963 14.6251
43.1549 14.3945
43.3468 14.1492
43.5389 13.9994
43.7312 13.7881
43.9237 13.6537
44.1162 13.4389
44.3088 13.2662
44.5016 13.0644
44.6945 12.8826
44.8875 12.7267
45.0806 12.4824
45.2739 12.3431
45.4673 12.2016
45.6609 11.9562
45.8546 11.8605
46.0484 11.6607
46.2424 11.505
46.4365 11.3367
46.631 11.1436
46.8254 10.9359
47.0199 10.8444
47.2146 10.6807
47.4095 10.5199
47.6044 10.3707
47.7996 10.2034
47.9948 10.079
48.1902 9.89802
48.3858 9.78003
48.5815 9.6056
48.7774 9.47159
48.9734 9.35346
49.1696 9.23795
49.3661 9.07921
49.5626 8.91671
49.7592 8.75105
49.956 8.67209
50.153 8.52492
50.3501 8.38049
50.5474 8.25542
50.7448 8.13957
50.9424 8.0364
51.1402 7.86048
51.3381 7.74124
51.5362 7.66074
51.7344 7.50238
51.9328 7.39188
52.1316 7.23459
52.3304 7.16179
52.5293 7.02053
52.7284 6.9264
52.9276 6.80997
53.1271 6.707
53.3267 6.59148
53.5265 6.4491
53.7264 6.39475
53.9266 6.22779
54.1269 6.11062
54.3274 5.99867
54.528 5.87325
54.7289 5.72783
54.9301 5.57812
55.1314 5.42589
55.3328 5.21007
55.5344 5.03054
55.7361 4.93466