File: XRD/Ni3Fe_FD0859.xy
TT I
1.27165 7.17099
1.45013 6.2451
1.62863 4.56698
1.80712 4.68935
1.98562 4.79455
2.16411 5.11445
2.34263 5.6862
2.52115 7.14886
2.69965 8.73364
2.87818 9.52725
3.05672 11.207
3.23527 14.8807
3.4138 18.927
3.59237 23.9742
3.77094 26.1206
3.9495 29.5512
4.12809 35.2143
4.30669 219.949
4.4853 65.9595
4.6639 54.3323
4.84253 66.0453
5.02118 85.1138
5.19981 296.008
5.37848 177.515
5.55716 100.43
5.73586 90.361
5.91455 91.1569
6.09328 4405.99
6.27201 81.4402
6.45075 66.4089
6.62952 62.4806
6.8083 58.2805
6.98711 55.2712
7.16591 54.3899
7.34475 91.4927
7.5236 54.1249
7.70247 55.5833
7.88135 56.8333
8.06026 61.479
8.23919 68.3546
8.41812 83.9711
8.59709 1137.37
8.77609 97.2283
8.9551 90.6472
9.13412 80.9605
9.31318 81.4675
9.49226 83.6571
9.67134 97.0423
9.85047 98.0938
10.0296 305.276
10.2088 397.054
10.388 102.662
10.5672 525.128
10.7465 85.3239
10.9257 77.3072
11.105 71.0374
11.2844 69.5133
11.4637 64.0053
11.6431 62.7608
11.8225 61.7177
12.002 62.3904
12.1814 153.622
12.3609 69.7107
12.5405 63.5533
12.72 69.1055
12.8996 69.7702
13.0792 77.3712
13.2589 232.572
13.4386 121.106
13.6183 247.798
13.7981 95.5684
13.9779 74.5972
14.1577 71.4217
14.3376 70.788
14.5175 67.827
14.6974 69.1538
14.8774 106.169
15.0574 147.703
15.2374 70.1351
15.4175 65.6891
15.5976 64.7047
15.7778 91.0568
15.958 153.355
16.1382 61.8332
16.3185 58.005
16.4988 54.8447
16.6792 53.6811
16.8596 54.315
17.04 54.8757
17.2205 65.4633
17.401 70.708
17.5815 58.1645
17.7622 60.2256
17.9428 71.2206
18.1237 137.964
18.3044 89.4429
18.4852 76.0902
18.666 59.5735
18.8469 57.1451
19.0278 56.2522
19.2088 58.4725
19.3898 76.0435
19.5709 53.5407
19.752 52.6772
19.9332 55.1205
20.1144 68.953
20.2957 63.6042
20.477 53.0648
20.6586 49.0742
20.84 48.1641
21.0215 47.8934
21.203 50.1329
21.3846 48.3428
21.5662 48.0634
21.7479 51.5465
21.9297 63.7359
22.1115 55.5511
22.2933 49.4435
22.4753 48.589
22.6572 48.0026
22.8393 51.1791
23.0214 56.6418
23.2037 48.1705
23.3859 48.9866
23.5682 56.541
23.7505 47.7003
23.9329 44.7499
24.1154 43.6194
24.2979 42.8218
24.4805 42.3869
24.6631 42.3018
24.8458 41.6918
25.0286 42.2248
25.2114 44.0456
25.3943 44.1604
25.5773 40.3638
25.7605 39.9175
25.9436 40.2744
26.1268 41.1136
26.31 39.5738
26.4933 40.2678
26.6767 41.5691
26.8601 39.843
27.0437 38.294
27.2272 37.9734
27.4109 37.8728
27.5946 37.8895
27.7784 37.2418
27.9623 37.9595
28.1462 38.3622
28.3304 36.7715
28.5145 35.5072
28.6987 35.2612
28.8829 34.8949
29.0673 34.3162
29.2517 33.92
29.4361 33.769
29.6207 32.7058
29.8053 32.4133
29.99 32.1787
30.1748 31.9313
30.3597 31.7784
30.5447 31.754
30.7297 31.8724
30.915 31.1906
31.1002 30.7294
31.2855 30.5112
31.4708 30.4679
31.6563 29.9202
31.8418 29.764
32.0275 29.4408
32.2132 29.0555
32.399 28.5561
32.5848 28.1813
32.7708 27.812
32.9569 27.7045
33.143 27.5167
33.3293 27.0485
33.5158 26.727
33.7022 26.2593
33.8887 25.9941
34.0753 25.5967
34.262 25.3718
34.4488 25.0433
34.6357 24.6555
34.8227 24.3742
35.0098 24.1948
35.1969 23.8888
35.3842 23.6502
35.5716 23.3891
35.759 23.2865
35.9468 22.8559
36.1345 22.6823
36.3222 22.3994
36.5101 22.1591
36.6981 21.7676
36.8861 21.5785
37.0743 21.1618
37.2626 20.9883
37.451 20.728
37.6395 20.5857
37.8281 20.269
38.0168 19.9306
38.2056 19.6628
38.3945 19.4002
38.5837 19.2401
38.7728 18.9555
38.9621 18.6922
39.1514 18.4867
39.3409 18.2261
39.5304 18.0523
39.7201 17.8102
39.9099 17.6503
40.0999 17.3869
40.2899 17.136
40.48 16.8839
40.6703 16.7053
40.8607 16.5485
41.0512 16.334
41.242 16.0743
41.4327 15.9404
41.6236 15.6806
41.8146 15.4563
42.0057 15.232
42.1969 14.9977
42.3882 14.8403
42.5797 14.6786
42.7713 14.4415
42.963 14.2614
43.1549 14.0581
43.3468 13.8704
43.5389 13.6577
43.7312 13.4614
43.9237 13.2848
44.1162 13.0953
44.3088 12.9255
44.5016 12.7335
44.6945 12.5992
44.8875 12.3863
45.0806 12.2559
45.2739 12.0942
45.4673 11.9177
45.6609 11.7469
45.8546 11.5774
46.0484 11.4164
46.2424 11.2396
46.4365 11.1008
46.631 10.9139
46.8254 10.7316
47.0199 10.6134
47.2146 10.4577
47.4095 10.2945
47.6044 10.1127
47.7996 9.96355
47.9948 9.82319
48.1902 9.68391
48.3858 9.52129
48.5815 9.43516
48.7774 9.27009
48.9734 9.15374
49.1696 9.02628
49.3661 8.82492
49.5626 8.69882
49.7592 8.62562
49.956 8.48925
50.153 8.34849
50.3501 8.2321
50.5474 8.05228
50.7448 7.97359
50.9424 7.8411
51.1402 7.67764
51.3381 7.60686
51.5362 7.47697
51.7344 7.3389
51.9328 7.23066
52.1316 7.09145
52.3304 7.03065
52.5293 6.87115
52.7284 6.76122
52.9276 6.62227
53.1271 6.57588
53.3267 6.41196
53.5265 6.27128
53.7264 6.20297
53.9266 6.11109
54.1269 5.98753
54.3274 5.84983
54.528 5.71773
54.7289 5.58496
54.9301 5.40303
55.1314 5.2555
55.3328 5.08847
55.5344 4.88163
55.7361 4.77915