File: XRD/Ni3Fe_FD0065.xy
TT I
1.27165 31.407
1.45013 25.1286
1.62863 21.1545
1.80712 19.8174
1.98562 19.5117
2.16411 19.2102
2.34263 19.4147
2.52115 20.0771
2.69965 24.7758
2.87818 35.319
3.05672 62.0043
3.23527 59.9481
3.4138 32.2861
3.59237 26.2511
3.77094 25.4261
3.9495 26.6434
4.12809 29.5809
4.30669 37.3725
4.4853 38.1965
4.6639 44.5067
4.84253 57.0506
5.02118 105.912
5.19981 359.817
5.37848 2601.63
5.55716 146.741
5.73586 104.315
5.91455 124.165
6.09328 655.363
6.27201 188.99
6.45075 63.9503
6.62952 48.8502
6.8083 43.1948
6.98711 42.2718
7.16591 42.9926
7.34475 40.4261
7.5236 69.7006
7.70247 44.0487
7.88135 40.1146
8.06026 42.7458
8.23919 48.6926
8.41812 63.0957
8.59709 212.38
8.77609 274.911
8.9551 74.4052
9.13412 67.9013
9.31318 272.842
9.49226 61.4381
9.67134 60.9427
9.85047 67.8909
10.0296 144.463
10.2088 713.248
10.388 93.3878
10.5672 106.164
10.7465 159.934
10.9257 53.136
11.105 47.0599
11.2844 44.5581
11.4637 42.2292
11.6431 41.3424
11.8225 41.8163
12.002 113.76
12.1814 53.0106
12.3609 75.9594
12.5405 43.1433
12.72 41.9046
12.8996 43.9199
13.0792 51.7997
13.2589 72.7877
13.4386 186.179
13.6183 79.6211
13.7981 167.029
13.9779 53.8501
14.1577 75.1067
14.3376 47.1556
14.5175 43.6296
14.6974 43.6128
14.8774 52.4383
15.0574 87.537
15.2374 54.0274
15.4175 43.0832
15.5976 42.3562
15.7778 48.7287
15.958 71.9315
16.1382 66.4429
16.3185 38.7999
16.4988 36.068
16.6792 35.072
16.8596 35.1534
17.04 39.9981
17.2205 36.9879
17.401 43.5489
17.5815 38.6236
17.7622 40.2825
17.9428 42.5808
18.1237 47.8718
18.3044 69.3548
18.4852 58.1851
18.666 44.9067
18.8469 37.6544
19.0278 36.4439
19.2088 36.9062
19.3898 47.2718
19.5709 41.9916
19.752 34.7125
19.9332 34.4337
20.1144 35.3358
20.2957 40.5803
20.477 39.6209
20.6586 32.9358
20.84 35.151
21.0215 31.0183
21.203 30.8644
21.3846 32.1143
21.5662 31.6641
21.7479 31.6676
21.9297 33.0936
22.1115 38.9136
22.2933 35.8436
22.4753 31.5927
22.6572 31.0544
22.8393 32.4531
23.0214 32.34
23.2037 35.0394
23.3859 32.01
23.5682 32.2512
23.7505 35.7914
23.9329 30.7409
24.1154 29.3391
24.2979 28.2539
24.4805 27.7557
24.6631 28.2507
24.8458 27.5093
25.0286 27.0855
25.2114 27.4177
25.3943 28.1915
25.5773 28.3096
25.7605 26.4473
25.9436 26.5179
26.1268 26.0389
26.31 26.6933
26.4933 25.8436
26.6767 25.9761
26.8601 27.1543
27.0437 26.7031
27.2272 25.2138
27.4109 24.9221
27.5946 25.0135
27.7784 25.0181
27.9623 24.5217
28.1462 24.8078
28.3304 24.8932
28.5145 24.0113
28.6987 23.4322
28.8829 23.0465
29.0673 22.7998
29.2517 22.3942
29.4361 22.1052
29.6207 21.9419
29.8053 21.567
29.99 21.3533
30.1748 21.3655
30.3597 21.0767
30.5447 21.004
30.7297 20.7902
30.915 20.9677
31.1002 20.8089
31.2855 20.3083
31.4708 20.1347
31.6563 20.1163
31.8418 19.9328
32.0275 19.7048
32.2132 19.6216
32.399 19.3172
32.5848 19.0063
32.7708 18.658
32.9569 18.6737
33.143 18.2788
33.3293 18.0694
33.5158 18.0748
33.7022 17.6769
33.8887 17.5169
34.0753 17.3331
34.262 17.0807
34.4488 16.8648
34.6357 16.6073
34.8227 16.4817
35.0098 16.3186
35.1969 16.0864
35.3842 15.9606
35.5716 15.7967
35.759 15.7728
35.9468 15.4171
36.1345 15.3529
36.3222 15.1745
36.5101 15.0239
36.6981 14.7283
36.8861 14.6259
37.0743 14.4642
37.2626 14.2137
37.451 14.0307
37.6395 13.9687
37.8281 13.7541
38.0168 13.6052
38.2056 13.4298
38.3945 13.2447
38.5837 13.0757
38.7728 12.9178
38.9621 12.8723
39.1514 12.6719
39.3409 12.4899
39.5304 12.3583
39.7201 12.2246
39.9099 12.0643
40.0999 11.945
40.2899 11.8009
40.48 11.6088
40.6703 11.4662
40.8607 11.3157
41.0512 11.2024
41.242 11.0347
41.4327 10.9533
41.6236 10.7773
41.8146 10.6646
42.0057 10.5156
42.1969 10.4043
42.3882 10.2671
42.5797 10.117
42.7713 9.96767
42.963 9.78233
43.1549 9.70492
43.3468 9.58044
43.5389 9.47996
43.7312 9.33754
43.9237 9.25775
44.1162 9.10697
44.3088 8.93349
44.5016 8.84022
44.6945 8.73449
44.8875 8.59182
45.0806 8.46785
45.2739 8.38481
45.4673 8.28257
45.6609 8.16314
45.8546 8.04613
46.0484 7.94797
46.2424 7.8617
46.4365 7.73831
46.631 7.59396
46.8254 7.49639
47.0199 7.38427
47.2146 7.34002
47.4095 7.2138
47.6044 7.0888
47.7996 6.96795
47.9948 6.86221
48.1902 6.78569
48.3858 6.71337
48.5815 6.5978
48.7774 6.50217
48.9734 6.4434
49.1696 6.35575
49.3661 6.21923
49.5626 6.12985
49.7592 6.05254
49.956 5.95026
50.153 5.88363
50.3501 5.80059
50.5474 5.73216
50.7448 5.64959
50.9424 5.56338
51.1402 5.46362
51.3381 5.37256
51.5362 5.3192
51.7344 5.24073
51.9328 5.12867
52.1316 5.05083
52.3304 4.98183
52.5293 4.91661
52.7284 4.8621
52.9276 4.72089
53.1271 4.67387
53.3267 4.59578
53.5265 4.51422
53.7264 4.47185
53.9266 4.3385
54.1269 4.29513
54.3274 4.16733
54.528 4.05614
54.7289 3.92064
54.9301 3.81894
55.1314 3.71007
55.3328 3.52667
55.5344 3.41903
55.7361 3.33054