File: XRD/Ni3Fe_FD0168.xy
TT I
1.27165 7.70168
1.45013 6.80487
1.62863 5.43121
1.80712 5.27871
1.98562 5.45053
2.16411 4.45251
2.34263 3.95449
2.52115 4.45665
2.69965 6.41412
2.87818 8.31431
3.05672 11.8146
3.23527 15.0276
3.4138 18.7157
3.59237 21.6837
3.77094 25.236
3.9495 28.4301
4.12809 33.1291
4.30669 37.9876
4.4853 44.7165
4.6639 53.5151
4.84253 65.8403
5.02118 90.5355
5.19981 531.67
5.37848 420.084
5.55716 107.521
5.73586 95.2906
5.91455 105.519
6.09328 2849.58
6.27201 89.0333
6.45075 66.8691
6.62952 60.2221
6.8083 56.049
6.98711 53.6162
7.16591 52.6205
7.34475 52.6031
7.5236 55.7287
7.70247 54.2949
7.88135 56.509
8.06026 60.6925
8.23919 68.1945
8.41812 83.9514
8.59709 907.948
8.77609 115.486
8.9551 85.5168
9.13412 81.8157
9.31318 85.762
9.49226 83.8258
9.67134 88.8587
9.85047 99.1407
10.0296 540.122
10.2088 961.752
10.388 104.73
10.5672 343.012
10.7465 90.7785
10.9257 76.2509
11.105 70.3672
11.2844 66.5149
11.4637 63.6811
11.6431 62.4211
11.8225 61.4546
12.002 65.1407
12.1814 120.177
12.3609 75.0428
12.5405 63.3694
12.72 65.6197
12.8996 70.1545
13.0792 79.6426
13.2589 208.264
13.4386 206.345
13.6183 196.883
13.7981 151.949
13.9779 76.4027
14.1577 74.5448
14.3376 69.4499
14.5175 68.7179
14.6974 69.92
14.8774 121.499
15.0574 206.023
15.2374 69.2789
15.4175 66.606
15.5976 65.9507
15.7778 107.598
15.958 186.123
16.1382 61.9923
16.3185 57.645
16.4988 55.2855
16.6792 54.4724
16.8596 54.5397
17.04 55.5751
17.2205 66.1287
17.401 81.137
17.5815 59.4288
17.7622 61.6387
17.9428 83.8286
18.1237 117.338
18.3044 89.0436
18.4852 94.6777
18.666 61.3053
18.8469 58.5774
19.0278 57.0744
19.2088 62.198
19.3898 69.8238
19.5709 56.3757
19.752 53.6596
19.9332 58.2504
20.1144 67.47
20.2957 61.8803
20.477 59.0688
20.6586 50.1762
20.84 49.383
21.0215 49.2738
21.203 50.0373
21.3846 50.8734
21.5662 49.2312
21.7479 54.3703
21.9297 62.9177
22.1115 56.7098
22.2933 52.4916
22.4753 49.236
22.6572 49.3948
22.8393 52.4791
23.0214 57.7173
23.2037 50.1326
23.3859 52.0043
23.5682 54.1798
23.7505 53.2932
23.9329 45.813
24.1154 44.6682
24.2979 44.0084
24.4805 43.2956
24.6631 43.444
24.8458 42.7147
25.0286 43.3485
25.2114 45.0649
25.3943 45.3003
25.5773 42.2047
25.7605 40.9055
25.9436 41.3382
26.1268 42.0408
26.31 41.1265
26.4933 41.2382
26.6767 42.3392
26.8601 41.4919
27.0437 39.6907
27.2272 39.0974
27.4109 38.9059
27.5946 39.0103
27.7784 38.7841
27.9623 38.815
28.1462 39.642
28.3304 38.2327
28.5145 36.6182
28.6987 36.2694
28.8829 35.8104
29.0673 35.5037
29.2517 34.8023
29.4361 34.5417
29.6207 33.8508
29.8053 33.2699
29.99 32.9258
30.1748 32.7465
30.3597 32.8739
30.5447 32.5751
30.7297 32.5251
30.915 32.1992
31.1002 31.6849
31.2855 31.266
31.4708 31.1772
31.6563 31.1077
31.8418 30.6033
32.0275 30.3789
32.2132 29.9514
32.399 29.4008
32.5848 28.9551
32.7708 28.5909
32.9569 28.4015
33.143 28.0993
33.3293 27.8514
33.5158 27.5024
33.7022 27.0101
33.8887 26.6506
34.0753 26.4163
34.262 25.9965
34.4488 25.7166
34.6357 25.3648
34.8227 25.0282
35.0098 24.8265
35.1969 24.5494
35.3842 24.2334
35.5716 24.1188
35.759 23.8785
35.9468 23.4369
36.1345 23.2348
36.3222 23.0183
36.5101 22.8548
36.6981 22.5105
36.8861 22.1302
37.0743 21.8372
37.2626 21.576
37.451 21.3549
37.6395 21.1125
37.8281 20.7783
38.0168 20.4955
38.2056 20.2889
38.3945 19.992
38.5837 19.763
38.7728 19.4592
38.9621 19.2384
39.1514 18.9947
39.3409 18.7205
39.5304 18.4838
39.7201 18.3445
39.9099 18.0871
40.0999 17.8388
40.2899 17.6076
40.48 17.3843
40.6703 17.1227
40.8607 17.0544
41.0512 16.6693
41.242 16.4849
41.4327 16.2722
41.6236 16.0742
41.8146 15.8877
42.0057 15.6261
42.1969 15.4229
42.3882 15.2131
42.5797 15.0513
42.7713 14.8131
42.963 14.6149
43.1549 14.4399
43.3468 14.2125
43.5389 14.0269
43.7312 13.815
43.9237 13.6326
44.1162 13.4424
44.3088 13.2539
44.5016 13.0649
44.6945 12.8832
44.8875 12.7251
45.0806 12.5323
45.2739 12.3228
45.4673 12.2058
45.6609 12.0011
45.8546 11.8592
46.0484 11.7127
46.2424 11.5134
46.4365 11.3419
46.631 11.1739
46.8254 10.9967
47.0199 10.8633
47.2146 10.6763
47.4095 10.5198
47.6044 10.3575
47.7996 10.195
47.9948 10.0579
48.1902 9.93359
48.3858 9.78263
48.5815 9.63407
48.7774 9.50975
48.9734 9.36825
49.1696 9.24866
49.3661 9.09491
49.5626 8.9209
49.7592 8.86615
49.956 8.70711
50.153 8.53835
50.3501 8.41953
50.5474 8.28915
50.7448 8.15283
50.9424 8.0377
51.1402 7.92829
51.3381 7.81274
51.5362 7.69828
51.7344 7.51777
51.9328 7.38781
52.1316 7.26022
52.3304 7.14658
52.5293 7.05262
52.7284 6.94819
52.9276 6.80036
53.1271 6.73971
53.3267 6.60047
53.5265 6.43725
53.7264 6.35252
53.9266 6.22212
54.1269 6.15053
54.3274 6.0668
54.528 5.84032
54.7289 5.63778
54.9301 5.48706
55.1314 5.31937
55.3328 5.10669
55.5344 4.92455
55.7361 4.84786