File: XRD/Ni3Fe_FD0618.xy
TT I
1.27165 7.29422
1.45013 6.01397
1.62863 5.60991
1.80712 4.53418
1.98562 4.98495
2.16411 5.23038
2.34263 5.45163
2.52115 6.92542
2.69965 7.87836
2.87818 8.44228
3.05672 11.2069
3.23527 15.1119
3.4138 18.7336
3.59237 23.8571
3.77094 26.2047
3.9495 30.0296
4.12809 34.5942
4.30669 207.013
4.4853 64.8306
4.6639 55.6202
4.84253 67.2387
5.02118 86.9187
5.19981 353.973
5.37848 195.898
5.55716 102.765
5.73586 92.6281
5.91455 94.583
6.09328 4341.49
6.27201 83.4682
6.45075 67.79
6.62952 62.8721
6.8083 58.8866
6.98711 55.6775
7.16591 55.589
7.34475 90.4887
7.5236 54.7487
7.70247 56.5534
7.88135 58.2152
8.06026 62.8157
8.23919 69.7271
8.41812 85.5789
8.59709 1190.35
8.77609 100.556
8.9551 91.4062
9.13412 82.3253
9.31318 83.0758
9.49226 84.8444
9.67134 98.3774
9.85047 100.358
10.0296 339.693
10.2088 424.532
10.388 105.178
10.5672 501.616
10.7465 87.2465
10.9257 78.8837
11.105 72.3107
11.2844 70.6735
11.4637 64.9248
11.6431 63.7584
11.8225 62.6836
12.002 63.7486
12.1814 153.851
12.3609 71.0084
12.5405 64.7316
12.72 70.3446
12.8996 71.1435
13.0792 78.6859
13.2589 238.025
13.4386 128.672
13.6183 249.707
13.7981 100.407
13.9779 76.1961
14.1577 72.7827
14.3376 72.0105
14.5175 69.195
14.6974 70.6442
14.8774 111.652
15.0574 153.387
15.2374 71.3104
15.4175 66.7233
15.5976 65.9988
15.7778 95.2213
15.958 156.146
16.1382 63.0461
16.3185 58.9866
16.4988 55.7349
16.6792 54.8782
16.8596 55.5595
17.04 56.0125
17.2205 66.9432
17.401 73.0358
17.5815 59.6355
17.7622 61.5503
17.9428 73.9067
18.1237 138.283
18.3044 91.2534
18.4852 79.0994
18.666 60.9909
18.8469 58.4476
19.0278 57.0684
19.2088 59.9705
19.3898 76.3492
19.5709 54.5929
19.752 53.3929
19.9332 56.6434
20.1144 69.6206
20.2957 64.1159
20.477 54.2393
20.6586 49.9489
20.84 49.1406
21.0215 48.7193
21.203 51.0211
21.3846 49.2113
21.5662 49.0972
21.7479 52.721
21.9297 64.4927
22.1115 56.2098
22.2933 50.284
22.4753 49.0287
22.6572 48.9615
22.8393 52.1003
23.0214 57.8107
23.2037 48.9831
23.3859 49.9402
23.5682 56.9466
23.7505 48.8555
23.9329 45.3659
24.1154 44.3155
24.2979 43.5175
24.4805 43.1862
24.6631 42.928
24.8458 42.5283
25.0286 43.0056
25.2114 44.7415
25.3943 44.8101
25.5773 41.0862
25.7605 40.6812
25.9436 40.9721
26.1268 41.9135
26.31 40.4128
26.4933 40.9686
26.6767 42.2549
26.8601 40.6783
27.0437 39.0842
27.2272 38.6315
27.4109 38.6915
27.5946 38.6396
27.7784 37.917
27.9623 38.6731
28.1462 38.9326
28.3304 37.4411
28.5145 36.1941
28.6987 35.7599
28.8829 35.6299
29.0673 34.8376
29.2517 34.4927
29.4361 34.2991
29.6207 33.361
29.8053 32.9834
29.99 32.686
30.1748 32.524
30.3597 32.3812
30.5447 32.3271
30.7297 32.4214
30.915 31.8221
31.1002 31.263
31.2855 31.027
31.4708 30.9652
31.6563 30.5154
31.8418 30.3947
32.0275 30.1097
32.2132 29.4786
32.399 29.0269
32.5848 28.6347
32.7708 28.2342
32.9569 28.1055
33.143 28.0086
33.3293 27.573
33.5158 27.1516
33.7022 26.7975
33.8887 26.5044
34.0753 26.1052
34.262 25.7928
34.4488 25.3921
34.6357 25.1946
34.8227 24.8932
35.0098 24.6515
35.1969 24.3738
35.3842 24.0892
35.5716 23.8912
35.759 23.5336
35.9468 23.179
36.1345 23.0369
36.3222 22.8044
36.5101 22.5279
36.6981 22.2321
36.8861 21.9089
37.0743 21.6349
37.2626 21.3941
37.451 21.1087
37.6395 20.9989
37.8281 20.592
38.0168 20.3387
38.2056 20.0665
38.3945 19.7771
38.5837 19.5396
38.7728 19.3394
38.9621 19.0826
39.1514 18.8135
39.3409 18.5694
39.5304 18.3857
39.7201 18.2484
39.9099 17.8824
40.0999 17.7266
40.2899 17.4579
40.48 17.2128
40.6703 17.0464
40.8607 16.8113
41.0512 16.6661
41.242 16.3791
41.4327 16.1146
41.6236 15.9528
41.8146 15.7278
42.0057 15.4891
42.1969 15.2757
42.3882 15.1024
42.5797 14.9404
42.7713 14.7103
42.963 14.4677
43.1549 14.3225
43.3468 14.0774
43.5389 13.9206
43.7312 13.6828
43.9237 13.5533
44.1162 13.314
44.3088 13.1566
44.5016 12.9456
44.6945 12.7972
44.8875 12.5985
45.0806 12.4296
45.2739 12.3057
45.4673 12.1265
45.6609 11.9438
45.8546 11.7616
46.0484 11.6154
46.2424 11.4202
46.4365 11.2563
46.631 11.0936
46.8254 10.8977
47.0199 10.7769
47.2146 10.6748
47.4095 10.4194
47.6044 10.2804
47.7996 10.1702
47.9948 10.011
48.1902 9.83301
48.3858 9.723
48.5815 9.61287
48.7774 9.45787
48.9734 9.27951
49.1696 9.17986
49.3661 9.00597
49.5626 8.85609
49.7592 8.74143
49.956 8.62986
50.153 8.47919
50.3501 8.35068
50.5474 8.22096
50.7448 8.11105
50.9424 7.94128
51.1402 7.88044
51.3381 7.69015
51.5362 7.61129
51.7344 7.45375
51.9328 7.35574
52.1316 7.24011
52.3304 7.10953
52.5293 6.94757
52.7284 6.91504
52.9276 6.75958
53.1271 6.6555
53.3267 6.51661
53.5265 6.38632
53.7264 6.29626
53.9266 6.17674
54.1269 6.07592
54.3274 5.99947
54.528 5.83374
54.7289 5.65346
54.9301 5.54076
55.1314 5.43163
55.3328 5.16441
55.5344 4.95221
55.7361 4.81272