File: XRD/Ni3Fe_FD0766.xy
TT I
1.27165 7.09308
1.45013 5.81306
1.62863 5.4717
1.80712 5.3111
1.98562 4.7664
2.16411 4.6813
2.34263 5.27926
2.52115 6.6649
2.69965 8.11727
2.87818 8.92551
3.05672 11.3797
3.23527 14.9729
3.4138 18.9986
3.59237 24.7224
3.77094 26.3645
3.9495 29.7575
4.12809 34.8199
4.30669 274.826
4.4853 71.6466
4.6639 54.8556
4.84253 66.0935
5.02118 84.9439
5.19981 300.669
5.37848 189.255
5.55716 100.265
5.73586 90.7542
5.91455 91.7096
6.09328 4217.74
6.27201 82.8471
6.45075 66.9034
6.62952 62.6252
6.8083 58.6496
6.98711 55.8461
7.16591 55.4728
7.34475 104.003
7.5236 54.8665
7.70247 55.995
7.88135 57.2018
8.06026 61.9005
8.23919 68.9378
8.41812 84.4708
8.59709 1085.97
8.77609 98.9216
8.9551 92.5609
9.13412 81.3902
9.31318 81.4285
9.49226 83.8218
9.67134 100.056
9.85047 98.4928
10.0296 298.106
10.2088 409.923
10.388 103.851
10.5672 511.165
10.7465 85.6084
10.9257 78.0313
11.105 71.2718
11.2844 70.8844
11.4637 64.5481
11.6431 63.3569
11.8225 62.087
12.002 62.8869
12.1814 145.238
12.3609 71.7215
12.5405 63.9275
12.72 70.7123
12.8996 70.2659
13.0792 77.9825
13.2589 223.272
13.4386 128.647
13.6183 234.345
13.7981 98.8372
13.9779 74.8822
14.1577 71.8976
14.3376 71.5985
14.5175 68.2829
14.6974 69.5216
14.8774 104.864
15.0574 153.068
15.2374 71.1772
15.4175 65.7776
15.5976 64.9911
15.7778 90.3414
15.958 159.633
16.1382 62.8722
16.3185 58.5353
16.4988 55.2548
16.6792 54.0531
16.8596 55.0008
17.04 55.3973
17.2205 65.5037
17.401 71.3489
17.5815 58.6167
17.7622 60.6771
17.9428 71.4778
18.1237 139.585
18.3044 88.8715
18.4852 78.3378
18.666 60.0362
18.8469 57.7074
19.0278 56.5106
19.2088 58.9649
19.3898 76.9633
19.5709 53.8512
19.752 52.9006
19.9332 55.4343
20.1144 69.3584
20.2957 63.0012
20.477 53.5703
20.6586 49.2985
20.84 48.5196
21.0215 48.0582
21.203 50.5806
21.3846 48.6877
21.5662 48.2154
21.7479 51.6974
21.9297 64.3847
22.1115 55.6551
22.2933 49.7762
22.4753 48.7187
22.6572 48.4545
22.8393 51.1761
23.0214 57.3642
23.2037 48.4431
23.3859 49.125
23.5682 56.5545
23.7505 48.2621
23.9329 44.9308
24.1154 43.8379
24.2979 43.192
24.4805 42.7685
24.6631 42.6279
24.8458 41.9459
25.0286 42.4255
25.2114 44.3107
25.3943 44.4697
25.5773 40.8092
25.7605 40.1855
25.9436 40.5819
26.1268 41.5169
26.31 39.9282
26.4933 40.5716
26.6767 41.9595
26.8601 40.2927
27.0437 38.6757
27.2272 38.2376
27.4109 37.9359
27.5946 38.1319
27.7784 37.4827
27.9623 38.0598
28.1462 38.6272
28.3304 36.9454
28.5145 35.7878
28.6987 35.4526
28.8829 35.2222
29.0673 34.5547
29.2517 34.2948
29.4361 34.013
29.6207 32.9457
29.8053 32.7041
29.99 32.3819
30.1748 32.2906
30.3597 32.0966
30.5447 32.0338
30.7297 31.9602
30.915 31.4677
31.1002 30.9795
31.2855 30.7489
31.4708 30.7454
31.6563 30.2139
31.8418 29.9338
32.0275 29.7572
32.2132 29.2842
32.399 28.819
32.5848 28.4134
32.7708 28.0108
32.9569 27.85
33.143 27.6521
33.3293 27.2734
33.5158 27.0122
33.7022 26.5156
33.8887 26.0794
34.0753 25.8534
34.262 25.5536
34.4488 25.1788
34.6357 24.835
34.8227 24.6044
35.0098 24.3691
35.1969 24.0652
35.3842 23.9291
35.5716 23.6213
35.759 23.2983
35.9468 22.9957
36.1345 22.8357
36.3222 22.5661
36.5101 22.2636
36.6981 22.0446
36.8861 21.648
37.0743 21.3985
37.2626 21.1608
37.451 20.8906
37.6395 20.7251
37.8281 20.4023
38.0168 20.1273
38.2056 19.8718
38.3945 19.5441
38.5837 19.3553
38.7728 19.1269
38.9621 18.8572
39.1514 18.5999
39.3409 18.3712
39.5304 18.127
39.7201 18.019
39.9099 17.7048
40.0999 17.5334
40.2899 17.2312
40.48 17.0501
40.6703 16.8419
40.8607 16.6818
41.0512 16.4629
41.242 16.1279
41.4327 15.9749
41.6236 15.7471
41.8146 15.547
42.0057 15.3864
42.1969 15.155
42.3882 14.9954
42.5797 14.7272
42.7713 14.5929
42.963 14.345
43.1549 14.1772
43.3468 13.9246
43.5389 13.7954
43.7312 13.6035
43.9237 13.4378
44.1162 13.2359
44.3088 13.0363
44.5016 12.8299
44.6945 12.6802
44.8875 12.4955
45.0806 12.3087
45.2739 12.1223
45.4673 11.9878
45.6609 11.8278
45.8546 11.6434
46.0484 11.4945
46.2424 11.3393
46.4365 11.1359
46.631 11.0296
46.8254 10.8082
47.0199 10.6783
47.2146 10.5046
47.4095 10.3442
47.6044 10.2335
47.7996 10.008
47.9948 9.88501
48.1902 9.75431
48.3858 9.62437
48.5815 9.51406
48.7774 9.36605
48.9734 9.18881
49.1696 9.08059
49.3661 8.91852
49.5626 8.76074
49.7592 8.68875
49.956 8.54177
50.153 8.41922
50.3501 8.27134
50.5474 8.1544
50.7448 8.04585
50.9424 7.90945
51.1402 7.78304
51.3381 7.64623
51.5362 7.53448
51.7344 7.3932
51.9328 7.269
52.1316 7.17238
52.3304 7.00532
52.5293 6.93907
52.7284 6.80373
52.9276 6.72378
53.1271 6.61201
53.3267 6.50319
53.5265 6.37264
53.7264 6.25678
53.9266 6.13817
54.1269 5.9839
54.3274 5.88277
54.528 5.82436
54.7289 5.64162
54.9301 5.43081
55.1314 5.33643
55.3328 5.12876
55.5344 4.98945
55.7361 4.77456