File: XRD/Ni3Fe_FD0820.xy
TT I
1.27165 7.12184
1.45013 6.14853
1.62863 5.43941
1.80712 4.69105
1.98562 4.69056
2.16411 4.94384
2.34263 5.07765
2.52115 7.43649
2.69965 8.52334
2.87818 8.8291
3.05672 11.0802
3.23527 14.9102
3.4138 19.1393
3.59237 23.2607
3.77094 25.462
3.9495 29.3036
4.12809 33.9072
4.30669 101.194
4.4853 52.7937
4.6639 55.1122
4.84253 68.5091
5.02118 86.5231
5.19981 400.98
5.37848 192.43
5.55716 101.586
5.73586 92.3351
5.91455 94.919
6.09328 4578.61
6.27201 79.4616
6.45075 69.6494
6.62952 62.4396
6.8083 59.2343
6.98711 55.3446
7.16591 55.9173
7.34475 66.2627
7.5236 53.8348
7.70247 56.7212
7.88135 57.3252
8.06026 62.5707
8.23919 68.7882
8.41812 83.0385
8.59709 1224.71
8.77609 96.5463
8.9551 88.7838
9.13412 82.4412
9.31318 84.4257
9.49226 84.42
9.67134 94.981
9.85047 101.099
10.0296 344.333
10.2088 349.002
10.388 104.792
10.5672 539.032
10.7465 85.4673
10.9257 77.3505
11.105 70.981
11.2844 67.7302
11.4637 64.2449
11.6431 62.711
11.8225 62.1997
12.002 63.8256
12.1814 160.81
12.3609 65.8889
12.5405 64.5673
12.72 67.177
12.8996 70.8629
13.0792 80.0953
13.2589 249.071
13.4386 117.561
13.6183 258.988
13.7981 93.3029
13.9779 75.2162
14.1577 71.3181
14.3376 69.5916
14.5175 68.2211
14.6974 70.271
14.8774 111.866
15.0574 140.142
15.2374 68.9731
15.4175 65.6762
15.5976 65.4539
15.7778 95.5532
15.958 146.714
16.1382 60.6523
16.3185 57.3553
16.4988 54.9729
16.6792 53.7
16.8596 54.2999
17.04 55.5363
17.2205 66.9462
17.401 68.5887
17.5815 58.6892
17.7622 60.8573
17.9428 73.2112
18.1237 141.724
18.3044 91.1572
18.4852 73.9574
18.666 59.6233
18.8469 57.5944
19.0278 56.1686
19.2088 58.7052
19.3898 75.6257
19.5709 53.4395
19.752 52.8743
19.9332 55.7345
20.1144 69.7007
20.2957 63.9942
20.477 52.4465
20.6586 49.0732
20.84 48.2483
21.0215 48.0309
21.203 50.4644
21.3846 48.2463
21.5662 48.5678
21.7479 52.3702
21.9297 64.0733
22.1115 55.7545
22.2933 49.0577
22.4753 48.2211
22.6572 48.4914
22.8393 51.8347
23.0214 56.3744
23.2037 48.2584
23.3859 49.4244
23.5682 56.9627
23.7505 47.2747
23.9329 44.728
24.1154 43.4111
24.2979 43.0755
24.4805 42.5359
24.6631 42.2557
24.8458 41.7959
25.0286 42.4932
25.2114 44.2643
25.3943 44.0821
25.5773 40.3882
25.7605 39.9561
25.9436 40.2909
26.1268 41.3648
26.31 39.6089
26.4933 40.407
26.6767 41.8944
26.8601 39.9252
27.0437 38.4724
27.2272 38.2044
27.4109 38.039
27.5946 37.9611
27.7784 37.5079
27.9623 38.1812
28.1462 38.3982
28.3304 36.6181
28.5145 35.5808
28.6987 35.2524
28.8829 35.0819
29.0673 34.2214
29.2517 34.0314
29.4361 33.7522
29.6207 32.7673
29.8053 32.5341
29.99 32.1082
30.1748 31.99
30.3597 31.8642
30.5447 31.7779
30.7297 31.9056
30.915 31.1762
31.1002 30.7897
31.2855 30.4958
31.4708 30.5275
31.6563 29.981
31.8418 29.9156
32.0275 29.6234
32.2132 28.9973
32.399 28.6428
32.5848 28.2732
32.7708 27.8226
32.9569 27.7533
33.143 27.6737
33.3293 27.1152
33.5158 26.6842
33.7022 26.227
33.8887 25.9894
34.0753 25.6239
34.262 25.4241
34.4488 25.0146
34.6357 24.7118
34.8227 24.4063
35.0098 24.3025
35.1969 23.9685
35.3842 23.6858
35.5716 23.5481
35.759 23.3093
35.9468 22.9117
36.1345 22.6955
36.3222 22.3902
36.5101 22.1593
36.6981 21.828
36.8861 21.609
37.0743 21.2663
37.2626 21.0621
37.451 20.764
37.6395 20.6227
37.8281 20.2649
38.0168 19.9148
38.2056 19.7713
38.3945 19.407
38.5837 19.165
38.7728 18.9742
38.9621 18.7583
39.1514 18.4659
39.3409 18.2735
39.5304 18.0057
39.7201 17.8557
39.9099 17.7024
40.0999 17.3962
40.2899 17.171
40.48 16.9387
40.6703 16.776
40.8607 16.5293
41.0512 16.3614
41.242 16.0848
41.4327 15.8846
41.6236 15.6292
41.8146 15.4881
42.0057 15.2989
42.1969 15.0446
42.3882 14.8406
42.5797 14.6888
42.7713 14.5055
42.963 14.2941
43.1549 14.0722
43.3468 13.8858
43.5389 13.6781
43.7312 13.5026
43.9237 13.3469
44.1162 13.0988
44.3088 12.9401
44.5016 12.751
44.6945 12.6045
44.8875 12.4045
45.0806 12.2352
45.2739 12.041
45.4673 11.9129
45.6609 11.6989
45.8546 11.5875
46.0484 11.3903
46.2424 11.2244
46.4365 11.0541
46.631 10.9306
46.8254 10.7434
47.0199 10.6335
47.2146 10.4727
47.4095 10.2798
47.6044 10.1307
47.7996 9.97024
47.9948 9.84099
48.1902 9.6361
48.3858 9.53865
48.5815 9.4321
48.7774 9.30537
48.9734 9.1563
49.1696 8.99974
49.3661 8.85054
49.5626 8.6901
49.7592 8.64167
49.956 8.47706
50.153 8.32198
50.3501 8.17095
50.5474 8.13568
50.7448 7.9749
50.9424 7.85378
51.1402 7.69729
51.3381 7.56883
51.5362 7.48609
51.7344 7.37419
51.9328 7.21384
52.1316 7.12116
52.3304 6.9453
52.5293 6.83808
52.7284 6.75489
52.9276 6.64294
53.1271 6.55821
53.3267 6.42672
53.5265 6.29727
53.7264 6.24375
53.9266 6.08594
54.1269 6.00356
54.3274 5.86277
54.528 5.72355
54.7289 5.57872
54.9301 5.42393
55.1314 5.24297
55.3328 5.07647
55.5344 4.93158
55.7361 4.74906