File: XRD/Ni3Fe_FD0284.xy
TT I
1.27165 7.22851
1.45013 6.21769
1.62863 5.26704
1.80712 5.35529
1.98562 5.18087
2.16411 4.6532
2.34263 4.85579
2.52115 5.83554
2.69965 7.00936
2.87818 8.56886
3.05672 11.4785
3.23527 15.8304
3.4138 19.2914
3.59237 24.7452
3.77094 26.949
3.9495 30.7047
4.12809 36.4645
4.30669 255.335
4.4853 70.0383
4.6639 57.3185
4.84253 69.9167
5.02118 91.82
5.19981 506.972
5.37848 262.014
5.55716 108.195
5.73586 96.7706
5.91455 101.352
6.09328 3680.87
6.27201 89.9498
6.45075 70.9077
6.62952 65.4551
6.8083 60.9338
6.98711 57.7891
7.16591 58.0393
7.34475 102.231
7.5236 56.5388
7.70247 58.5619
7.88135 60.1828
8.06026 64.432
8.23919 72.4238
8.41812 89.7514
8.59709 1036.05
8.77609 109.114
8.9551 96.5054
9.13412 85.4271
9.31318 86.318
9.49226 87.3911
9.67134 103.958
9.85047 104.589
10.0296 398.633
10.2088 607.732
10.388 110.667
10.5672 453.564
10.7465 91.4629
10.9257 81.638
11.105 74.7332
11.2844 73.9541
11.4637 67.5062
11.6431 66.4328
11.8225 65.2397
12.002 66.2221
12.1814 140.006
12.3609 76.5527
12.5405 67.0155
12.72 73.6043
12.8996 73.8478
13.0792 82.2419
13.2589 217.603
13.4386 152.298
13.6183 221.403
13.7981 113.339
13.9779 78.9009
14.1577 75.7428
14.3376 74.8395
14.5175 71.3682
14.6974 73.4975
14.8774 111.719
15.0574 175.556
15.2374 74.3639
15.4175 69.1218
15.5976 68.5279
15.7778 97.1538
15.958 176.814
16.1382 65.8832
16.3185 61.2989
16.4988 57.9332
16.6792 56.6749
16.8596 57.6067
17.04 58.2314
17.2205 67.5438
17.401 77.8185
17.5815 61.5862
17.7622 63.654
17.9428 78.1249
18.1237 137.329
18.3044 90.0135
18.4852 85.9377
18.666 62.8139
18.8469 60.5139
19.0278 59.4512
19.2088 62.2529
19.3898 77.9662
19.5709 56.7314
19.752 55.457
19.9332 58.489
20.1144 71.5375
20.2957 64.5602
20.477 57.4158
20.6586 51.7109
20.84 50.8327
21.0215 50.7961
21.203 52.3183
21.3846 51.1605
21.5662 50.8465
21.7479 54.4773
21.9297 66.4745
22.1115 57.7049
22.2933 52.5077
22.4753 51.0131
22.6572 50.7638
22.8393 53.3045
23.0214 59.9015
23.2037 50.8786
23.3859 51.9936
23.5682 57.7155
23.7505 51.2541
23.9329 47.0846
24.1154 45.8814
24.2979 45.2255
24.4805 44.6096
24.6631 44.6332
24.8458 43.8192
25.0286 44.477
25.2114 46.2697
25.3943 46.4486
25.5773 42.7038
25.7605 42.2085
25.9436 42.432
26.1268 43.4026
26.31 41.8461
26.4933 42.2095
26.6767 43.6073
26.8601 42.2028
27.0437 40.4852
27.2272 40.0855
27.4109 39.7346
27.5946 39.8518
27.7784 39.3787
27.9623 39.6051
28.1462 40.4625
28.3304 38.7175
28.5145 37.3998
28.6987 37.0539
28.8829 36.7753
29.0673 36.109
29.2517 35.7736
29.4361 35.4518
29.6207 34.4747
29.8053 34.2316
29.99 33.9678
30.1748 33.7457
30.3597 33.6265
30.5447 33.3988
30.7297 33.4363
30.915 32.9729
31.1002 32.3556
31.2855 32.0129
31.4708 32.0174
31.6563 31.5786
31.8418 31.2961
32.0275 31.1897
32.2132 30.6345
32.399 30.0157
32.5848 29.6352
32.7708 29.3046
32.9569 29.1085
33.143 28.9382
33.3293 28.533
33.5158 28.153
33.7022 27.5696
33.8887 27.395
34.0753 27.08
34.262 26.7131
34.4488 26.3436
34.6357 25.9539
34.8227 25.7296
35.0098 25.5269
35.1969 25.1522
35.3842 24.9046
35.5716 24.7667
35.759 24.4211
35.9468 23.9092
36.1345 23.7358
36.3222 23.5675
36.5101 23.3482
36.6981 22.9511
36.8861 22.6925
37.0743 22.3918
37.2626 22.1169
37.451 21.872
37.6395 21.6259
37.8281 21.291
38.0168 21.0099
38.2056 20.8186
38.3945 20.404
38.5837 20.1649
38.7728 19.9342
38.9621 19.7697
39.1514 19.4666
39.3409 19.2744
39.5304 19.0234
39.7201 18.7736
39.9099 18.5894
40.0999 18.3214
40.2899 18.0693
40.48 17.7949
40.6703 17.5826
40.8607 17.4453
41.0512 17.1939
41.242 16.8558
41.4327 16.7358
41.6236 16.4953
41.8146 16.3268
42.0057 16.0571
42.1969 15.8126
42.3882 15.6369
42.5797 15.3898
42.7713 15.2466
42.963 14.9872
43.1549 14.8224
43.3468 14.5352
43.5389 14.3794
43.7312 14.2047
43.9237 14.007
44.1162 13.7267
44.3088 13.6385
44.5016 13.4104
44.6945 13.2212
44.8875 13.0638
45.0806 12.8492
45.2739 12.6867
45.4673 12.5722
45.6609 12.3306
45.8546 12.1601
46.0484 11.9899
46.2424 11.7837
46.4365 11.6126
46.631 11.4754
46.8254 11.2832
47.0199 11.1219
47.2146 10.9977
47.4095 10.8113
47.6044 10.6294
47.7996 10.49
47.9948 10.3459
48.1902 10.2011
48.3858 10.0589
48.5815 9.91125
48.7774 9.78423
48.9734 9.62315
49.1696 9.4521
49.3661 9.31936
49.5626 9.20186
49.7592 9.03421
49.956 8.90194
50.153 8.79296
50.3501 8.64025
50.5474 8.47963
50.7448 8.36781
50.9424 8.19404
51.1402 8.09733
51.3381 7.99224
51.5362 7.8494
51.7344 7.70036
51.9328 7.58035
52.1316 7.44067
52.3304 7.32827
52.5293 7.22668
52.7284 7.08971
52.9276 6.95569
53.1271 6.84972
53.3267 6.73789
53.5265 6.65996
53.7264 6.53111
53.9266 6.40853
54.1269 6.29618
54.3274 6.16878
54.528 6.03051
54.7289 5.84008
54.9301 5.6748
55.1314 5.56676
55.3328 5.33001
55.5344 5.18354
55.7361 5.03361