File: XRD/Ni3Fe_FD0468.xy
TT I
1.27165 7.23233
1.45013 5.80163
1.62863 5.40583
1.80712 5.04696
1.98562 4.61194
2.16411 5.06911
2.34263 4.79685
2.52115 6.62632
2.69965 8.05402
2.87818 8.0091
3.05672 11.4236
3.23527 14.8737
3.4138 18.9848
3.59237 23.1436
3.77094 26.0213
3.9495 29.9746
4.12809 34.6974
4.30669 122.76
4.4853 56.5511
4.6639 56.698
4.84253 69.3274
5.02118 91.0381
5.19981 534.215
5.37848 205.329
5.55716 105.376
5.73586 95.0045
5.91455 99.7904
6.09328 4263.82
6.27201 83.6314
6.45075 68.9439
6.62952 63.3597
6.8083 59.3948
6.98711 56.4035
7.16591 56.3761
7.34475 72.5016
7.5236 55.3644
7.70247 57.0581
7.88135 58.8657
8.06026 63.7998
8.23919 71.2751
8.41812 87.237
8.59709 1235.5
8.77609 101.771
8.9551 90.7373
9.13412 84.3393
9.31318 85.371
9.49226 86.2708
9.67134 96.5546
9.85047 102.903
10.0296 412.494
10.2088 395.2
10.388 108.393
10.5672 504.231
10.7465 88.3476
10.9257 79.1382
11.105 72.9402
11.2844 70.3351
11.4637 66.0355
11.6431 64.4167
11.8225 63.8415
12.002 66.0161
12.1814 157.417
12.3609 68.7077
12.5405 65.618
12.72 69.6646
12.8996 72.5153
13.0792 82.4243
13.2589 252.779
13.4386 123.655
13.6183 255.078
13.7981 97.3801
13.9779 77.4406
14.1577 73.3581
14.3376 71.8285
14.5175 70.5263
14.6974 72.0347
14.8774 118.951
15.0574 145.692
15.2374 70.9498
15.4175 67.7466
15.5976 67.6905
15.7778 101.545
15.958 153.519
16.1382 62.9024
16.3185 59.0812
16.4988 56.592
16.6792 55.3679
16.8596 55.9587
17.04 57.5256
17.2205 68.8804
17.401 71.557
17.5815 60.4933
17.7622 62.8318
17.9428 77.4144
18.1237 139.831
18.3044 92.1256
18.4852 77.7457
18.666 61.5914
18.8469 59.1134
19.0278 57.8875
19.2088 60.9601
19.3898 76.5442
19.5709 54.9836
19.752 54.2274
19.9332 57.6685
20.1144 70.6114
20.2957 64.6408
20.477 54.1299
20.6586 50.5032
20.84 49.7564
21.0215 49.3965
21.203 51.6146
21.3846 49.8831
21.5662 50.1195
21.7479 54.2112
21.9297 65.4278
22.1115 56.5806
22.2933 50.7177
22.4753 49.5605
22.6572 50.1234
22.8393 53.1318
23.0214 57.7725
23.2037 49.7804
23.3859 51.0205
23.5682 57.4119
23.7505 48.9162
23.9329 45.9708
24.1154 44.8321
24.2979 44.1676
24.4805 43.5167
24.6631 43.5713
24.8458 42.8448
25.0286 43.7158
25.2114 45.3739
25.3943 45.1745
25.5773 41.6656
25.7605 41.227
25.9436 41.6049
26.1268 42.3804
26.31 40.7619
26.4933 41.4589
26.6767 42.8773
26.8601 41.0013
27.0437 39.6358
27.2272 39.1191
27.4109 38.9359
27.5946 39.0051
27.7784 38.5968
27.9623 39.1281
28.1462 39.3508
28.3304 37.6141
28.5145 36.6013
28.6987 36.2774
28.8829 35.9504
29.0673 35.2656
29.2517 34.9142
29.4361 34.6726
29.6207 33.6689
29.8053 33.3751
29.99 33.1987
30.1748 32.8458
30.3597 32.7694
30.5447 32.6461
30.7297 32.8039
30.915 32.1173
31.1002 31.5914
31.2855 31.3961
31.4708 31.317
31.6563 30.8571
31.8418 30.6463
32.0275 30.4053
32.2132 29.8702
32.399 29.3531
32.5848 29.0619
32.7708 28.6024
32.9569 28.4861
33.143 28.1391
33.3293 27.833
33.5158 27.5095
33.7022 26.9903
33.8887 26.7274
34.0753 26.4485
34.262 26.0993
34.4488 25.7187
34.6357 25.3788
34.8227 25.1045
35.0098 24.8769
35.1969 24.6194
35.3842 24.379
35.5716 24.0969
35.759 23.8601
35.9468 23.4608
36.1345 23.2544
36.3222 22.9659
36.5101 22.7591
36.6981 22.4548
36.8861 22.1846
37.0743 21.8382
37.2626 21.5632
37.451 21.3419
37.6395 21.1361
37.8281 20.8232
38.0168 20.4926
38.2056 20.2215
38.3945 19.9711
38.5837 19.7589
38.7728 19.4389
38.9621 19.2574
39.1514 19.0227
39.3409 18.7289
39.5304 18.5117
39.7201 18.3458
39.9099 18.1322
40.0999 17.813
40.2899 17.5942
40.48 17.4352
40.6703 17.1399
40.8607 17.0168
41.0512 16.7989
41.242 16.5036
41.4327 16.3407
41.6236 16.0315
41.8146 15.8771
42.0057 15.6419
42.1969 15.4686
42.3882 15.2924
42.5797 15.0645
42.7713 14.8355
42.963 14.5871
43.1549 14.464
43.3468 14.2297
43.5389 14.0547
43.7312 13.7941
43.9237 13.7191
44.1162 13.4692
44.3088 13.3053
44.5016 13.104
44.6945 12.9516
44.8875 12.7948
45.0806 12.5608
45.2739 12.35
45.4673 12.1918
45.6609 12.0208
45.8546 11.8728
46.0484 11.6783
46.2424 11.528
46.4365 11.3694
46.631 11.216
46.8254 11.0164
47.0199 10.8777
47.2146 10.7033
47.4095 10.5361
47.6044 10.3554
47.7996 10.2195
47.9948 10.0437
48.1902 9.97579
48.3858 9.81066
48.5815 9.65893
48.7774 9.49667
48.9734 9.38609
49.1696 9.24644
49.3661 9.09464
49.5626 8.92981
49.7592 8.84633
49.956 8.74294
50.153 8.5294
50.3501 8.43937
50.5474 8.30965
50.7448 8.19751
50.9424 8.05009
51.1402 7.90565
51.3381 7.76626
51.5362 7.64881
51.7344 7.55599
51.9328 7.43432
52.1316 7.25014
52.3304 7.17455
52.5293 7.04033
52.7284 6.91938
52.9276 6.81774
53.1271 6.72489
53.3267 6.59776
53.5265 6.4612
53.7264 6.37352
53.9266 6.24477
54.1269 6.1479
54.3274 6.02468
54.528 5.9023
54.7289 5.6987
54.9301 5.51381
55.1314 5.4438
55.3328 5.17938
55.5344 5.09505
55.7361 4.87911