File: XRD/Ni3Fe_FD0874.xy
TT I
1.27165 6.97228
1.45013 6.64532
1.62863 5.53023
1.80712 4.55502
1.98562 5.05168
2.16411 5.09796
2.34263 5.27051
2.52115 7.38067
2.69965 8.30338
2.87818 8.50861
3.05672 11.1806
3.23527 15.2284
3.4138 19.0397
3.59237 24.2381
3.77094 26.304
3.9495 29.7227
4.12809 34.3404
4.30669 252.407
4.4853 68.7637
4.6639 54.7685
4.84253 65.9745
5.02118 85.0052
5.19981 287.397
5.37848 179.671
5.55716 100.099
5.73586 89.9667
5.91455 90.7189
6.09328 4356.09
6.27201 81.7495
6.45075 66.1284
6.62952 62.1411
6.8083 58.1661
6.98711 55.4173
7.16591 54.9498
7.34475 98.1243
7.5236 54.1902
7.70247 55.2407
7.88135 56.9828
8.06026 61.1626
8.23919 68.6145
8.41812 83.5301
8.59709 1101.55
8.77609 97.278
8.9551 91.6766
9.13412 80.5265
9.31318 81.0339
9.49226 82.8361
9.67134 98.4961
9.85047 98.0962
10.0296 294.794
10.2088 409.82
10.388 102.666
10.5672 521.191
10.7465 85.204
10.9257 77.5434
11.105 70.9971
11.2844 70.1691
11.4637 63.9613
11.6431 62.7215
11.8225 61.4803
12.002 62.1929
12.1814 148.931
12.3609 70.6796
12.5405 63.3695
12.72 69.9707
12.8996 69.6577
13.0792 77.2462
13.2589 222.789
13.4386 123.997
13.6183 238.966
13.7981 96.2642
13.9779 74.4392
14.1577 71.3313
14.3376 70.7646
14.5175 67.6647
14.6974 69.0847
14.8774 104.837
15.0574 146.628
15.2374 70.3549
15.4175 65.254
15.5976 64.4426
15.7778 89.5689
15.958 156.408
16.1382 62.1888
16.3185 58.0565
16.4988 54.6495
16.6792 53.7515
16.8596 54.54
17.04 54.7288
17.2205 65.0619
17.401 69.9194
17.5815 58.1861
17.7622 60.3686
17.9428 70.5706
18.1237 138.646
18.3044 88.6491
18.4852 76.4524
18.666 59.3647
18.8469 56.9548
19.0278 55.9743
19.2088 58.43
19.3898 76.3121
19.5709 53.3687
19.752 52.461
19.9332 55.0076
20.1144 69.2434
20.2957 63.251
20.477 53.1669
20.6586 48.8025
20.84 48.1583
21.0215 47.9347
21.203 50.1006
21.3846 48.2705
21.5662 47.8844
21.7479 51.2791
21.9297 63.8168
22.1115 55.4541
22.2933 49.2618
22.4753 48.2666
22.6572 47.9892
22.8393 50.8658
23.0214 56.8169
23.2037 48.1065
23.3859 48.866
23.5682 56.4062
23.7505 47.8818
23.9329 44.6686
24.1154 43.3557
24.2979 42.7023
24.4805 42.42
24.6631 42.1022
24.8458 41.6603
25.0286 42.2509
25.2114 44.0331
25.3943 43.9636
25.5773 40.2371
25.7605 39.8923
25.9436 40.1492
26.1268 41.0676
26.31 39.6601
26.4933 40.0009
26.6767 41.551
26.8601 39.9354
27.0437 38.4577
27.2272 38.0154
27.4109 37.8181
27.5946 37.7739
27.7784 37.332
27.9623 37.7657
28.1462 38.3153
28.3304 36.6915
28.5145 35.3124
28.6987 35.027
28.8829 34.9089
29.0673 34.1955
29.2517 33.7934
29.4361 33.6601
29.6207 32.5778
29.8053 32.4624
29.99 32.1417
30.1748 32.0251
30.3597 31.8158
30.5447 31.7194
30.7297 31.7699
30.915 31.2558
31.1002 30.6354
31.2855 30.4012
31.4708 30.4332
31.6563 29.9712
31.8418 29.7538
32.0275 29.5524
32.2132 29.0001
32.399 28.587
32.5848 28.2053
32.7708 27.7575
32.9569 27.654
33.143 27.389
33.3293 27.1217
33.5158 26.73
33.7022 26.2311
33.8887 25.9989
34.0753 25.7486
34.262 25.2912
34.4488 25.0166
34.6357 24.6219
34.8227 24.4111
35.0098 24.1236
35.1969 23.9182
35.3842 23.6507
35.5716 23.4834
35.759 23.1796
35.9468 22.7836
36.1345 22.571
36.3222 22.3901
36.5101 22.1374
36.6981 21.8394
36.8861 21.4644
37.0743 21.1617
37.2626 20.8868
37.451 20.7251
37.6395 20.6212
37.8281 20.208
38.0168 19.9605
38.2056 19.6951
38.3945 19.4114
38.5837 19.2254
38.7728 18.9905
38.9621 18.704
39.1514 18.4802
39.3409 18.2045
39.5304 17.988
39.7201 17.7783
39.9099 17.5355
40.0999 17.351
40.2899 17.1833
40.48 16.9114
40.6703 16.6997
40.8607 16.4842
41.0512 16.2601
41.242 16.0482
41.4327 15.871
41.6236 15.6203
41.8146 15.4314
42.0057 15.2167
42.1969 15.0537
42.3882 14.8347
42.5797 14.692
42.7713 14.4226
42.963 14.2441
43.1549 14.0774
43.3468 13.8677
43.5389 13.6109
43.7312 13.4293
43.9237 13.2855
44.1162 13.0445
44.3088 12.9218
44.5016 12.7492
44.6945 12.5973
44.8875 12.4034
45.0806 12.2334
45.2739 12.0321
45.4673 11.893
45.6609 11.667
45.8546 11.5818
46.0484 11.3918
46.2424 11.2339
46.4365 11.092
46.631 10.8869
46.8254 10.7364
47.0199 10.5802
47.2146 10.4437
47.4095 10.243
47.6044 10.126
47.7996 9.93155
47.9948 9.80437
48.1902 9.68975
48.3858 9.48297
48.5815 9.42444
48.7774 9.25877
48.9734 9.1592
49.1696 8.98363
49.3661 8.85571
49.5626 8.72891
49.7592 8.59606
49.956 8.46936
50.153 8.32456
50.3501 8.19825
50.5474 8.07616
50.7448 7.96999
50.9424 7.8329
51.1402 7.75044
51.3381 7.57996
51.5362 7.45812
51.7344 7.35299
51.9328 7.22351
52.1316 7.08426
52.3304 6.97688
52.5293 6.89128
52.7284 6.73917
52.9276 6.61155
53.1271 6.53985
53.3267 6.42916
53.5265 6.29137
53.7264 6.22276
53.9266 6.09369
54.1269 5.97318
54.3274 5.83108
54.528 5.73301
54.7289 5.55895
54.9301 5.39967
55.1314 5.29773
55.3328 5.0453
55.5344 4.88127
55.7361 4.74192