File: XRD/Ni3Fe_FD0347.xy
TT I
1.27165 7.41001
1.45013 6.60485
1.62863 5.8954
1.80712 5.37476
1.98562 4.71931
2.16411 4.50648
2.34263 4.61353
2.52115 5.55628
2.69965 7.31797
2.87818 8.41411
3.05672 11.2982
3.23527 14.8214
3.4138 19.0261
3.59237 23.5471
3.77094 25.9577
3.9495 29.938
4.12809 35.1053
4.30669 135.938
4.4853 57.9036
4.6639 56.9366
4.84253 69.6458
5.02118 91.7191
5.19981 597.242
5.37848 225.041
5.55716 106.581
5.73586 96.1163
5.91455 101.914
6.09328 4021.14
6.27201 85.4138
6.45075 69.4124
6.62952 63.5129
6.8083 60.0338
6.98711 57.082
7.16591 56.6719
7.34475 76.2073
7.5236 55.9351
7.70247 57.2742
7.88135 59.2016
8.06026 63.9962
8.23919 71.6888
8.41812 88.3238
8.59709 1184.51
8.77609 104.517
8.9551 91.3412
9.13412 84.5367
9.31318 85.7636
9.49226 87.6049
9.67134 98.1043
9.85047 103.905
10.0296 438.931
10.2088 473.242
10.388 109.898
10.5672 484.308
10.7465 89.348
10.9257 79.5976
11.105 73.6547
11.2844 70.9438
11.4637 66.6452
11.6431 65.179
11.8225 64.2835
12.002 66.2092
12.1814 150.489
12.3609 70.7591
12.5405 66.2749
12.72 70.3813
12.8996 73.1519
13.0792 82.9986
13.2589 246.311
13.4386 133.191
13.6183 244.363
13.7981 102.103
13.9779 78.0429
14.1577 74.0562
14.3376 72.796
14.5175 70.976
14.6974 72.8198
14.8774 119.773
15.0574 154.478
15.2374 72.2319
15.4175 68.4805
15.5976 68.0069
15.7778 102.875
15.958 163.847
16.1382 63.6264
16.3185 59.6753
16.4988 57.1407
16.6792 56.2262
16.8596 56.4544
17.04 57.9743
17.2205 69.0466
17.401 73.7599
17.5815 60.8635
17.7622 63.2986
17.9428 79.083
18.1237 140.238
18.3044 91.5409
18.4852 80.1499
18.666 62.373
18.8469 59.733
19.0278 58.62
19.2088 61.8139
19.3898 76.9466
19.5709 55.7167
19.752 55.0016
19.9332 58.4107
20.1144 71.4894
20.2957 64.4542
20.477 55.0038
20.6586 51.212
20.84 50.2547
21.0215 50.1646
21.203 51.8497
21.3846 50.4973
21.5662 50.6212
21.7479 54.6396
21.9297 66.4133
22.1115 57.2413
22.2933 51.3899
22.4753 50.1183
22.6572 50.6091
22.8393 53.8028
23.0214 58.9785
23.2037 50.3243
23.3859 51.5632
23.5682 57.6384
23.7505 49.7492
23.9329 46.4152
24.1154 45.2758
24.2979 44.7375
24.4805 44.17
24.6631 44.0419
24.8458 43.4554
25.0286 44.2031
25.2114 45.8186
25.3943 45.9541
25.5773 42.1578
25.7605 41.5806
25.9436 42.0249
26.1268 42.8162
26.31 41.3149
26.4933 41.9831
26.6767 43.4314
26.8601 41.6101
27.0437 40.0832
27.2272 39.7184
27.4109 39.5539
27.5946 39.5565
27.7784 39.0154
27.9623 39.4546
28.1462 39.8894
28.3304 38.1364
28.5145 36.9589
28.6987 36.6041
28.8829 36.4064
29.0673 35.6895
29.2517 35.2881
29.4361 35.1721
29.6207 34.138
29.8053 33.7516
29.99 33.6136
30.1748 33.2761
30.3597 33.203
30.5447 33.1743
30.7297 33.1677
30.915 32.5626
31.1002 32.0147
31.2855 31.803
31.4708 31.7052
31.6563 31.243
31.8418 31.023
32.0275 30.8365
32.2132 30.2164
32.399 29.7328
32.5848 29.3794
32.7708 28.945
32.9569 28.8186
33.143 28.5519
33.3293 28.1492
33.5158 27.7691
33.7022 27.433
33.8887 27.0967
34.0753 26.7649
34.262 26.3438
34.4488 26.0259
34.6357 25.6691
34.8227 25.4122
35.0098 25.1608
35.1969 24.7829
35.3842 24.6643
35.5716 24.4772
35.759 24.0981
35.9468 23.6971
36.1345 23.5039
36.3222 23.2856
36.5101 23.0478
36.6981 22.6925
36.8861 22.4463
37.0743 22.1188
37.2626 21.7178
37.451 21.5595
37.6395 21.4266
37.8281 21.0503
38.0168 20.8208
38.2056 20.5191
38.3945 20.1514
38.5837 20.0148
38.7728 19.6738
38.9621 19.448
39.1514 19.2568
39.3409 18.9716
39.5304 18.739
39.7201 18.57
39.9099 18.2897
40.0999 18.0476
40.2899 17.7429
40.48 17.5726
40.6703 17.3859
40.8607 17.1962
41.0512 16.9508
41.242 16.6821
41.4327 16.4993
41.6236 16.2687
41.8146 16.1249
42.0057 15.8562
42.1969 15.6204
42.3882 15.4803
42.5797 15.237
42.7713 15.0741
42.963 14.7923
43.1549 14.6539
43.3468 14.3641
43.5389 14.2012
43.7312 13.9943
43.9237 13.8687
44.1162 13.6684
44.3088 13.4538
44.5016 13.2752
44.6945 13.0518
44.8875 12.8517
45.0806 12.7254
45.2739 12.5113
45.4673 12.2903
45.6609 12.188
45.8546 11.9821
46.0484 11.8118
46.2424 11.6633
46.4365 11.5059
46.631 11.3109
46.8254 11.1448
47.0199 10.9932
47.2146 10.8353
47.4095 10.6454
47.6044 10.4867
47.7996 10.3239
47.9948 10.2056
48.1902 10.0927
48.3858 9.91552
48.5815 9.82815
48.7774 9.67401
48.9734 9.49522
49.1696 9.34317
49.3661 9.20365
49.5626 9.06408
49.7592 8.93232
49.956 8.79228
50.153 8.65118
50.3501 8.52134
50.5474 8.38931
50.7448 8.28958
50.9424 8.18218
51.1402 8.04336
51.3381 7.87224
51.5362 7.75979
51.7344 7.63036
51.9328 7.48076
52.1316 7.361
52.3304 7.28292
52.5293 7.16175
52.7284 7.01245
52.9276 6.89343
53.1271 6.8047
53.3267 6.65868
53.5265 6.488
53.7264 6.42793
53.9266 6.31967
54.1269 6.25309
54.3274 6.10592
54.528 5.9728
54.7289 5.79491
54.9301 5.58696
55.1314 5.51116
55.3328 5.25722
55.5344 5.11659
55.7361 5.01489