File: XRD/Ni3Fe_FD0541.xy
TT I
1.27165 7.40286
1.45013 6.85944
1.62863 5.15246
1.80712 5.38018
1.98562 5.04663
2.16411 4.69801
2.34263 4.848
2.52115 6.79534
2.69965 7.8334
2.87818 9.23361
3.05672 10.9427
3.23527 14.9076
3.4138 19.3141
3.59237 24.8805
3.77094 26.8583
3.9495 30.59
4.12809 35.6578
4.30669 298.79
4.4853 73.9889
4.6639 55.889
4.84253 67.2246
5.02118 87.0713
5.19981 368.775
5.37848 210.13
5.55716 103.564
5.73586 92.7927
5.91455 94.9913
6.09328 4064.56
6.27201 85.7321
6.45075 68.6305
6.62952 64.219
6.8083 59.9766
6.98711 56.6734
7.16591 56.3771
7.34475 108.952
7.5236 56.0389
7.70247 56.9684
7.88135 58.8377
8.06026 62.9866
8.23919 70.4266
8.41812 86.6105
8.59709 1081.23
8.77609 102.197
8.9551 95.3099
9.13412 82.2854
9.31318 83.2663
9.49226 85.2822
9.67134 102.956
9.85047 100.514
10.0296 327.605
10.2088 470.435
10.388 106.907
10.5672 493.995
10.7465 88.0715
10.9257 80.2554
11.105 72.9942
11.2844 72.554
11.4637 65.9704
11.6431 64.503
11.8225 63.2163
12.002 64.1734
12.1814 145.555
12.3609 74.244
12.5405 65.5416
12.72 72.4272
12.8996 71.6289
13.0792 79.2544
13.2589 223.002
13.4386 133.638
13.6183 230.092
13.7981 104.242
13.9779 76.3628
14.1577 73.9323
14.3376 73.3351
14.5175 69.3468
14.6974 71.2674
14.8774 107.721
15.0574 163.28
15.2374 72.9043
15.4175 67.1519
15.5976 66.4885
15.7778 93.3887
15.958 167.432
16.1382 64.8374
16.3185 59.92
16.4988 56.2312
16.6792 55.2792
16.8596 56.0595
17.04 56.2762
17.2205 66.3952
17.401 74.2581
17.5815 59.8414
17.7622 61.8652
17.9428 73.7768
18.1237 137.61
18.3044 89.4088
18.4852 81.5757
18.666 61.2015
18.8469 58.7302
19.0278 57.5816
19.2088 60.1752
19.3898 77.0507
19.5709 55.0731
19.752 53.899
19.9332 56.6114
20.1144 70.3761
20.2957 63.7037
20.477 55.0271
20.6586 50.2589
20.84 49.4495
21.0215 49.1295
21.203 51.3221
21.3846 49.9388
21.5662 49.3227
21.7479 52.81
21.9297 65.0745
22.1115 56.5371
22.2933 50.6237
22.4753 49.6561
22.6572 49.2371
22.8393 52.1851
23.0214 58.4797
23.2037 49.426
23.3859 50.2141
23.5682 56.8344
23.7505 49.2896
23.9329 45.6813
24.1154 44.6863
24.2979 44.0652
24.4805 43.3997
24.6631 43.4185
24.8458 42.7578
25.0286 43.2686
25.2114 45.0149
25.3943 45.2033
25.5773 41.4466
25.7605 40.9335
25.9436 41.2121
26.1268 42.1515
26.31 40.6158
26.4933 41.0822
26.6767 42.6921
26.8601 41.0072
27.0437 39.3408
27.2272 39.0288
27.4109 38.8005
27.5946 38.8735
27.7784 38.1468
27.9623 38.7771
28.1462 39.3912
28.3304 37.6824
28.5145 36.4486
28.6987 35.9988
28.8829 35.8672
29.0673 35.1823
29.2517 34.718
29.4361 34.5456
29.6207 33.5899
29.8053 33.2646
29.99 32.9813
30.1748 32.8516
30.3597 32.6778
30.5447 32.4941
30.7297 32.5078
30.915 31.9574
31.1002 31.4352
31.2855 31.1809
31.4708 31.2561
31.6563 30.7598
31.8418 30.4942
32.0275 30.2795
32.2132 29.7
32.399 29.2729
32.5848 28.8386
32.7708 28.4689
32.9569 28.2623
33.143 28.0708
33.3293 27.828
33.5158 27.3716
33.7022 27.0254
33.8887 26.6014
34.0753 26.353
34.262 25.9772
34.4488 25.5758
34.6357 25.2648
34.8227 24.9731
35.0098 24.8333
35.1969 24.4853
35.3842 24.2173
35.5716 24.0589
35.759 23.7881
35.9468 23.4661
36.1345 23.0961
36.3222 22.9414
36.5101 22.706
36.6981 22.3997
36.8861 22.174
37.0743 21.7498
37.2626 21.5744
37.451 21.2448
37.6395 21.0349
37.8281 20.7755
38.0168 20.4623
38.2056 20.272
38.3945 19.9364
38.5837 19.7198
38.7728 19.4495
38.9621 19.3026
39.1514 18.9499
39.3409 18.7371
39.5304 18.4732
39.7201 18.2034
39.9099 18.0651
40.0999 17.7966
40.2899 17.5334
40.48 17.3584
40.6703 17.118
40.8607 16.9426
41.0512 16.746
41.242 16.4786
41.4327 16.237
41.6236 16.0389
41.8146 15.9202
42.0057 15.6214
42.1969 15.4036
42.3882 15.2687
42.5797 15.0503
42.7713 14.8447
42.963 14.5916
43.1549 14.4088
43.3468 14.2422
43.5389 13.9918
43.7312 13.8143
43.9237 13.6077
44.1162 13.4461
44.3088 13.2298
44.5016 13.0784
44.6945 12.8898
44.8875 12.7624
45.0806 12.5013
45.2739 12.3508
45.4673 12.198
45.6609 12.0243
45.8546 11.8485
46.0484 11.6763
46.2424 11.5125
46.4365 11.3762
46.631 11.141
46.8254 11.0251
47.0199 10.8726
47.2146 10.6841
47.4095 10.5455
47.6044 10.3649
47.7996 10.2007
47.9948 10.035
48.1902 9.94107
48.3858 9.77996
48.5815 9.63795
48.7774 9.52239
48.9734 9.38367
49.1696 9.26977
49.3661 9.07485
49.5626 8.94526
49.7592 8.81382
49.956 8.66793
50.153 8.5472
50.3501 8.43804
50.5474 8.2987
50.7448 8.16002
50.9424 8.01092
51.1402 7.92595
51.3381 7.78487
51.5362 7.68664
51.7344 7.52303
51.9328 7.39456
52.1316 7.25376
52.3304 7.18735
52.5293 7.00218
52.7284 6.94105
52.9276 6.80867
53.1271 6.70279
53.3267 6.61113
53.5265 6.464
53.7264 6.35636
53.9266 6.24876
54.1269 6.14895
54.3274 6.03373
54.528 5.88424
54.7289 5.71694
54.9301 5.56721
55.1314 5.46795
55.3328 5.26798
55.5344 5.01194
55.7361 4.90882