File: XRD/Ni3Fe_FD0264.xy
TT I
1.27165 7.74943
1.45013 6.43015
1.62863 5.44608
1.80712 4.9068
1.98562 4.90191
2.16411 4.90583
2.34263 5.10616
2.52115 5.89189
2.69965 6.2945
2.87818 8.50282
3.05672 11.1558
3.23527 14.9215
3.4138 19.3386
3.59237 23.8204
3.77094 26.2298
3.9495 30.3147
4.12809 35.7263
4.30669 158.336
4.4853 60.8401
4.6639 57.7017
4.84253 70.4357
5.02118 93.1082
5.19981 549.615
5.37848 271.903
5.55716 110.09
5.73586 98.5842
5.91455 104.715
6.09328 3693.23
6.27201 90.0116
6.45075 71.0148
6.62952 64.9736
6.8083 60.8108
6.98711 57.9287
7.16591 57.3495
7.34475 82.18
7.5236 56.7416
7.70247 58.2062
7.88135 60.1669
8.06026 65.3437
8.23919 72.4188
8.41812 89.8089
8.59709 1106.62
8.77609 110.255
8.9551 94.4351
9.13412 86.2837
9.31318 87.2948
9.49226 88.5802
9.67134 100.207
9.85047 105.295
10.0296 448.892
10.2088 600.87
10.388 110.809
10.5672 451.4
10.7465 91.8438
10.9257 81.433
11.105 74.6469
11.2844 72.7188
11.4637 67.6468
11.6431 66.2304
11.8225 65.1593
12.002 66.7757
12.1814 143.912
12.3609 74.0791
12.5405 67.4891
12.72 72.1104
12.8996 74.3167
13.0792 83.1283
13.2589 231.363
13.4386 151.129
13.6183 231.386
13.7981 115.403
13.9779 79.3951
14.1577 75.5016
14.3376 74.0377
14.5175 71.8709
14.6974 73.6253
14.8774 117.618
15.0574 177.413
15.2374 73.4896
15.4175 69.5387
15.5976 68.997
15.7778 102.185
15.958 175.908
16.1382 65.2827
16.3185 60.8649
16.4988 57.9427
16.6792 56.8291
16.8596 57.3563
17.04 58.2034
17.2205 68.5224
17.401 77.6056
17.5815 61.7927
17.7622 63.8736
17.9428 80.4924
18.1237 135.596
18.3044 91.2514
18.4852 85.0639
18.666 63.1623
18.8469 60.6853
19.0278 59.482
19.2088 62.7217
19.3898 76.7428
19.5709 56.9057
19.752 55.5033
19.9332 59.2898
20.1144 71.5291
20.2957 64.8288
20.477 57.3353
20.6586 51.978
20.84 50.9616
21.0215 50.7071
21.203 52.5984
21.3846 51.5132
21.5662 51.1348
21.7479 55.1654
21.9297 66.2001
22.1115 57.8229
22.2933 52.6492
22.4753 51.1172
22.6572 51.2684
22.8393 53.7859
23.0214 59.6508
23.2037 51.1578
23.3859 52.2427
23.5682 57.555
23.7505 51.5692
23.9329 47.2658
24.1154 46.1717
24.2979 45.3808
24.4805 44.7585
24.6631 44.7807
24.8458 44.1487
25.0286 44.6802
25.2114 46.2967
25.3943 46.4811
25.5773 42.8112
25.7605 42.2289
25.9436 42.5064
26.1268 43.3195
26.31 42.0547
26.4933 42.52
26.6767 43.8144
26.8601 42.2391
27.0437 40.7176
27.2272 40.3245
27.4109 39.9522
27.5946 40.102
27.7784 39.4902
27.9623 39.907
28.1462 40.4542
28.3304 38.7946
28.5145 37.6036
28.6987 37.1721
28.8829 36.824
29.0673 36.22
29.2517 35.7389
29.4361 35.5538
29.6207 34.6125
29.8053 34.4072
29.99 34.039
30.1748 33.7761
30.3597 33.7055
30.5447 33.5973
30.7297 33.4604
30.915 33.1786
31.1002 32.4848
31.2855 32.1772
31.4708 32.0887
31.6563 31.7635
31.8418 31.4812
32.0275 31.2648
32.2132 30.7114
32.399 30.2607
32.5848 29.7441
32.7708 29.4041
32.9569 29.2208
33.143 28.971
33.3293 28.7014
33.5158 28.1947
33.7022 27.6867
33.8887 27.5648
34.0753 27.1447
34.262 26.8148
34.4488 26.501
34.6357 26.0594
34.8227 25.7891
35.0098 25.6117
35.1969 25.2928
35.3842 24.9897
35.5716 24.7876
35.759 24.4505
35.9468 24.0968
36.1345 23.9292
36.3222 23.6016
36.5101 23.4366
36.6981 23.0462
36.8861 22.7856
37.0743 22.4267
37.2626 22.2189
37.451 21.9573
37.6395 21.7246
37.8281 21.3772
38.0168 21.1052
38.2056 20.7395
38.3945 20.5915
38.5837 20.2914
38.7728 19.9915
38.9621 19.8262
39.1514 19.5422
39.3409 19.3017
39.5304 19.0446
39.7201 18.8486
39.9099 18.6055
40.0999 18.3786
40.2899 18.1352
40.48 17.8352
40.6703 17.6492
40.8607 17.4587
41.0512 17.254
41.242 16.9777
41.4327 16.7426
41.6236 16.5085
41.8146 16.3524
42.0057 16.0675
42.1969 15.8859
42.3882 15.7283
42.5797 15.4881
42.7713 15.2745
42.963 15.0429
43.1549 14.846
43.3468 14.601
43.5389 14.4539
43.7312 14.2005
43.9237 14.0146
44.1162 13.8269
44.3088 13.6492
44.5016 13.4888
44.6945 13.257
44.8875 13.0832
45.0806 12.8794
45.2739 12.7449
45.4673 12.5589
45.6609 12.3689
45.8546 12.193
46.0484 12.0121
46.2424 11.8034
46.4365 11.6463
46.631 11.4912
46.8254 11.3209
47.0199 11.1647
47.2146 10.9818
47.4095 10.83
47.6044 10.6642
47.7996 10.5137
47.9948 10.3565
48.1902 10.2237
48.3858 10.074
48.5815 9.92311
48.7774 9.77539
48.9734 9.64357
49.1696 9.50942
49.3661 9.34816
49.5626 9.14739
49.7592 9.0662
49.956 8.90723
50.153 8.77337
50.3501 8.63766
50.5474 8.52029
50.7448 8.40213
50.9424 8.26131
51.1402 8.14597
51.3381 7.99121
51.5362 7.91351
51.7344 7.71881
51.9328 7.60677
52.1316 7.51051
52.3304 7.39069
52.5293 7.20752
52.7284 7.14914
52.9276 7.03229
53.1271 6.88153
53.3267 6.79373
53.5265 6.64421
53.7264 6.55388
53.9266 6.4067
54.1269 6.32444
54.3274 6.21364
54.528 6.01784
54.7289 5.8433
54.9301 5.69379
55.1314 5.54548
55.3328 5.30794
55.5344 5.18922
55.7361 5.02115