File: XRD/Ni3Fe_FD0183.xy
TT I
1.27165 7.60695
1.45013 6.63246
1.62863 6.02025
1.80712 5.16
1.98562 4.88345
2.16411 4.77699
2.34263 4.47256
2.52115 4.84709
2.69965 5.61517
2.87818 8.08003
3.05672 11.153
3.23527 15.0462
3.4138 18.4047
3.59237 22.0127
3.77094 25.1387
3.9495 28.6146
4.12809 33.0947
4.30669 37.7842
4.4853 45.6728
4.6639 53.9998
4.84253 66.5304
5.02118 90.8225
5.19981 519.599
5.37848 408.011
5.55716 107.829
5.73586 95.8892
5.91455 104.901
6.09328 2902.41
6.27201 88.5804
6.45075 66.5017
6.62952 60.3535
6.8083 56.1416
6.98711 53.9915
7.16591 52.9805
7.34475 52.3483
7.5236 55.7837
7.70247 54.2651
7.88135 56.7017
8.06026 61.1492
8.23919 68.1756
8.41812 84.144
8.59709 926.072
8.77609 114.579
8.9551 85.9947
9.13412 81.8238
9.31318 85.7979
9.49226 84.6313
9.67134 89.3659
9.85047 99.5539
10.0296 534.915
10.2088 927.123
10.388 104.916
10.5672 346.881
10.7465 90.7839
10.9257 76.5208
11.105 70.6672
11.2844 66.7413
11.4637 64.127
11.6431 62.8539
11.8225 61.5556
12.002 65.2434
12.1814 122.153
12.3609 74.2278
12.5405 63.5687
12.72 65.7018
12.8996 70.6731
13.0792 79.6842
13.2589 210.54
13.4386 200.016
13.6183 199.926
13.7981 148.628
13.9779 76.8352
14.1577 74.3619
14.3376 69.6301
14.5175 69.0463
14.6974 70.306
14.8774 121.557
15.0574 204.001
15.2374 69.4554
15.4175 66.7247
15.5976 66.2271
15.7778 107.918
15.958 187.598
16.1382 62.0538
16.3185 57.916
16.4988 55.5939
16.6792 54.644
16.8596 54.8768
17.04 55.8668
17.2205 66.0665
17.401 81.9328
17.5815 59.5242
17.7622 61.821
17.9428 83.7901
18.1237 119.123
18.3044 89.3717
18.4852 94.5368
18.666 61.6096
18.8469 58.6043
19.0278 57.2173
19.2088 62.1747
19.3898 70.3123
19.5709 56.4097
19.752 53.7753
19.9332 58.6117
20.1144 68.4007
20.2957 61.8346
20.477 58.9923
20.6586 50.3768
20.84 49.4103
21.0215 49.3039
21.203 50.3011
21.3846 51.0204
21.5662 49.458
21.7479 54.3999
21.9297 63.3099
22.1115 56.9439
22.2933 52.7535
22.4753 49.2959
22.6572 49.6152
22.8393 52.8071
23.0214 58.1636
23.2037 50.265
23.3859 52.1566
23.5682 54.6281
23.7505 53.4632
23.9329 46.1173
24.1154 44.7028
24.2979 44.1195
24.4805 43.5364
24.6631 43.5988
24.8458 42.819
25.0286 43.4605
25.2114 45.1017
25.3943 45.5978
25.5773 42.1404
25.7605 41.1433
25.9436 41.3767
26.1268 42.2725
26.31 41.2113
26.4933 41.4009
26.6767 42.6177
26.8601 41.7934
27.0437 39.9833
27.2272 39.3823
27.4109 39.0384
27.5946 39.1325
27.7784 38.8694
27.9623 38.9212
28.1462 39.8555
28.3304 38.4781
28.5145 36.6718
28.6987 36.3563
28.8829 35.9396
29.0673 35.5286
29.2517 34.9504
29.4361 34.6701
29.6207 33.8493
29.8053 33.4697
29.99 33.1857
30.1748 32.8653
30.3597 32.9974
30.5447 32.8345
30.7297 32.5745
30.915 32.4157
31.1002 31.8048
31.2855 31.4701
31.4708 31.3589
31.6563 31.1174
31.8418 30.702
32.0275 30.6058
32.2132 29.9881
32.399 29.4741
32.5848 28.988
32.7708 28.6948
32.9569 28.562
33.143 28.2446
33.3293 27.9561
33.5158 27.5867
33.7022 27.1479
33.8887 26.7557
34.0753 26.6108
34.262 26.0529
34.4488 25.7752
34.6357 25.4575
34.8227 25.1748
35.0098 24.985
35.1969 24.6821
35.3842 24.3773
35.5716 24.212
35.759 23.969
35.9468 23.5644
36.1345 23.3131
36.3222 23.0871
36.5101 22.7853
36.6981 22.5272
36.8861 22.2306
37.0743 21.9596
37.2626 21.6082
37.451 21.3586
37.6395 21.3179
37.8281 20.9039
38.0168 20.6196
38.2056 20.2533
38.3945 20.0881
38.5837 19.867
38.7728 19.5417
38.9621 19.1865
39.1514 19.0102
39.3409 18.8148
39.5304 18.5435
39.7201 18.3744
39.9099 18.1366
40.0999 17.8576
40.2899 17.6659
40.48 17.4422
40.6703 17.2128
40.8607 17.0304
41.0512 16.7725
41.242 16.5717
41.4327 16.3513
41.6236 16.1616
41.8146 15.9362
42.0057 15.7102
42.1969 15.4978
42.3882 15.317
42.5797 15.0978
42.7713 14.8188
42.963 14.6637
43.1549 14.479
43.3468 14.2513
43.5389 14.1111
43.7312 13.8658
43.9237 13.6713
44.1162 13.4813
44.3088 13.3318
44.5016 13.1228
44.6945 12.9434
44.8875 12.7451
45.0806 12.5915
45.2739 12.4378
45.4673 12.2573
45.6609 12.0645
45.8546 11.9249
46.0484 11.7177
46.2424 11.5812
46.4365 11.3961
46.631 11.1944
46.8254 11.0296
47.0199 10.8948
47.2146 10.7051
47.4095 10.5617
47.6044 10.3971
47.7996 10.2442
47.9948 10.1062
48.1902 9.96047
48.3858 9.82514
48.5815 9.69208
48.7774 9.57025
48.9734 9.3994
49.1696 9.26564
49.3661 9.11843
49.5626 8.93158
49.7592 8.85413
49.956 8.74666
50.153 8.59032
50.3501 8.44024
50.5474 8.30816
50.7448 8.20692
50.9424 8.06737
51.1402 7.97696
51.3381 7.79417
51.5362 7.70504
51.7344 7.54502
51.9328 7.40525
52.1316 7.31878
52.3304 7.22313
52.5293 7.05347
52.7284 6.93858
52.9276 6.87744
53.1271 6.75266
53.3267 6.62696
53.5265 6.50648
53.7264 6.40027
53.9266 6.29159
54.1269 6.17094
54.3274 6.02914
54.528 5.85881
54.7289 5.69553
54.9301 5.59465
55.1314 5.37256
55.3328 5.11601
55.5344 4.97412
55.7361 4.84862