File: XRD/Ni3Fe_FD0457.xy
TT I
1.27165 7.17074
1.45013 6.01769
1.62863 5.41821
1.80712 4.85581
1.98562 4.6347
2.16411 4.36741
2.34263 4.65261
2.52115 6.21181
2.69965 7.61381
2.87818 8.73581
3.05672 10.9593
3.23527 15.2433
3.4138 19.3067
3.59237 23.564
3.77094 26.3462
3.9495 29.6221
4.12809 34.8866
4.30669 138.11
4.4853 58.102
4.6639 56.4251
4.84253 68.7967
5.02118 89.7685
5.19981 515.412
5.37848 204.709
5.55716 104.796
5.73586 94.5227
5.91455 98.9328
6.09328 4203.92
6.27201 83.7664
6.45075 68.4043
6.62952 63.0766
6.8083 59.068
6.98711 56.3411
7.16591 55.9594
7.34475 75.8178
7.5236 55.235
7.70247 56.7809
7.88135 58.7214
8.06026 63.0514
8.23919 70.6692
8.41812 86.5265
8.59709 1227.88
8.77609 101.944
8.9551 90.9471
9.13412 83.3738
9.31318 84.3739
9.49226 85.7524
9.67134 96.7855
9.85047 102.014
10.0296 409.121
10.2088 414.877
10.388 107.84
10.5672 491.281
10.7465 88.1866
10.9257 78.9612
11.105 72.8318
11.2844 70.3641
11.4637 65.8727
11.6431 64.4863
11.8225 63.4647
12.002 65.4815
12.1814 155.053
12.3609 69.6851
12.5405 65.3024
12.72 69.7135
12.8996 72.3529
13.0792 81.6204
13.2589 249.731
13.4386 124.995
13.6183 252.611
13.7981 97.8168
13.9779 76.8982
14.1577 73.3792
14.3376 71.9158
14.5175 70.2399
14.6974 71.699
14.8774 117.901
15.0574 148.952
15.2374 71.3587
15.4175 67.4842
15.5976 67.1052
15.7778 101.137
15.958 156.294
16.1382 62.7898
16.3185 58.9393
16.4988 56.4471
16.6792 55.2773
16.8596 56.1709
17.04 57.0958
17.2205 68.7637
17.401 71.9276
17.5815 60.257
17.7622 62.5074
17.9428 77.1378
18.1237 139.491
18.3044 91.7506
18.4852 78.076
18.666 61.434
18.8469 59.0405
19.0278 57.9079
19.2088 61.0392
19.3898 76.6673
19.5709 55.0097
19.752 54.2905
19.9332 57.6731
20.1144 70.6076
20.2957 64.3319
20.477 54.066
20.6586 50.5299
20.84 49.5172
21.0215 49.4305
21.203 51.5437
21.3846 49.7621
21.5662 49.7407
21.7479 54.1052
21.9297 65.3233
22.1115 56.4867
22.2933 50.744
22.4753 49.5379
22.6572 49.7795
22.8393 52.9235
23.0214 58.2755
23.2037 49.6551
23.3859 50.8355
23.5682 57.2856
23.7505 49.1219
23.9329 45.9456
24.1154 44.892
24.2979 44.1128
24.4805 43.4605
24.6631 43.4791
24.8458 42.9478
25.0286 43.591
25.2114 45.3455
25.3943 45.1452
25.5773 41.4864
25.7605 41.0947
25.9436 41.5872
26.1268 42.4039
26.31 40.7867
26.4933 41.5339
26.6767 42.8658
26.8601 41.0333
27.0437 39.4977
27.2272 39.1661
27.4109 39.0085
27.5946 39.057
27.7784 38.5194
27.9623 38.9412
28.1462 39.429
28.3304 37.7662
28.5145 36.3916
28.6987 36.3315
28.8829 35.9807
29.0673 35.1158
29.2517 34.8509
29.4361 34.8005
29.6207 33.6602
29.8053 33.392
29.99 33.0264
30.1748 33.0369
30.3597 32.8141
30.5447 32.7274
30.7297 32.7086
30.915 32.0529
31.1002 31.592
31.2855 31.3443
31.4708 31.2801
31.6563 30.8718
31.8418 30.7006
32.0275 30.3246
32.2132 29.8265
32.399 29.3358
32.5848 28.9355
32.7708 28.7639
32.9569 28.4198
33.143 28.258
33.3293 27.8266
33.5158 27.3529
33.7022 27.017
33.8887 26.7785
34.0753 26.3586
34.262 26.018
34.4488 25.7587
34.6357 25.3827
34.8227 25.1023
35.0098 24.8219
35.1969 24.6056
35.3842 24.3124
35.5716 24.0905
35.759 23.7884
35.9468 23.4997
36.1345 23.1945
36.3222 22.9728
36.5101 22.7709
36.6981 22.5165
36.8861 22.1003
37.0743 21.8347
37.2626 21.6114
37.451 21.3459
37.6395 21.1356
37.8281 20.8206
38.0168 20.5557
38.2056 20.2468
38.3945 19.9859
38.5837 19.7211
38.7728 19.4861
38.9621 19.1878
39.1514 18.9583
39.3409 18.7694
39.5304 18.5589
39.7201 18.3438
39.9099 18.132
40.0999 17.8147
40.2899 17.6212
40.48 17.3462
40.6703 17.1363
40.8607 17.0377
41.0512 16.7856
41.242 16.5039
41.4327 16.3142
41.6236 16.0321
41.8146 15.8678
42.0057 15.6713
42.1969 15.3887
42.3882 15.2758
42.5797 15.039
42.7713 14.8511
42.963 14.6242
43.1549 14.4409
43.3468 14.2043
43.5389 14.0121
43.7312 13.8266
43.9237 13.6288
44.1162 13.47
44.3088 13.2945
44.5016 13.0651
44.6945 12.9072
44.8875 12.69
45.0806 12.547
45.2739 12.3432
45.4673 12.2066
45.6609 12.0277
45.8546 11.8898
46.0484 11.672
46.2424 11.5063
46.4365 11.3758
46.631 11.1542
46.8254 11.0357
47.0199 10.8371
47.2146 10.7171
47.4095 10.5357
47.6044 10.3793
47.7996 10.2549
47.9948 10.0785
48.1902 9.93841
48.3858 9.81791
48.5815 9.68467
48.7774 9.50369
48.9734 9.36831
49.1696 9.22402
49.3661 9.08958
49.5626 8.98402
49.7592 8.85237
49.956 8.68202
50.153 8.56004
50.3501 8.42297
50.5474 8.27588
50.7448 8.17586
50.9424 8.03299
51.1402 7.92602
51.3381 7.7729
51.5362 7.66089
51.7344 7.51553
51.9328 7.3912
52.1316 7.25715
52.3304 7.17475
52.5293 7.03796
52.7284 6.93775
52.9276 6.81546
53.1271 6.70285
53.3267 6.58898
53.5265 6.48139
53.7264 6.39043
53.9266 6.22386
54.1269 6.15537
54.3274 6.0469
54.528 5.87233
54.7289 5.74275
54.9301 5.56473
55.1314 5.45498
55.3328 5.18957
55.5344 5.05593
55.7361 4.89783