File: XRD/Ni3Fe_FD0703.xy
TT I
1.27165 6.70257
1.45013 6.14766
1.62863 5.19362
1.80712 4.53473
1.98562 4.79319
2.16411 4.61551
2.34263 5.17641
2.52115 7.06288
2.69965 7.86251
2.87818 8.90624
3.05672 11.02
3.23527 14.8775
3.4138 18.5525
3.59237 23.0091
3.77094 25.4168
3.9495 29.4857
4.12809 33.9311
4.30669 109.623
4.4853 54.0629
4.6639 55.5162
4.84253 68.3871
5.02118 87.6901
5.19981 435.166
5.37848 195.75
5.55716 102.746
5.73586 93.3052
5.91455 96.5511
6.09328 4609.14
6.27201 80.5137
6.45075 69.1706
6.62952 62.9213
6.8083 59.2796
6.98711 55.4713
7.16591 55.7635
7.34475 68.7418
7.5236 54.3337
7.70247 56.6163
7.88135 57.6058
8.06026 62.7581
8.23919 69.4639
8.41812 84.328
8.59709 1246.36
8.77609 98.3916
8.9551 89.3974
9.13412 82.92
9.31318 84.4995
9.49226 85.1122
9.67134 95.8133
9.85047 101.481
10.0296 366.493
10.2088 356.234
10.388 105.927
10.5672 518.687
10.7465 86.1706
10.9257 77.9183
11.105 71.1507
11.2844 68.4949
11.4637 64.5517
11.6431 63.5671
11.8225 62.4658
12.002 64.5035
12.1814 155.904
12.3609 67.3318
12.5405 64.9268
12.72 68.2574
12.8996 71.5278
13.0792 80.4808
13.2589 249.994
13.4386 120.426
13.6183 259.06
13.7981 94.3187
13.9779 75.7536
14.1577 72.0531
14.3376 70.3826
14.5175 68.8125
14.6974 70.7731
14.8774 114.707
15.0574 139.645
15.2374 69.7303
15.4175 66.4691
15.5976 65.9824
15.7778 97.2533
15.958 148.906
16.1382 61.5299
16.3185 58.1245
16.4988 55.2116
16.6792 54.2272
16.8596 54.8607
17.04 56.2642
17.2205 67.5509
17.401 69.7306
17.5815 59.3294
17.7622 61.3168
17.9428 74.4707
18.1237 141.923
18.3044 91.6221
18.4852 74.9313
18.666 60.2607
18.8469 58.1279
19.0278 56.6532
19.2088 59.359
19.3898 75.9334
19.5709 54.0255
19.752 53.2933
19.9332 56.368
20.1144 69.7987
20.2957 64.2039
20.477 52.8519
20.6586 49.5806
20.84 48.7996
21.0215 48.6402
21.203 50.8047
21.3846 48.6887
21.5662 48.9933
21.7479 53.0417
21.9297 64.844
22.1115 55.941
22.2933 49.5818
22.4753 48.5825
22.6572 48.9339
22.8393 52.1131
23.0214 57.0187
23.2037 48.7665
23.3859 49.8814
23.5682 57.3494
23.7505 47.8137
23.9329 45.0233
24.1154 43.9854
24.2979 43.381
24.4805 42.72
24.6631 42.6804
24.8458 42.1803
25.0286 42.9013
25.2114 44.6365
25.3943 44.4761
25.5773 40.7856
25.7605 40.3765
25.9436 40.8271
26.1268 41.6022
26.31 40.0791
26.4933 40.7325
26.6767 42.092
26.8601 40.4782
27.0437 38.8316
27.2272 38.4709
27.4109 38.3982
27.5946 38.4238
27.7784 37.8554
27.9623 38.5672
28.1462 38.8132
28.3304 36.9474
28.5145 35.8543
28.6987 35.574
28.8829 35.3998
29.0673 34.4954
29.2517 34.2739
29.4361 34.0992
29.6207 33.0455
29.8053 32.7926
29.99 32.4843
30.1748 32.3698
30.3597 32.1701
30.5447 32.1813
30.7297 32.1745
30.915 31.5775
31.1002 31.1127
31.2855 30.855
31.4708 30.7471
31.6563 30.3323
31.8418 30.1092
32.0275 29.858
32.2132 29.3198
32.399 28.9009
32.5848 28.4503
32.7708 28.104
32.9569 27.9903
33.143 27.7707
33.3293 27.3243
33.5158 26.8787
33.7022 26.518
33.8887 26.2667
34.0753 25.9383
34.262 25.5939
34.4488 25.2387
34.6357 24.8453
34.8227 24.6549
35.0098 24.4107
35.1969 24.1314
35.3842 23.9141
35.5716 23.7851
35.759 23.3989
35.9468 23.0942
36.1345 22.892
36.3222 22.5897
36.5101 22.4323
36.6981 22.1529
36.8861 21.6976
37.0743 21.3839
37.2626 21.2105
37.451 20.9183
37.6395 20.7541
37.8281 20.4351
38.0168 20.1847
38.2056 19.9155
38.3945 19.6502
38.5837 19.4101
38.7728 19.2337
38.9621 18.9191
39.1514 18.6682
39.3409 18.436
39.5304 18.1861
39.7201 17.9654
39.9099 17.7798
40.0999 17.5531
40.2899 17.2786
40.48 17.102
40.6703 16.8519
40.8607 16.6757
41.0512 16.5117
41.242 16.2294
41.4327 15.9774
41.6236 15.8254
41.8146 15.5751
42.0057 15.4227
42.1969 15.2308
42.3882 14.9742
42.5797 14.7843
42.7713 14.61
42.963 14.4339
43.1549 14.1955
43.3468 13.9098
43.5389 13.7969
43.7312 13.564
43.9237 13.4172
44.1162 13.2014
44.3088 13.0435
44.5016 12.8492
44.6945 12.6959
44.8875 12.5617
45.0806 12.358
45.2739 12.1393
45.4673 12.0085
45.6609 11.8052
45.8546 11.723
46.0484 11.533
46.2424 11.3499
46.4365 11.1765
46.631 10.9851
46.8254 10.8275
47.0199 10.7066
47.2146 10.5382
47.4095 10.3546
47.6044 10.1883
47.7996 10.0628
47.9948 9.90059
48.1902 9.77271
48.3858 9.65286
48.5815 9.50052
48.7774 9.41547
48.9734 9.23265
49.1696 9.10981
49.3661 8.94281
49.5626 8.77581
49.7592 8.64466
49.956 8.55855
50.153 8.39275
50.3501 8.27314
50.5474 8.13554
50.7448 8.05953
50.9424 7.90745
51.1402 7.76805
51.3381 7.63881
51.5362 7.51799
51.7344 7.40495
51.9328 7.27847
52.1316 7.17004
52.3304 7.05053
52.5293 6.93297
52.7284 6.84478
52.9276 6.72528
53.1271 6.61306
53.3267 6.51387
53.5265 6.34145
53.7264 6.24547
53.9266 6.14552
54.1269 6.05303
54.3274 5.92827
54.528 5.79143
54.7289 5.64334
54.9301 5.45285
55.1314 5.32685
55.3328 5.13111
55.5344 4.92544
55.7361 4.78855