File: XRD/Ni3Fe_FD0020.xy
TT I
1.27165 34.4482
1.45013 30.4721
1.62863 26.652
1.80712 25.054
1.98562 24.3992
2.16411 25.6827
2.34263 25.4573
2.52115 25.0593
2.69965 29.2945
2.87818 38.6026
3.05672 65.6049
3.23527 77.5557
3.4138 42.4031
3.59237 38.4024
3.77094 39.8257
3.9495 40.5394
4.12809 52.0613
4.30669 81.9221
4.4853 62.2443
4.6639 48.2977
4.84253 54.0516
5.02118 87.2593
5.19981 264.524
5.37848 3883.34
5.55716 158.013
5.73586 100.214
5.91455 109.945
6.09328 442.465
6.27201 326.71
6.45075 72.6863
6.62952 55.1401
6.8083 53.0652
6.98711 45.9762
7.16591 48.5601
7.34475 69.5955
7.5236 59.2813
7.70247 47.3758
7.88135 38.2478
8.06026 39.2189
8.23919 44.4558
8.41812 55.8484
8.59709 152.983
8.77609 689.019
8.9551 78.1329
9.13412 58.7702
9.31318 249.83
9.49226 52.7756
9.67134 51.9289
9.85047 58.928
10.0296 95.7181
10.2088 459.276
10.388 136.22
10.5672 90.4992
10.7465 279.385
10.9257 49.0995
11.105 42.131
11.2844 40.8714
11.4637 38.2283
11.6431 37.3105
11.8225 36.7194
12.002 70.7973
12.1814 46.4219
12.3609 93.2118
12.5405 45.1647
12.72 40.2292
12.8996 39.5221
13.0792 42.1086
13.2589 62.9138
13.4386 140.638
13.6183 94.2708
13.7981 150.757
13.9779 63.7218
14.1577 47.0918
14.3376 48.4976
14.5175 37.5759
14.6974 37.6095
14.8774 42.2877
15.0574 58.5225
15.2374 97.2508
15.4175 41.1156
15.5976 37.9284
15.7778 40.4874
15.958 52.7487
16.1382 122.757
16.3185 39.7754
16.4988 33.544
16.6792 31.7139
16.8596 31.4645
17.04 39.3056
17.2205 33.2366
17.401 35.8336
17.5815 48.8943
17.7622 34.9955
17.9428 40.272
18.1237 42.8181
18.3044 87.3839
18.4852 56.8049
18.666 67.2828
18.8469 36.0338
19.0278 33.237
19.2088 33.2491
19.3898 39.0673
19.5709 46.2967
19.752 36.1269
19.9332 31.52
20.1144 32.249
20.2957 41.8283
20.477 39.1281
20.6586 39.9199
20.84 31.5991
21.0215 29.6395
21.203 28.4543
21.3846 28.7367
21.5662 32.3131
21.7479 29.2528
21.9297 30.8324
22.1115 39.9478
22.2933 43.3596
22.4753 36.1847
22.6572 29.7502
22.8393 30.2668
23.0214 30.9617
23.2037 38.2488
23.3859 34.3008
23.5682 34.2811
23.7505 33.8061
23.9329 42.9325
24.1154 29.3035
24.2979 27.2821
24.4805 26.304
24.6631 26.156
24.8458 27.756
25.0286 26.0498
25.2114 26.2113
25.3943 28.4268
25.5773 30.362
25.7605 29.171
25.9436 26.6603
26.1268 25.4501
26.31 26.3128
26.4933 28.007
26.6767 25.6932
26.8601 27.11
27.0437 30.8851
27.2272 27.1756
27.4109 24.5839
27.5946 24.5128
27.7784 24.7885
27.9623 25.1832
28.1462 25.5115
28.3304 26.8298
28.5145 27.4542
28.6987 25.1461
28.8829 23.0451
29.0673 22.3791
29.2517 23.2998
29.4361 21.9779
29.6207 21.859
29.8053 22.7868
29.99 21.2091
30.1748 21.3039
30.3597 20.9828
30.5447 21.3251
30.7297 21.1266
30.915 21.0763
31.1002 22.94
31.2855 21.8656
31.4708 20.5443
31.6563 20.5496
31.8418 21.3872
32.0275 20.5368
32.2132 20.4093
32.399 20.9206
32.5848 19.7489
32.7708 18.8947
32.9569 18.7825
33.143 18.885
33.3293 18.3713
33.5158 18.7717
33.7022 19.0379
33.8887 18.0186
34.0753 17.7115
34.262 17.6084
34.4488 17.2394
34.6357 16.9278
34.8227 16.9743
35.0098 16.5461
35.1969 16.3662
35.3842 16.3339
35.5716 16.197
35.759 16.4545
35.9468 16.7239
36.1345 16.1471
36.3222 15.6577
36.5101 15.5855
36.6981 15.5222
36.8861 15.1401
37.0743 15.2687
37.2626 14.8596
37.451 14.5273
37.6395 14.4349
37.8281 14.1932
38.0168 14.0838
38.2056 13.9273
38.3945 13.6589
38.5837 13.49
38.7728 13.4748
38.9621 13.2189
39.1514 13.2149
39.3409 12.8802
39.5304 12.6428
39.7201 12.5449
39.9099 12.4495
40.0999 12.2939
40.2899 12.2798
40.48 12.0041
40.6703 11.9301
40.8607 11.7753
41.0512 11.6256
41.242 11.6226
41.4327 11.4005
41.6236 11.2006
41.8146 11.0819
42.0057 10.9241
42.1969 10.9165
42.3882 10.6951
42.5797 10.5169
42.7713 10.3715
42.963 10.2498
43.1549 10.0958
43.3468 9.93435
43.5389 9.75528
43.7312 9.66459
43.9237 9.56314
44.1162 9.4726
44.3088 9.32434
44.5016 9.18485
44.6945 9.09076
44.8875 8.97351
45.0806 8.86717
45.2739 8.748
45.4673 8.60861
45.6609 8.46751
45.8546 8.39391
46.0484 8.29991
46.2424 8.14829
46.4365 8.06065
46.631 7.90676
46.8254 7.81086
47.0199 7.77179
47.2146 7.59384
47.4095 7.46984
47.6044 7.4048
47.7996 7.2973
47.9948 7.16712
48.1902 7.06401
48.3858 6.99239
48.5815 6.89102
48.7774 6.79271
48.9734 6.69402
49.1696 6.61218
49.3661 6.50967
49.5626 6.40775
49.7592 6.32133
49.956 6.24999
50.153 6.13725
50.3501 6.06664
50.5474 5.97732
50.7448 5.87972
50.9424 5.77682
51.1402 5.71394
51.3381 5.60649
51.5362 5.56305
51.7344 5.46204
51.9328 5.38925
52.1316 5.26098
52.3304 5.17651
52.5293 5.12616
52.7284 5.04371
52.9276 4.95213
53.1271 4.90514
53.3267 4.79482
53.5265 4.68727
53.7264 4.62031
53.9266 4.52574
54.1269 4.45936
54.3274 4.31415
54.528 4.21007
54.7289 4.1037
54.9301 4.00599
55.1314 3.90164
55.3328 3.70251
55.5344 3.5761
55.7361 3.50767