File: XRD/Ni3Fe_FD0010.xy
TT I
1.27165 36.0476
1.45013 32.7183
1.62863 28.6148
1.80712 26.4031
1.98562 26.0007
2.16411 25.9667
2.34263 26.4229
2.52115 26.5887
2.69965 30.0423
2.87818 40.2429
3.05672 66.1669
3.23527 81.1828
3.4138 45.416
3.59237 39.5993
3.77094 41.3324
3.9495 43.8814
4.12809 54.6015
4.30669 78.3184
4.4853 69.5208
4.6639 55.4242
4.84253 60.9544
5.02118 91.6382
5.19981 253.709
5.37848 4079.92
5.55716 164.014
5.73586 100.277
5.91455 106.919
6.09328 405.13
6.27201 365.994
6.45075 73.7206
6.62952 54.682
6.8083 52.5802
6.98711 48.3463
7.16591 51.9484
7.34475 69.7013
7.5236 64.3918
7.70247 52.8451
7.88135 39.472
8.06026 40.1569
8.23919 44.3276
8.41812 55.3887
8.59709 141.792
8.77609 759.596
8.9551 81.4382
9.13412 58.9959
9.31318 240.629
9.49226 51.7868
9.67134 49.6396
9.85047 55.7076
10.0296 87.7245
10.2088 376.478
10.388 155.905
10.5672 88.6287
10.7465 300.014
10.9257 49.1827
11.105 41.8581
11.2844 40.2713
11.4637 38.6784
11.6431 37.4323
11.8225 37.1404
12.002 64.5413
12.1814 46.1589
12.3609 86.171
12.5405 46.4347
12.72 39.4211
12.8996 39.2403
13.0792 41.1159
13.2589 61.58
13.4386 119.603
13.6183 103.052
13.7981 127.983
13.9779 71.2405
14.1577 45.0722
14.3376 53.5764
14.5175 36.4358
14.6974 36.0205
14.8774 40.4595
15.0574 54.7712
15.2374 115.396
15.4175 41.4109
15.5976 37.397
15.7778 39.3014
15.958 50.4629
16.1382 135.308
16.3185 41.0313
16.4988 32.6611
16.6792 30.9146
16.8596 30.7098
17.04 38.4026
17.2205 32.3386
17.401 34.4327
17.5815 52.1839
17.7622 34.1549
17.9428 41.3567
18.1237 41.9993
18.3044 77.4062
18.4852 60.8921
18.666 76.0568
18.8469 36.0821
19.0278 32.3971
19.2088 32.2295
19.3898 37.3364
19.5709 45.5795
19.752 38.2905
19.9332 30.9049
20.1144 31.5918
20.2957 39.2467
20.477 40.4162
20.6586 43.5401
20.84 30.6977
21.0215 30.002
21.203 27.8115
21.3846 27.7858
21.5662 32.6049
21.7479 29.0176
21.9297 30.3146
22.1115 38.0988
22.2933 47.6323
22.4753 38.5909
22.6572 29.4779
22.8393 29.3482
23.0214 31.176
23.2037 36.1945
23.3859 36.9139
23.5682 34.4956
23.7505 32.8813
23.9329 46.91
24.1154 29.744
24.2979 27.2878
24.4805 25.729
24.6631 25.6345
24.8458 27.8748
25.0286 25.7362
25.2114 25.6531
25.3943 27.9189
25.5773 30.627
25.7605 31.4152
25.9436 26.4482
26.1268 25.2101
26.31 25.7974
26.4933 29.1287
26.6767 25.6756
26.8601 26.5892
27.0437 32.2737
27.2272 28.4203
27.4109 24.5205
27.5946 24.1621
27.7784 24.437
27.9623 25.6108
28.1462 25.3221
28.3304 26.4506
28.5145 28.9412
28.6987 26.2647
28.8829 22.9439
29.0673 22.331
29.2517 23.1892
29.4361 22.228
29.6207 21.6367
29.8053 23.0036
29.99 21.238
30.1748 21.0678
30.3597 21.1177
30.5447 21.0884
30.7297 21.2807
30.915 20.9452
31.1002 23.3118
31.2855 22.6466
31.4708 20.6494
31.6563 20.4057
31.8418 21.3826
32.0275 21.0608
32.2132 20.468
32.399 21.4089
32.5848 20.1198
32.7708 18.949
32.9569 18.6728
33.143 18.8286
33.3293 18.3379
33.5158 18.6991
33.7022 19.4475
33.8887 18.3413
34.0753 17.7043
34.262 17.5145
34.4488 17.3862
34.6357 17.021
34.8227 17.068
35.0098 16.5481
35.1969 16.2395
35.3842 16.3091
35.5716 16.2232
35.759 16.4802
35.9468 17.1048
36.1345 16.4887
36.3222 15.6924
36.5101 15.6608
36.6981 15.7362
36.8861 15.2899
37.0743 15.3977
37.2626 15.078
37.451 14.6038
37.6395 14.4797
37.8281 14.298
38.0168 14.0777
38.2056 14.1243
38.3945 13.7361
38.5837 13.5158
38.7728 13.5315
38.9621 13.317
39.1514 13.1931
39.3409 13.044
39.5304 12.7161
39.7201 12.5595
39.9099 12.5136
40.0999 12.3829
40.2899 12.3829
40.48 12.2127
40.6703 12.0337
40.8607 11.9372
41.0512 11.7303
41.242 11.7616
41.4327 11.5556
41.6236 11.2714
41.8146 11.1317
42.0057 10.9741
42.1969 10.9277
42.3882 10.8807
42.5797 10.5481
42.7713 10.4271
42.963 10.3126
43.1549 10.128
43.3468 9.93592
43.5389 9.82814
43.7312 9.68462
43.9237 9.59074
44.1162 9.54746
44.3088 9.43283
44.5016 9.26075
44.6945 9.14074
44.8875 9.02924
45.0806 8.94538
45.2739 8.80757
45.4673 8.64148
45.6609 8.53884
45.8546 8.49647
46.0484 8.36417
46.2424 8.22565
46.4365 8.10659
46.631 8.02299
46.8254 7.89692
47.0199 7.78129
47.2146 7.68079
47.4095 7.53584
47.6044 7.4683
47.7996 7.31287
47.9948 7.24463
48.1902 7.14409
48.3858 7.0092
48.5815 6.93585
48.7774 6.85467
48.9734 6.72345
49.1696 6.62183
49.3661 6.53533
49.5626 6.46041
49.7592 6.35327
49.956 6.27002
50.153 6.20882
50.3501 6.09428
50.5474 6.01212
50.7448 5.95869
50.9424 5.86456
51.1402 5.76837
51.3381 5.6285
51.5362 5.60463
51.7344 5.51412
51.9328 5.40871
52.1316 5.30835
52.3304 5.25154
52.5293 5.13758
52.7284 5.05676
52.9276 4.99264
53.1271 4.9227
53.3267 4.84731
53.5265 4.72952
53.7264 4.65884
53.9266 4.58294
54.1269 4.48956
54.3274 4.41098
54.528 4.25173
54.7289 4.14285
54.9301 4.05249
55.1314 3.95265
55.3328 3.71402
55.5344 3.59553
55.7361 3.54759