File: XRD/Ni3Fe_FD1000.xy
TT I
1.27165 6.91779
1.45013 5.49663
1.62863 5.24631
1.80712 4.7314
1.98562 4.79554
2.16411 5.01795
2.34263 5.97265
2.52115 7.26893
2.69965 8.33864
2.87818 8.99306
3.05672 11.058
3.23527 15.2803
3.4138 18.8771
3.59237 24.1068
3.77094 25.9248
3.9495 29.4749
4.12809 34.3584
4.30669 263.528
4.4853 69.6979
4.6639 53.9979
4.84253 65.6046
5.02118 83.6056
5.19981 266.937
5.37848 173.181
5.55716 99.5031
5.73586 89.1171
5.91455 89.8293
6.09328 4550.58
6.27201 81.0132
6.45075 66.156
6.62952 62.2271
6.8083 57.9064
6.98711 55.0443
7.16591 54.9007
7.34475 101.723
7.5236 53.9657
7.70247 55.4772
7.88135 56.7225
8.06026 60.8372
8.23919 68.2061
8.41812 83.0379
8.59709 1085.76
8.77609 96.7423
8.9551 91.2515
9.13412 80.2882
9.31318 80.4653
9.49226 82.7399
9.67134 98.7651
9.85047 97.2871
10.0296 278.124
10.2088 371.118
10.388 101.944
10.5672 523.565
10.7465 84.7055
10.9257 77.449
11.105 70.6966
11.2844 69.5138
11.4637 63.8395
11.6431 62.4925
11.8225 61.109
12.002 62.0744
12.1814 147.52
12.3609 70.6094
12.5405 63.0644
12.72 69.6378
12.8996 69.2282
13.0792 76.315
13.2589 219.905
13.4386 121.793
13.6183 235.382
13.7981 94.6345
13.9779 74.2595
14.1577 71.1279
14.3376 70.7107
14.5175 67.0763
14.6974 68.5782
14.8774 101.906
15.0574 151.148
15.2374 70.1509
15.4175 64.7923
15.5976 64.1563
15.7778 87.8153
15.958 155.367
16.1382 61.8953
16.3185 57.6415
16.4988 54.5829
16.6792 53.4528
16.8596 54.1311
17.04 54.561
17.2205 64.1729
17.401 69.0208
17.5815 57.7635
17.7622 59.7461
17.9428 69.9945
18.1237 139.518
18.3044 87.7009
18.4852 76.0172
18.666 59.1382
18.8469 56.8084
19.0278 55.7209
19.2088 57.7317
19.3898 75.955
19.5709 52.9719
19.752 52.0575
19.9332 54.505
20.1144 68.998
20.2957 63.1266
20.477 52.6039
20.6586 48.7792
20.84 47.82
21.0215 47.3987
21.203 49.8128
21.3846 47.9911
21.5662 47.6227
21.7479 51.0431
21.9297 63.7514
22.1115 55.0788
22.2933 48.7049
22.4753 47.9945
22.6572 47.4996
22.8393 50.4453
23.0214 56.5518
23.2037 47.843
23.3859 48.4524
23.5682 56.4997
23.7505 47.4126
23.9329 44.3018
24.1154 43.2312
24.2979 42.723
24.4805 42.1005
24.6631 41.9192
24.8458 41.1859
25.0286 41.8106
25.2114 43.7312
25.3943 43.877
25.5773 40.079
25.7605 39.564
25.9436 39.8483
26.1268 40.9387
26.31 39.22
26.4933 39.972
26.6767 41.4882
26.8601 39.6383
27.0437 38.0456
27.2272 37.6563
27.4109 37.5099
27.5946 37.6915
27.7784 37.0979
27.9623 37.6961
28.1462 38.1062
28.3304 36.4252
28.5145 35.2151
28.6987 34.9447
28.8829 34.751
29.0673 33.8884
29.2517 33.6808
29.4361 33.4606
29.6207 32.4698
29.8053 32.1656
29.99 31.8887
30.1748 31.7279
30.3597 31.6079
30.5447 31.5585
30.7297 31.6193
30.915 30.9401
31.1002 30.61
31.2855 30.1863
31.4708 30.2548
31.6563 29.7717
31.8418 29.4069
32.0275 29.3368
32.2132 28.7991
32.399 28.3878
32.5848 27.9729
32.7708 27.6551
32.9569 27.4579
33.143 27.1918
33.3293 26.8208
33.5158 26.4747
33.7022 26.1207
33.8887 25.8342
34.0753 25.5057
34.262 25.1132
34.4488 24.8019
34.6357 24.5406
34.8227 24.2736
35.0098 24.0962
35.1969 23.7624
35.3842 23.5438
35.5716 23.3054
35.759 23.0294
35.9468 22.6968
36.1345 22.5091
36.3222 22.2756
36.5101 22.0385
36.6981 21.7229
36.8861 21.4096
37.0743 21.0861
37.2626 20.8523
37.451 20.5133
37.6395 20.4583
37.8281 20.0835
38.0168 19.8072
38.2056 19.6273
38.3945 19.3141
38.5837 19.0762
38.7728 18.8816
38.9621 18.6094
39.1514 18.32
39.3409 18.1385
39.5304 17.886
39.7201 17.7449
39.9099 17.5009
40.0999 17.3307
40.2899 17.0212
40.48 16.78
40.6703 16.5567
40.8607 16.4719
41.0512 16.2091
41.242 15.9417
41.4327 15.7634
41.6236 15.5608
41.8146 15.359
42.0057 15.1678
42.1969 14.9701
42.3882 14.7871
42.5797 14.5417
42.7713 14.3557
42.963 14.1265
43.1549 13.9582
43.3468 13.7717
43.5389 13.5865
43.7312 13.4092
43.9237 13.2172
44.1162 13.0105
44.3088 12.8389
44.5016 12.7091
44.6945 12.4986
44.8875 12.3524
45.0806 12.1479
45.2739 11.9949
45.4673 11.8115
45.6609 11.6305
45.8546 11.4996
46.0484 11.3137
46.2424 11.1867
46.4365 10.9902
46.631 10.8461
46.8254 10.6393
47.0199 10.5139
47.2146 10.3873
47.4095 10.174
47.6044 10.0598
47.7996 9.90194
47.9948 9.78203
48.1902 9.61697
48.3858 9.48848
48.5815 9.32589
48.7774 9.23176
48.9734 9.08722
49.1696 8.93935
49.3661 8.80963
49.5626 8.65947
49.7592 8.52683
49.956 8.39796
50.153 8.25511
50.3501 8.14321
50.5474 8.05121
50.7448 7.88296
50.9424 7.77886
51.1402 7.66765
51.3381 7.51682
51.5362 7.41609
51.7344 7.30885
51.9328 7.16726
52.1316 7.04133
52.3304 6.93393
52.5293 6.83217
52.7284 6.75469
52.9276 6.62495
53.1271 6.50733
53.3267 6.40414
53.5265 6.24854
53.7264 6.17258
53.9266 6.09448
54.1269 5.97395
54.3274 5.86921
54.528 5.71045
54.7289 5.55551
54.9301 5.39181
55.1314 5.24848
55.3328 5.09516
55.5344 4.88406
55.7361 4.73532