File: XRD/Ni3Fe_FD0453.xy
TT I
1.27165 8.18361
1.45013 5.87236
1.62863 6.20407
1.80712 4.70937
1.98562 4.75865
2.16411 4.92511
2.34263 5.31719
2.52115 6.79987
2.69965 7.43893
2.87818 8.2614
3.05672 11.478
3.23527 14.6843
3.4138 18.8949
3.59237 23.3194
3.77094 26.0956
3.9495 29.5293
4.12809 35.3178
4.30669 143.399
4.4853 58.4807
4.6639 56.3754
4.84253 68.839
5.02118 89.8324
5.19981 506.861
5.37848 203.874
5.55716 104.376
5.73586 94.7279
5.91455 98.6709
6.09328 4246.1
6.27201 84.0405
6.45075 68.4742
6.62952 63.1141
6.8083 58.9953
6.98711 56.2289
7.16591 56.1194
7.34475 77.707
7.5236 55.1101
7.70247 56.724
7.88135 58.483
8.06026 63.2502
8.23919 70.2442
8.41812 86.5668
8.59709 1230.23
8.77609 101.92
8.9551 90.9406
9.13412 83.4983
9.31318 84.4443
9.49226 86.2078
9.67134 97.1106
9.85047 102.399
10.0296 406.373
10.2088 415.534
10.388 107.534
10.5672 493.302
10.7465 88.1914
10.9257 79.2483
11.105 72.6748
11.2844 70.3258
11.4637 65.7888
11.6431 64.6187
11.8225 63.4991
12.002 65.4048
12.1814 155.683
12.3609 69.6182
12.5405 65.2668
12.72 69.6693
12.8996 72.1841
13.0792 81.4774
13.2589 249.41
13.4386 125.559
13.6183 251.526
13.7981 98.0355
13.9779 77.0459
14.1577 73.2443
14.3376 72.0366
14.5175 70.1527
14.6974 71.7387
14.8774 117.523
15.0574 149.749
15.2374 71.2891
15.4175 67.2447
15.5976 67.0419
15.7778 100.87
15.958 157.143
16.1382 62.9629
16.3185 59.1733
16.4988 56.4079
16.6792 55.4418
16.8596 55.9152
17.04 56.7869
17.2205 68.417
17.401 71.9206
17.5815 60.1666
17.7622 62.5081
17.9428 76.7648
18.1237 139.453
18.3044 91.6113
18.4852 78.343
18.666 61.4131
18.8469 59.0003
19.0278 57.8695
19.2088 61.0002
19.3898 76.7163
19.5709 54.8631
19.752 54.2953
19.9332 57.609
20.1144 70.8538
20.2957 64.4306
20.477 54.2698
20.6586 50.6151
20.84 49.7129
21.0215 49.3006
21.203 51.6183
21.3846 49.8864
21.5662 49.8479
21.7479 54.0058
21.9297 65.3983
22.1115 56.6032
22.2933 50.6194
22.4753 49.6507
22.6572 49.8409
22.8393 53.1658
23.0214 58.2817
23.2037 49.6527
23.3859 50.7909
23.5682 57.3243
23.7505 49.0296
23.9329 45.9122
24.1154 44.8178
24.2979 44.0228
24.4805 43.7091
24.6631 43.5315
24.8458 42.9963
25.0286 43.539
25.2114 45.2991
25.3943 45.354
25.5773 41.5871
25.7605 41.1836
25.9436 41.5891
26.1268 42.499
26.31 40.8364
26.4933 41.4652
26.6767 42.8437
26.8601 41.0341
27.0437 39.6267
27.2272 39.174
27.4109 39.0694
27.5946 39.1316
27.7784 38.5491
27.9623 39.1302
28.1462 39.3645
28.3304 37.656
28.5145 36.5949
28.6987 36.1163
28.8829 36.0637
29.0673 35.2316
29.2517 34.8526
29.4361 34.5628
29.6207 33.6968
29.8053 33.3876
29.99 33.0649
30.1748 33.0526
30.3597 32.7994
30.5447 32.6723
30.7297 32.7669
30.915 32.1265
31.1002 31.6462
31.2855 31.3627
31.4708 31.2386
31.6563 30.8754
31.8418 30.676
32.0275 30.4155
32.2132 29.8834
32.399 29.397
32.5848 28.8967
32.7708 28.5799
32.9569 28.5185
33.143 28.2071
33.3293 27.8498
33.5158 27.4803
33.7022 27.1186
33.8887 26.7228
34.0753 26.4215
34.262 26.0364
34.4488 25.6685
34.6357 25.4064
34.8227 25.0612
35.0098 24.9345
35.1969 24.5224
35.3842 24.318
35.5716 24.1999
35.759 23.7398
35.9468 23.485
36.1345 23.2777
36.3222 23.0546
36.5101 22.7542
36.6981 22.5081
36.8861 22.1144
37.0743 21.797
37.2626 21.5728
37.451 21.3016
37.6395 21.1603
37.8281 20.7864
38.0168 20.4948
38.2056 20.2637
38.3945 20.0476
38.5837 19.7374
38.7728 19.5318
38.9621 19.3131
39.1514 19.0087
39.3409 18.703
39.5304 18.5029
39.7201 18.398
39.9099 18.112
40.0999 17.937
40.2899 17.5977
40.48 17.4359
40.6703 17.1846
40.8607 16.9901
41.0512 16.7606
41.242 16.5361
41.4327 16.3396
41.6236 16.118
41.8146 15.899
42.0057 15.6303
42.1969 15.4835
42.3882 15.2752
42.5797 15.0843
42.7713 14.802
42.963 14.6764
43.1549 14.4079
43.3468 14.2262
43.5389 14.0323
43.7312 13.7953
43.9237 13.6455
44.1162 13.4554
44.3088 13.2662
44.5016 13.048
44.6945 12.9383
44.8875 12.7047
45.0806 12.5662
45.2739 12.3739
45.4673 12.2447
45.6609 12.0334
45.8546 11.8874
46.0484 11.7159
46.2424 11.4844
46.4365 11.3802
46.631 11.1885
46.8254 11.0392
47.0199 10.8961
47.2146 10.6973
47.4095 10.5483
47.6044 10.4014
47.7996 10.2285
47.9948 10.1058
48.1902 9.94911
48.3858 9.77989
48.5815 9.69334
48.7774 9.51885
48.9734 9.38106
49.1696 9.23182
49.3661 9.11011
49.5626 8.94435
49.7592 8.84675
49.956 8.74713
50.153 8.54634
50.3501 8.41426
50.5474 8.31822
50.7448 8.16819
50.9424 8.07644
51.1402 7.91212
51.3381 7.78084
51.5362 7.69381
51.7344 7.50814
51.9328 7.40753
52.1316 7.29061
52.3304 7.17239
52.5293 6.98258
52.7284 6.93225
52.9276 6.82826
53.1271 6.69354
53.3267 6.61954
53.5265 6.47537
53.7264 6.36285
53.9266 6.27528
54.1269 6.15746
54.3274 6.04873
54.528 5.85791
54.7289 5.79887
54.9301 5.59496
55.1314 5.45364
55.3328 5.23016
55.5344 5.04234
55.7361 4.93066