File: XRD/Ni3Fe_FD0645.xy
TT I
1.27165 7.2382
1.45013 6.21085
1.62863 5.59046
1.80712 4.94608
1.98562 4.38742
2.16411 4.62348
2.34263 5.08149
2.52115 6.76985
2.69965 8.07189
2.87818 8.94061
3.05672 11.0984
3.23527 15.0962
3.4138 18.8664
3.59237 24.7892
3.77094 26.5414
3.9495 30.1574
4.12809 35.8046
4.30669 269.184
4.4853 71.2684
4.6639 55.4926
4.84253 66.9051
5.02118 86.1168
5.19981 336.065
5.37848 196.771
5.55716 102.636
5.73586 92.2635
5.91455 93.4149
6.09328 4312.99
6.27201 84.4668
6.45075 67.8877
6.62952 63.2931
6.8083 59.4628
6.98711 56.4479
7.16591 55.966
7.34475 103.3
7.5236 54.8813
7.70247 56.5468
7.88135 58.0566
8.06026 62.6821
8.23919 69.8418
8.41812 86.1069
8.59709 1102.08
8.77609 100.43
8.9551 93.4546
9.13412 82.1951
9.31318 82.6785
9.49226 84.4327
9.67134 100.913
9.85047 100.051
10.0296 325.245
10.2088 439.487
10.388 105.035
10.5672 497.71
10.7465 87.0847
10.9257 79.2289
11.105 72.3909
11.2844 71.7057
11.4637 65.5516
11.6431 64.2042
11.8225 62.5816
12.002 63.9074
12.1814 146.209
12.3609 72.6714
12.5405 64.7179
12.72 71.5713
12.8996 71.1609
13.0792 78.6144
13.2589 226.768
13.4386 129.057
13.6183 237.539
13.7981 100.269
13.9779 75.9995
14.1577 73.0917
14.3376 72.448
14.5175 69.0778
14.6974 70.5861
14.8774 107.674
15.0574 152.529
15.2374 71.9784
15.4175 66.4899
15.5976 65.9173
15.7778 92.6938
15.958 161.991
16.1382 63.6553
16.3185 59.4416
16.4988 55.8909
16.6792 55.026
16.8596 55.5334
17.04 56.0234
17.2205 66.0673
17.401 72.49
17.5815 59.3935
17.7622 61.515
17.9428 73.0728
18.1237 139.311
18.3044 89.5098
18.4852 79.4952
18.666 60.7238
18.8469 58.3229
19.0278 57.0971
19.2088 59.6561
19.3898 77.0019
19.5709 54.4943
19.752 53.4153
19.9332 56.2058
20.1144 69.9355
20.2957 63.5961
20.477 54.0983
20.6586 49.8473
20.84 49.0136
21.0215 48.8675
21.203 50.9259
21.3846 49.3855
21.5662 48.8284
21.7479 52.4705
21.9297 64.8892
22.1115 56.3415
22.2933 50.1462
22.4753 49.2118
22.6572 48.899
22.8393 51.5803
23.0214 57.846
23.2037 48.8987
23.3859 49.6385
23.5682 56.9326
23.7505 48.6775
23.9329 45.6305
24.1154 44.4554
24.2979 43.7695
24.4805 43.1584
24.6631 43.1453
24.8458 42.3409
25.0286 42.8793
25.2114 44.7033
25.3943 44.7588
25.5773 41.1631
25.7605 40.5923
25.9436 40.8789
26.1268 41.8056
26.31 40.3704
26.4933 40.9223
26.6767 42.2951
26.8601 40.6314
27.0437 39.1066
27.2272 38.7904
27.4109 38.5369
27.5946 38.4967
27.7784 37.9625
27.9623 38.4624
28.1462 38.932
28.3304 37.4225
28.5145 36.136
28.6987 35.7729
28.8829 35.5958
29.0673 34.7549
29.2517 34.4451
29.4361 34.3369
29.6207 33.2694
29.8053 33.0722
29.99 32.7
30.1748 32.6439
30.3597 32.4135
30.5447 32.2194
30.7297 32.4032
30.915 31.7583
31.1002 31.2712
31.2855 30.9383
31.4708 30.9299
31.6563 30.4926
31.8418 30.2059
32.0275 30.0952
32.2132 29.5455
32.399 29.0102
32.5848 28.6422
32.7708 28.3433
32.9569 28.0425
33.143 27.8537
33.3293 27.5299
33.5158 27.1124
33.7022 26.6892
33.8887 26.3585
34.0753 26.1473
34.262 25.8017
34.4488 25.4587
34.6357 25.0836
34.8227 24.8243
35.0098 24.6386
35.1969 24.289
35.3842 24.135
35.5716 23.9416
35.759 23.5088
35.9468 23.2321
36.1345 23.0568
36.3222 22.7437
36.5101 22.5157
36.6981 22.2465
36.8861 21.9407
37.0743 21.58
37.2626 21.3528
37.451 21.1199
37.6395 20.8844
37.8281 20.6007
38.0168 20.297
38.2056 20.0033
38.3945 19.7824
38.5837 19.5402
38.7728 19.3007
38.9621 19.0534
39.1514 18.7564
39.3409 18.5333
39.5304 18.2981
39.7201 18.1689
39.9099 17.9284
40.0999 17.6263
40.2899 17.4008
40.48 17.2109
40.6703 17.0171
40.8607 16.8585
41.0512 16.5955
41.242 16.3311
41.4327 16.1352
41.6236 15.9482
41.8146 15.7088
42.0057 15.5424
42.1969 15.2864
42.3882 15.1079
42.5797 14.8784
42.7713 14.7301
42.963 14.5283
43.1549 14.3433
43.3468 14.1155
43.5389 13.9124
43.7312 13.6613
43.9237 13.5399
44.1162 13.3284
44.3088 13.1394
44.5016 12.9365
44.6945 12.7642
44.8875 12.5935
45.0806 12.4552
45.2739 12.276
45.4673 12.1109
45.6609 11.9064
45.8546 11.7914
46.0484 11.6306
46.2424 11.3981
46.4365 11.2453
46.631 11.1083
46.8254 10.9113
47.0199 10.7585
47.2146 10.6427
47.4095 10.4391
47.6044 10.3071
47.7996 10.1711
47.9948 9.95862
48.1902 9.84012
48.3858 9.70493
48.5815 9.58209
48.7774 9.42875
48.9734 9.30392
49.1696 9.15983
49.3661 9.0103
49.5626 8.86791
49.7592 8.74572
49.956 8.59439
50.153 8.46785
50.3501 8.35709
50.5474 8.21879
50.7448 8.06891
50.9424 7.98303
51.1402 7.84185
51.3381 7.72873
51.5362 7.64568
51.7344 7.47026
51.9328 7.33461
52.1316 7.18315
52.3304 7.11867
52.5293 7.02203
52.7284 6.87554
52.9276 6.76585
53.1271 6.63141
53.3267 6.53374
53.5265 6.43823
53.7264 6.27491
53.9266 6.19792
54.1269 6.08294
54.3274 5.96795
54.528 5.86772
54.7289 5.66769
54.9301 5.54442
55.1314 5.41895
55.3328 5.17484
55.5344 4.97783
55.7361 4.83098