File: XRD/Ni3Fe_FD0685.xy
TT I
1.27165 7.22777
1.45013 5.60767
1.62863 5.57093
1.80712 4.72396
1.98562 4.75962
2.16411 4.94835
2.34263 5.71291
2.52115 6.7246
2.69965 8.11084
2.87818 8.48918
3.05672 10.8978
3.23527 15.091
3.4138 18.8987
3.59237 23.2396
3.77094 26.117
3.9495 29.5874
4.12809 34.5355
4.30669 133.998
4.4853 56.6637
4.6639 55.4813
4.84253 68.4197
5.02118 87.5488
5.19981 416.181
5.37848 190.292
5.55716 102.161
5.73586 92.9489
5.91455 95.7688
6.09328 4569.14
6.27201 80.6138
6.45075 68.0595
6.62952 62.6441
6.8083 58.9054
6.98711 55.2291
7.16591 55.4386
7.34475 74.3667
7.5236 54.4833
7.70247 56.2424
7.88135 57.3598
8.06026 62.4291
8.23919 69.4274
8.41812 84.8342
8.59709 1243.78
8.77609 98.244
8.9551 89.3457
9.13412 82.1993
9.31318 83.4902
9.49226 84.7062
9.67134 95.5702
9.85047 100.428
10.0296 365.816
10.2088 359.41
10.388 105.049
10.5672 512.552
10.7465 86.2829
10.9257 77.8935
11.105 71.5333
11.2844 68.9027
11.4637 64.7763
11.6431 63.5043
11.8225 62.4485
12.002 63.9189
12.1814 154.52
12.3609 67.672
12.5405 64.5203
12.72 68.5823
12.8996 71.1615
13.0792 80.0855
13.2589 249.082
13.4386 119.972
13.6183 255.426
13.7981 93.7071
13.9779 75.5613
14.1577 72.0203
14.3376 70.3866
14.5175 68.626
14.6974 70.5767
14.8774 113.71
15.0574 140.156
15.2374 69.984
15.4175 66.2364
15.5976 66.0272
15.7778 96.9728
15.958 149.772
16.1382 61.7639
16.3185 57.8526
16.4988 55.2682
16.6792 54.5001
16.8596 54.7836
17.04 55.8679
17.2205 67.1692
17.401 69.8802
17.5815 59.1731
17.7622 61.4084
17.9428 74.2974
18.1237 142.762
18.3044 91.4256
18.4852 75.5225
18.666 60.3426
18.8469 57.8287
19.0278 56.7398
19.2088 59.5861
19.3898 76.0825
19.5709 54.068
19.752 53.1783
19.9332 56.3534
20.1144 70.0288
20.2957 64.1515
20.477 52.7575
20.6586 49.614
20.84 48.7415
21.0215 48.3592
21.203 50.7575
21.3846 48.7152
21.5662 48.9414
21.7479 52.9334
21.9297 64.7744
22.1115 55.9807
22.2933 49.5876
22.4753 48.6978
22.6572 49.0369
22.8393 52.1631
23.0214 57.0405
23.2037 48.5764
23.3859 49.9603
23.5682 57.2463
23.7505 47.7666
23.9329 45.3044
24.1154 44.0286
24.2979 43.3174
24.4805 42.8059
24.6631 42.8323
24.8458 42.1803
25.0286 42.8966
25.2114 44.6093
25.3943 44.417
25.5773 40.7394
25.7605 40.357
25.9436 40.8206
26.1268 41.6977
26.31 40.0795
26.4933 40.709
26.6767 42.1284
26.8601 40.3318
27.0437 38.798
27.2272 38.4279
27.4109 38.2892
27.5946 38.3256
27.7784 37.9374
27.9623 38.3792
28.1462 38.7667
28.3304 37.1733
28.5145 35.9327
28.6987 35.4905
28.8829 35.3214
29.0673 34.5821
29.2517 34.2733
29.4361 33.9897
29.6207 33.1463
29.8053 32.9494
29.99 32.4841
30.1748 32.3507
30.3597 32.1823
30.5447 32.1446
30.7297 32.198
30.915 31.5587
31.1002 31.1121
31.2855 30.8668
31.4708 30.909
31.6563 30.3343
31.8418 30.1426
32.0275 29.8764
32.2132 29.3707
32.399 28.9424
32.5848 28.3299
32.7708 28.0995
32.9569 27.988
33.143 27.865
33.3293 27.2917
33.5158 27.0584
33.7022 26.5282
33.8887 26.3208
34.0753 25.9008
34.262 25.6119
34.4488 25.2618
34.6357 24.9367
34.8227 24.6884
35.0098 24.4164
35.1969 24.1709
35.3842 23.9922
35.5716 23.8108
35.759 23.449
35.9468 23.0799
36.1345 22.9323
36.3222 22.568
36.5101 22.4315
36.6981 22.0794
36.8861 21.7984
37.0743 21.4085
37.2626 21.2227
37.451 20.964
37.6395 20.854
37.8281 20.414
38.0168 20.1984
38.2056 19.912
38.3945 19.6159
38.5837 19.4552
38.7728 19.126
38.9621 18.9369
39.1514 18.7034
39.3409 18.3884
39.5304 18.2214
39.7201 18.0309
39.9099 17.8011
40.0999 17.5578
40.2899 17.3199
40.48 17.1089
40.6703 16.8911
40.8607 16.6841
41.0512 16.493
41.242 16.2018
41.4327 16.0355
41.6236 15.7571
41.8146 15.5939
42.0057 15.4559
42.1969 15.1982
42.3882 15.0686
42.5797 14.8144
42.7713 14.6148
42.963 14.4085
43.1549 14.1907
43.3468 13.9974
43.5389 13.8105
43.7312 13.5915
43.9237 13.4913
44.1162 13.2584
44.3088 13.085
44.5016 12.8917
44.6945 12.7467
44.8875 12.5473
45.0806 12.3659
45.2739 12.2001
45.4673 12.0178
45.6609 11.8576
45.8546 11.6765
46.0484 11.4913
46.2424 11.3451
46.4365 11.1429
46.631 10.9987
46.8254 10.8355
47.0199 10.7119
47.2146 10.5385
47.4095 10.3707
47.6044 10.2151
47.7996 10.0497
47.9948 9.92816
48.1902 9.764
48.3858 9.63263
48.5815 9.50417
48.7774 9.39631
48.9734 9.22745
49.1696 9.08182
49.3661 8.94269
49.5626 8.76759
49.7592 8.68184
49.956 8.55772
50.153 8.40553
50.3501 8.27267
50.5474 8.15466
50.7448 8.06755
50.9424 7.89069
51.1402 7.79455
51.3381 7.64811
51.5362 7.52404
51.7344 7.4089
51.9328 7.31428
52.1316 7.15946
52.3304 7.08137
52.5293 6.94675
52.7284 6.8574
52.9276 6.69214
53.1271 6.61051
53.3267 6.5144
53.5265 6.34376
53.7264 6.25934
53.9266 6.14722
54.1269 6.01782
54.3274 5.92114
54.528 5.84239
54.7289 5.63144
54.9301 5.48874
55.1314 5.32491
55.3328 5.14464
55.5344 4.95137
55.7361 4.77282