File: XRD/Ni3Fe_FD0320.xy
TT I
1.27165 7.67996
1.45013 6.11943
1.62863 5.41134
1.80712 5.3188
1.98562 4.94436
2.16411 4.58566
2.34263 5.06277
2.52115 5.58295
2.69965 7.26994
2.87818 8.71528
3.05672 11.0491
3.23527 14.8064
3.4138 19.4013
3.59237 24.4421
3.77094 26.3783
3.9495 30.0554
4.12809 35.4759
4.30669 215.009
4.4853 66.6091
4.6639 56.5144
4.84253 69.2726
5.02118 91.4553
5.19981 519.995
5.37848 232.499
5.55716 106.202
5.73586 95.7036
5.91455 101.208
6.09328 3967.61
6.27201 86.902
6.45075 69.3076
6.62952 64.58
6.8083 60.5299
6.98711 57.4233
7.16591 56.9728
7.34475 92.9821
7.5236 56.043
7.70247 58.0247
7.88135 59.6409
8.06026 64.1144
8.23919 71.5452
8.41812 88.7377
8.59709 1115.83
8.77609 105.071
8.9551 94.2037
9.13412 84.2181
9.31318 85.4979
9.49226 87.1223
9.67134 101.355
9.85047 103.352
10.0296 401.603
10.2088 498.249
10.388 109.163
10.5672 474.998
10.7465 89.5361
10.9257 80.5747
11.105 73.9168
11.2844 72.4131
11.4637 66.5515
11.6431 65.7451
11.8225 64.3471
12.002 65.7065
12.1814 148.3
12.3609 73.1587
12.5405 66.4255
12.72 71.9817
12.8996 73.1894
13.0792 81.5196
13.2589 235.185
13.4386 135.659
13.6183 235.581
13.7981 104.548
13.9779 78.1062
14.1577 74.7379
14.3376 73.9106
14.5175 71.0228
14.6974 72.6728
14.8774 115.229
15.0574 160.811
15.2374 73.1644
15.4175 68.3905
15.5976 68.0204
15.7778 99.5047
15.958 169.959
16.1382 64.7931
16.3185 60.4121
16.4988 57.1674
16.6792 56.2355
16.8596 56.9402
17.04 57.6647
17.2205 68.6355
17.401 74.7213
17.5815 61.1045
17.7622 63.2023
17.9428 77.863
18.1237 139.394
18.3044 90.9321
18.4852 81.5409
18.666 62.2388
18.8469 59.8602
19.0278 58.5701
19.2088 61.9272
19.3898 78.0148
19.5709 56.0198
19.752 54.9549
19.9332 58.1075
20.1144 71.1263
20.2957 64.5136
20.477 55.9229
20.6586 51.297
20.84 50.3769
21.0215 50.2189
21.203 52.1033
21.3846 50.7032
21.5662 50.2924
21.7479 54.3918
21.9297 66.4377
22.1115 57.4345
22.2933 51.6556
22.4753 50.4791
22.6572 50.4382
22.8393 53.5009
23.0214 59.275
23.2037 50.3315
23.3859 51.3589
23.5682 57.8256
23.7505 50.2434
23.9329 46.7116
24.1154 45.5132
24.2979 44.9114
24.4805 44.311
24.6631 44.2891
24.8458 43.517
25.0286 44.3133
25.2114 46.0511
25.3943 46.2146
25.5773 42.1648
25.7605 41.7576
25.9436 42.1496
26.1268 42.988
26.31 41.4836
26.4933 42.0674
26.6767 43.3858
26.8601 41.6073
27.0437 40.0798
27.2272 39.7645
27.4109 39.5437
27.5946 39.6158
27.7784 39.0804
27.9623 39.54
28.1462 40.0488
28.3304 38.4066
28.5145 37.1693
28.6987 36.706
28.8829 36.4892
29.0673 35.8428
29.2517 35.3285
29.4361 35.2608
29.6207 34.2448
29.8053 33.8927
29.99 33.5634
30.1748 33.4397
30.3597 33.2813
30.5447 33.0953
30.7297 33.277
30.915 32.6001
31.1002 32.1635
31.2855 31.8606
31.4708 31.8298
31.6563 31.2692
31.8418 30.9939
32.0275 30.8364
32.2132 30.2995
32.399 29.7962
32.5848 29.4209
32.7708 29.0575
32.9569 28.8118
33.143 28.7195
33.3293 28.2932
33.5158 27.8923
33.7022 27.4703
33.8887 27.0968
34.0753 26.7363
34.262 26.413
34.4488 26.0479
34.6357 25.6612
34.8227 25.4968
35.0098 25.2286
35.1969 24.9831
35.3842 24.7197
35.5716 24.5825
35.759 24.1744
35.9468 23.7769
36.1345 23.606
36.3222 23.3806
36.5101 23.1104
36.6981 22.8518
36.8861 22.4183
37.0743 22.2382
37.2626 21.8698
37.451 21.6728
37.6395 21.4602
37.8281 21.1324
38.0168 20.8349
38.2056 20.5716
38.3945 20.3103
38.5837 20.0351
38.7728 19.8122
38.9621 19.5353
39.1514 19.3089
39.3409 18.9754
39.5304 18.8127
39.7201 18.6191
39.9099 18.3594
40.0999 18.1794
40.2899 17.8691
40.48 17.6891
40.6703 17.4312
40.8607 17.21
41.0512 17.0183
41.242 16.763
41.4327 16.5559
41.6236 16.2886
41.8146 16.115
42.0057 15.8882
42.1969 15.707
42.3882 15.4916
42.5797 15.3233
42.7713 15.0493
42.963 14.8191
43.1549 14.7071
43.3468 14.4307
43.5389 14.2837
43.7312 14.0467
43.9237 13.8911
44.1162 13.633
44.3088 13.5306
44.5016 13.269
44.6945 13.1338
44.8875 12.9819
45.0806 12.712
45.2739 12.566
45.4673 12.3811
45.6609 12.2341
45.8546 12.0481
46.0484 11.8462
46.2424 11.7133
46.4365 11.5789
46.631 11.373
46.8254 11.212
47.0199 11.0401
47.2146 10.8746
47.4095 10.7096
47.6044 10.5952
47.7996 10.3695
47.9948 10.2413
48.1902 10.0835
48.3858 9.96159
48.5815 9.82553
48.7774 9.64254
48.9734 9.51452
49.1696 9.38384
49.3661 9.23097
49.5626 9.10124
49.7592 8.95692
49.956 8.815
50.153 8.67337
50.3501 8.55656
50.5474 8.3997
50.7448 8.25829
50.9424 8.17326
51.1402 8.05202
51.3381 7.91393
51.5362 7.73341
51.7344 7.64507
51.9328 7.51596
52.1316 7.3911
52.3304 7.26668
52.5293 7.14893
52.7284 7.00499
52.9276 6.91488
53.1271 6.81529
53.3267 6.70411
53.5265 6.59754
53.7264 6.46265
53.9266 6.36578
54.1269 6.18546
54.3274 6.11711
54.528 5.96645
54.7289 5.77425
54.9301 5.6653
55.1314 5.5184
55.3328 5.32608
55.5344 5.08936
55.7361 4.91065