File: XRD/Ni3Fe_FD0237.xy
TT I
1.27165 8.12587
1.45013 6.60889
1.62863 5.64004
1.80712 5.22828
1.98562 4.55413
2.16411 5.16853
2.34263 4.37912
2.52115 5.24981
2.69965 6.07466
2.87818 7.9985
3.05672 10.6402
3.23527 15.0037
3.4138 19.3269
3.59237 22.5002
3.77094 26.3743
3.9495 30.1496
4.12809 34.8077
4.30669 40.5107
4.4853 48.6359
4.6639 58.1603
4.84253 72.0078
5.02118 96.2385
5.19981 894.45
5.37848 269.692
5.55716 112.308
5.73586 100.81
5.91455 109.938
6.09328 3687.14
6.27201 88.9719
6.45075 71.3468
6.62952 64.3484
6.8083 60.1683
6.98711 57.5647
7.16591 56.6998
7.34475 55.5617
7.5236 56.1018
7.70247 58.4161
7.88135 60.2406
8.06026 65.3544
8.23919 73.0218
8.41812 90.792
8.59709 1081.04
8.77609 111.377
8.9551 91.0315
9.13412 86.4562
9.31318 88.2678
9.49226 89.5904
9.67134 95.3705
9.85047 106.946
10.0296 516.741
10.2088 542.055
10.388 115.163
10.5672 455.733
10.7465 92.6437
10.9257 80.699
11.105 75.0251
11.2844 70.8696
11.4637 67.8444
11.6431 66.3698
11.8225 65.3629
12.002 68.9381
12.1814 142.243
12.3609 69.7071
12.5405 67.3802
12.72 69.85
12.8996 74.8496
13.0792 86.6835
13.2589 231.513
13.4386 148.481
13.6183 227.834
13.7981 109.447
13.9779 79.9715
14.1577 75.5408
14.3376 73.0424
14.5175 72.7815
14.6974 74.6419
14.8774 120.161
15.0574 169.274
15.2374 72.4983
15.4175 69.8264
15.5976 69.9138
15.7778 103.801
15.958 173.364
16.1382 63.6645
16.3185 60.0449
16.4988 58.0016
16.6792 57.0168
16.8596 57.3796
17.04 59.6647
17.2205 69.1124
17.401 76.4614
17.5815 62.2502
17.7622 64.5443
17.9428 82.7048
18.1237 139.339
18.3044 90.2418
18.4852 82.9036
18.666 63.4904
18.8469 60.9786
19.0278 59.6337
19.2088 62.942
19.3898 76.383
19.5709 57.1469
19.752 56.0075
19.9332 59.647
20.1144 72.6727
20.2957 64.5518
20.477 56.5115
20.6586 51.9885
20.84 51.341
21.0215 51.1479
21.203 52.5274
21.3846 51.4657
21.5662 51.8107
21.7479 55.589
21.9297 66.7821
22.1115 57.6359
22.2933 52.4416
22.4753 51.07
22.6572 51.8625
22.8393 54.104
23.0214 59.9972
23.2037 51.319
23.3859 52.5376
23.5682 57.7421
23.7505 51.0725
23.9329 47.467
24.1154 46.0561
24.2979 45.5275
24.4805 44.9457
24.6631 44.8517
24.8458 44.454
25.0286 45.0651
25.2114 46.6213
25.3943 46.7162
25.5773 42.9677
25.7605 42.4777
25.9436 42.6365
26.1268 43.5513
26.31 42.1126
26.4933 42.5875
26.6767 43.978
26.8601 42.2705
27.0437 40.7345
27.2272 40.4539
27.4109 40.0662
27.5946 40.2842
27.7784 39.7784
27.9623 39.9508
28.1462 40.4108
28.3304 38.7939
28.5145 37.5822
28.6987 37.2324
28.8829 36.9439
29.0673 36.2835
29.2517 35.7394
29.4361 35.5953
29.6207 34.6936
29.8053 34.31
29.99 34.0049
30.1748 33.7798
30.3597 33.759
30.5447 33.5004
30.7297 33.6526
30.915 33.04
31.1002 32.6356
31.2855 32.2513
31.4708 32.2207
31.6563 31.748
31.8418 31.5759
32.0275 31.2773
32.2132 30.7722
32.399 30.1974
32.5848 29.7122
32.7708 29.4559
32.9569 29.2352
33.143 29.0747
33.3293 28.5879
33.5158 28.3005
33.7022 27.7889
33.8887 27.506
34.0753 27.2228
34.262 26.7714
34.4488 26.4787
34.6357 26.0491
34.8227 25.6973
35.0098 25.5575
35.1969 25.2743
35.3842 25.0204
35.5716 24.7927
35.759 24.5242
35.9468 24.1557
36.1345 23.8776
36.3222 23.6882
36.5101 23.4971
36.6981 23.0426
36.8861 22.7946
37.0743 22.4741
37.2626 22.2298
37.451 21.8991
37.6395 21.7968
37.8281 21.4255
38.0168 21.0743
38.2056 20.8018
38.3945 20.5323
38.5837 20.3625
38.7728 20.0836
38.9621 19.8184
39.1514 19.503
39.3409 19.2847
39.5304 19.0466
39.7201 18.8104
39.9099 18.6541
40.0999 18.3704
40.2899 18.1818
40.48 17.9
40.6703 17.6896
40.8607 17.4697
41.0512 17.1849
41.242 16.9989
41.4327 16.7463
41.6236 16.5268
41.8146 16.3556
42.0057 16.0896
42.1969 15.8978
42.3882 15.6923
42.5797 15.4853
42.7713 15.3408
42.963 15.0679
43.1549 14.8492
43.3468 14.6507
43.5389 14.4669
43.7312 14.1631
43.9237 14.0426
44.1162 13.8575
44.3088 13.6251
44.5016 13.4509
44.6945 13.3115
44.8875 13.0799
45.0806 12.9043
45.2739 12.7387
45.4673 12.5661
45.6609 12.3563
45.8546 12.1565
46.0484 12.0192
46.2424 11.8641
46.4365 11.6837
46.631 11.4745
46.8254 11.2594
47.0199 11.1602
47.2146 10.9958
47.4095 10.856
47.6044 10.66
47.7996 10.5256
47.9948 10.3691
48.1902 10.1932
48.3858 10.0739
48.5815 9.89138
48.7774 9.78786
48.9734 9.65123
49.1696 9.50218
49.3661 9.32518
49.5626 9.17829
49.7592 9.06739
49.956 8.91429
50.153 8.7901
50.3501 8.65841
50.5474 8.55203
50.7448 8.38494
50.9424 8.2924
51.1402 8.12805
51.3381 7.96298
51.5362 7.88419
51.7344 7.7442
51.9328 7.6035
52.1316 7.45627
52.3304 7.36996
52.5293 7.23239
52.7284 7.11446
52.9276 7.0007
53.1271 6.89522
53.3267 6.80162
53.5265 6.64231
53.7264 6.5444
53.9266 6.4291
54.1269 6.28857
54.3274 6.14034
54.528 6.0045
54.7289 5.87289
54.9301 5.65894
55.1314 5.54157
55.3328 5.34512
55.5344 5.1336
55.7361 5.02035