File: XRD/Ni3Fe_FD0961.xy
TT I
1.27165 7.30284
1.45013 6.54463
1.62863 5.67141
1.80712 4.40954
1.98562 4.75766
2.16411 5.23735
2.34263 6.22066
2.52115 7.29132
2.69965 8.70631
2.87818 9.21277
3.05672 11.3483
3.23527 15.5399
3.4138 19.0134
3.59237 23.8736
3.77094 26.1087
3.9495 29.761
4.12809 34.3936
4.30669 181.457
4.4853 61.6641
4.6639 54.7241
4.84253 66.1387
5.02118 84.6184
5.19981 287.052
5.37848 174.344
5.55716 100.212
5.73586 90.3477
5.91455 91.2389
6.09328 4588.73
6.27201 80.0909
6.45075 66.2527
6.62952 61.9256
6.8083 57.8373
6.98711 55.0672
7.16591 54.1649
7.34475 83.0794
7.5236 53.9764
7.70247 55.3339
7.88135 56.8371
8.06026 61.2804
8.23919 68.3807
8.41812 82.7727
8.59709 1164.37
8.77609 96.4017
8.9551 89.2338
9.13412 81.0789
9.31318 81.1976
9.49226 83.3709
9.67134 95.5225
9.85047 98.2264
10.0296 307.467
10.2088 360.444
10.388 101.823
10.5672 528.754
10.7465 84.7784
10.9257 77.0017
11.105 70.5035
11.2844 68.6537
11.4637 63.7648
11.6431 62.4107
11.8225 61.5161
12.002 62.0847
12.1814 155.878
12.3609 68.4863
12.5405 63.1441
12.72 68.3151
12.8996 69.6494
13.0792 77.2035
13.2589 237.901
13.4386 118.695
13.6183 249.0
13.7981 94.7443
13.9779 74.3459
14.1577 71.0131
14.3376 69.8406
14.5175 67.8084
14.6974 69.1122
14.8774 106.922
15.0574 144.736
15.2374 69.3066
15.4175 65.1764
15.5976 64.5646
15.7778 91.8404
15.958 148.342
16.1382 61.0442
16.3185 57.3138
16.4988 54.4778
16.6792 53.1957
16.8596 54.0014
17.04 54.5441
17.2205 65.5615
17.401 69.0419
17.5815 58.0661
17.7622 59.8931
17.9428 71.2714
18.1237 137.172
18.3044 90.1646
18.4852 75.1546
18.666 59.3054
18.8469 57.1625
19.0278 55.6821
19.2088 58.1756
19.3898 74.6015
19.5709 53.294
19.752 52.3954
19.9332 54.9839
20.1144 68.6267
20.2957 63.8105
20.477 52.3868
20.6586 48.8246
20.84 47.9641
21.0215 47.5234
21.203 50.0623
21.3846 48.0281
21.5662 47.8686
21.7479 51.2659
21.9297 63.3036
22.1115 55.375
22.2933 48.8595
22.4753 47.816
22.6572 48.0071
22.8393 50.8865
23.0214 56.0106
23.2037 47.8795
23.3859 48.6619
23.5682 56.425
23.7505 47.3005
23.9329 44.3149
24.1154 43.43
24.2979 42.6072
24.4805 42.1909
24.6631 42.0634
24.8458 41.5591
25.0286 42.0233
25.2114 43.8399
25.3943 43.7756
25.5773 40.2185
25.7605 39.721
25.9436 40.0926
26.1268 40.8335
26.31 39.4197
26.4933 39.9806
26.6767 41.4346
26.8601 39.8834
27.0437 38.1394
27.2272 37.7132
27.4109 37.704
27.5946 37.7311
27.7784 37.0406
27.9623 37.7355
28.1462 38.041
28.3304 36.4724
28.5145 35.2907
28.6987 34.8971
28.8829 34.8302
29.0673 34.0961
29.2517 33.8391
29.4361 33.6052
29.6207 32.5442
29.8053 32.3645
29.99 31.9964
30.1748 31.9229
30.3597 31.6052
30.5447 31.5672
30.7297 31.6225
30.915 30.9824
31.1002 30.5614
31.2855 30.2669
31.4708 30.2962
31.6563 29.8646
31.8418 29.5659
32.0275 29.3574
32.2132 28.8568
32.399 28.3764
32.5848 27.9829
32.7708 27.6142
32.9569 27.475
33.143 27.3386
33.3293 26.9
33.5158 26.5618
33.7022 26.1599
33.8887 25.9556
34.0753 25.58
34.262 25.2125
34.4488 24.7885
34.6357 24.4363
34.8227 24.2186
35.0098 24.0723
35.1969 23.7702
35.3842 23.6035
35.5716 23.3418
35.759 23.0376
35.9468 22.757
36.1345 22.5591
36.3222 22.2414
36.5101 22.0567
36.6981 21.6916
36.8861 21.4402
37.0743 21.1221
37.2626 20.8923
37.451 20.6722
37.6395 20.4895
37.8281 20.1685
38.0168 19.8653
38.2056 19.5871
38.3945 19.3464
38.5837 19.0775
38.7728 18.8302
38.9621 18.6044
39.1514 18.3501
39.3409 18.0839
39.5304 17.9721
39.7201 17.7674
39.9099 17.5257
40.0999 17.269
40.2899 17.0661
40.48 16.7895
40.6703 16.6926
40.8607 16.4672
41.0512 16.2022
41.242 16.0069
41.4327 15.7942
41.6236 15.5098
41.8146 15.3621
42.0057 15.1576
42.1969 14.9491
42.3882 14.7895
42.5797 14.5807
42.7713 14.4006
42.963 14.154
43.1549 13.9764
43.3468 13.8051
43.5389 13.6206
43.7312 13.4521
43.9237 13.252
44.1162 13.0416
44.3088 12.8574
44.5016 12.6823
44.6945 12.5033
44.8875 12.3285
45.0806 12.2143
45.2739 11.983
45.4673 11.8465
45.6609 11.6542
45.8546 11.5369
46.0484 11.3299
46.2424 11.165
46.4365 11.0245
46.631 10.8193
46.8254 10.6957
47.0199 10.5613
47.2146 10.3903
47.4095 10.247
47.6044 10.0918
47.7996 9.9188
47.9948 9.77179
48.1902 9.63004
48.3858 9.49923
48.5815 9.34405
48.7774 9.26555
48.9734 9.05301
49.1696 8.94785
49.3661 8.82897
49.5626 8.65408
49.7592 8.57496
49.956 8.41774
50.153 8.28778
50.3501 8.17525
50.5474 8.04269
50.7448 7.93639
50.9424 7.80472
51.1402 7.68884
51.3381 7.52646
51.5362 7.42105
51.7344 7.28632
51.9328 7.15148
52.1316 7.05689
52.3304 6.96307
52.5293 6.81619
52.7284 6.73317
52.9276 6.61969
53.1271 6.50817
53.3267 6.39192
53.5265 6.29699
53.7264 6.16317
53.9266 6.07243
54.1269 5.93984
54.3274 5.82588
54.528 5.7078
54.7289 5.57466
54.9301 5.39908
55.1314 5.26445
55.3328 5.03148
55.5344 4.90416
55.7361 4.71891