File: XRD/Ni3Fe_FD0729.xy
TT I
1.27165 7.05241
1.45013 6.06763
1.62863 4.84913
1.80712 5.3102
1.98562 4.88467
2.16411 4.5931
2.34263 5.16323
2.52115 7.36712
2.69965 7.54517
2.87818 8.66229
3.05672 10.9136
3.23527 15.3632
3.4138 19.0783
3.59237 23.649
3.77094 26.3988
3.9495 29.7111
4.12809 34.9087
4.30669 195.75
4.4853 62.7008
4.6639 55.4744
4.84253 66.649
5.02118 86.4087
5.19981 325.639
5.37848 185.871
5.55716 101.7
5.73586 91.9943
5.91455 92.69
6.09328 4504.98
6.27201 81.9059
6.45075 67.0787
6.62952 62.447
6.8083 58.4829
6.98711 55.4406
7.16591 55.254
7.34475 86.6883
7.5236 54.6508
7.70247 55.6061
7.88135 57.8382
8.06026 61.7591
8.23919 69.1908
8.41812 83.9046
8.59709 1177.17
8.77609 98.3419
8.9551 90.1972
9.13412 81.8034
9.31318 82.1833
9.49226 83.9366
9.67134 97.0366
9.85047 99.1652
10.0296 332.401
10.2088 416.12
10.388 104.077
10.5672 515.796
10.7465 86.1015
10.9257 77.9032
11.105 71.1111
11.2844 69.7837
11.4637 64.8323
11.6431 63.2381
11.8225 62.3608
12.002 63.094
12.1814 154.508
12.3609 69.9327
12.5405 64.17
12.72 69.2826
12.8996 70.7767
13.0792 78.4384
13.2589 240.265
13.4386 126.598
13.6183 248.93
13.7981 97.6274
13.9779 75.6363
14.1577 72.0395
14.3376 70.9661
14.5175 68.524
14.6974 69.7613
14.8774 110.421
15.0574 149.571
15.2374 70.2927
15.4175 66.1439
15.5976 65.3716
15.7778 93.9919
15.958 154.116
16.1382 62.2215
16.3185 58.3337
16.4988 55.3957
16.6792 54.1821
16.8596 54.9386
17.04 55.3911
17.2205 66.3832
17.401 70.8016
17.5815 58.8647
17.7622 61.0879
17.9428 73.0374
18.1237 139.324
18.3044 90.9605
18.4852 77.6713
18.666 60.1036
18.8469 57.6607
19.0278 56.5452
19.2088 59.3866
19.3898 75.871
19.5709 53.9928
19.752 53.1519
19.9332 55.8211
20.1144 69.6173
20.2957 63.9046
20.477 53.7323
20.6586 49.6267
20.84 48.7131
21.0215 48.3867
21.203 50.8087
21.3846 48.6987
21.5662 48.5741
21.7479 52.5237
21.9297 64.4377
22.1115 55.9629
22.2933 49.7362
22.4753 48.6945
22.6572 48.6433
22.8393 51.9963
23.0214 57.002
23.2037 48.5284
23.3859 49.4784
23.5682 56.891
23.7505 48.3558
23.9329 45.0126
24.1154 44.0023
24.2979 43.3094
24.4805 42.8603
24.6631 42.6948
24.8458 42.0433
25.0286 42.6502
25.2114 44.5001
25.3943 44.3412
25.5773 40.8344
25.7605 40.3533
25.9436 40.8089
26.1268 41.5383
26.31 39.8242
26.4933 40.6253
26.6767 41.9617
26.8601 40.3594
27.0437 38.7375
27.2272 38.4286
27.4109 38.2577
27.5946 38.177
27.7784 37.915
27.9623 38.3571
28.1462 38.6521
28.3304 37.0931
28.5145 35.8124
28.6987 35.5409
28.8829 35.3329
29.0673 34.6503
29.2517 34.2781
29.4361 34.1373
29.6207 33.2194
29.8053 32.7756
29.99 32.5718
30.1748 32.3641
30.3597 32.2279
30.5447 32.1493
30.7297 32.1697
30.915 31.4549
31.1002 31.0806
31.2855 30.7104
31.4708 30.8308
31.6563 30.2285
31.8418 30.1674
32.0275 29.856
32.2132 29.3262
32.399 28.8932
32.5848 28.4186
32.7708 28.0595
32.9569 27.9653
33.143 27.8544
33.3293 27.3822
33.5158 26.9063
33.7022 26.4492
33.8887 26.2034
34.0753 26.014
34.262 25.6189
34.4488 25.2829
34.6357 24.9959
34.8227 24.6586
35.0098 24.4352
35.1969 24.1021
35.3842 23.93
35.5716 23.6572
35.759 23.4221
35.9468 23.0133
36.1345 22.7898
36.3222 22.5988
36.5101 22.3501
36.6981 22.072
36.8861 21.8302
37.0743 21.4375
37.2626 21.1937
37.451 20.9502
37.6395 20.7237
37.8281 20.4247
38.0168 20.1459
38.2056 19.9135
38.3945 19.6895
38.5837 19.4232
38.7728 19.1289
38.9621 18.8664
39.1514 18.6564
39.3409 18.4224
39.5304 18.1962
39.7201 18.0429
39.9099 17.8335
40.0999 17.5181
40.2899 17.3465
40.48 17.0977
40.6703 16.9231
40.8607 16.7474
41.0512 16.4595
41.242 16.2188
41.4327 16.0168
41.6236 15.7613
41.8146 15.6796
42.0057 15.3556
42.1969 15.1595
42.3882 14.9891
42.5797 14.7412
42.7713 14.6293
42.963 14.3549
43.1549 14.2159
43.3468 13.9586
43.5389 13.8589
43.7312 13.6094
43.9237 13.421
44.1162 13.2121
44.3088 13.0308
44.5016 12.8627
44.6945 12.7193
44.8875 12.5451
45.0806 12.3351
45.2739 12.1847
45.4673 12.005
45.6609 11.8353
45.8546 11.6829
46.0484 11.513
46.2424 11.3446
46.4365 11.2025
46.631 10.9552
46.8254 10.8168
47.0199 10.7071
47.2146 10.5656
47.4095 10.3578
47.6044 10.2077
47.7996 10.041
47.9948 9.9277
48.1902 9.81427
48.3858 9.66331
48.5815 9.49724
48.7774 9.3889
48.9734 9.21347
49.1696 9.0905
49.3661 8.96486
49.5626 8.78505
49.7592 8.66121
49.956 8.54191
50.153 8.40554
50.3501 8.28644
50.5474 8.16601
50.7448 8.01648
50.9424 7.92759
51.1402 7.78847
51.3381 7.64206
51.5362 7.54605
51.7344 7.44337
51.9328 7.32288
52.1316 7.17988
52.3304 7.03539
52.5293 6.91611
52.7284 6.83855
52.9276 6.71467
53.1271 6.58902
53.3267 6.50547
53.5265 6.34945
53.7264 6.29342
53.9266 6.13378
54.1269 6.02108
54.3274 5.90816
54.528 5.80378
54.7289 5.60182
54.9301 5.45231
55.1314 5.33657
55.3328 5.10151
55.5344 4.95886
55.7361 4.88562