File: XRD/Ni3Fe_FD0180.xy
TT I
1.27165 7.82298
1.45013 6.25625
1.62863 5.34172
1.80712 4.75253
1.98562 4.52103
2.16411 4.29032
2.34263 4.01999
2.52115 5.34107
2.69965 6.07446
2.87818 7.77199
3.05672 11.6906
3.23527 15.2335
3.4138 18.5288
3.59237 21.7499
3.77094 25.1141
3.9495 28.7947
4.12809 33.4738
4.30669 38.3492
4.4853 44.7952
4.6639 54.1164
4.84253 66.6634
5.02118 91.3024
5.19981 523.556
5.37848 406.126
5.55716 107.831
5.73586 95.7644
5.91455 105.036
6.09328 2879.17
6.27201 88.753
6.45075 66.7083
6.62952 59.8862
6.8083 56.0099
6.98711 53.8356
7.16591 52.8045
7.34475 52.4713
7.5236 55.5452
7.70247 54.4687
7.88135 56.7687
8.06026 60.8724
8.23919 68.2483
8.41812 84.0428
8.59709 923.706
8.77609 114.806
8.9551 85.6463
9.13412 81.7252
9.31318 85.9195
9.49226 84.4009
9.67134 89.1967
9.85047 99.5247
10.0296 535.12
10.2088 932.836
10.388 104.969
10.5672 346.624
10.7465 90.6615
10.9257 76.5588
11.105 70.7853
11.2844 66.9309
11.4637 63.9819
11.6431 62.5649
11.8225 61.2985
12.002 65.0883
12.1814 121.802
12.3609 73.3144
12.5405 63.5178
12.72 65.6329
12.8996 70.3405
13.0792 79.4265
13.2589 209.97
13.4386 201.299
13.6183 199.734
13.7981 149.488
13.9779 76.7339
14.1577 74.0657
14.3376 69.5142
14.5175 68.7414
14.6974 70.2462
14.8774 121.463
15.0574 205.24
15.2374 69.5675
15.4175 66.492
15.5976 66.2184
15.7778 107.593
15.958 187.363
16.1382 62.0932
16.3185 57.6247
16.4988 55.5005
16.6792 54.3855
16.8596 54.6797
17.04 55.8732
17.2205 65.9952
17.401 81.4587
17.5815 59.5149
17.7622 61.8082
17.9428 83.8608
18.1237 118.848
18.3044 89.4008
18.4852 94.5883
18.666 61.386
18.8469 58.6543
19.0278 57.1114
19.2088 61.9652
19.3898 70.2911
19.5709 56.5077
19.752 53.7818
19.9332 58.6598
20.1144 68.1748
20.2957 61.8633
20.477 59.0128
20.6586 50.0905
20.84 49.4904
21.0215 49.3653
21.203 50.1748
21.3846 50.9396
21.5662 49.1943
21.7479 54.4066
21.9297 63.1596
22.1115 56.8374
22.2933 52.7735
22.4753 49.2844
22.6572 49.6219
22.8393 52.6463
23.0214 58.1551
23.2037 50.2301
23.3859 52.0402
23.5682 54.4777
23.7505 53.0945
23.9329 45.9588
24.1154 44.7992
24.2979 44.1889
24.4805 43.4432
24.6631 43.6118
24.8458 42.8231
25.0286 43.4058
25.2114 45.0514
25.3943 45.4784
25.5773 42.0858
25.7605 41.0901
25.9436 41.3623
26.1268 42.2004
26.31 41.1739
26.4933 41.5077
26.6767 42.5171
26.8601 41.7032
27.0437 39.7971
27.2272 39.3976
27.4109 38.9542
27.5946 39.1205
27.7784 38.8695
27.9623 38.9082
28.1462 39.8183
28.3304 38.3649
28.5145 36.6899
28.6987 36.2843
28.8829 35.9451
29.0673 35.502
29.2517 34.8231
29.4361 34.7556
29.6207 33.8625
29.8053 33.3622
29.99 33.1155
30.1748 32.8971
30.3597 32.8762
30.5447 32.7427
30.7297 32.6833
30.915 32.4019
31.1002 31.746
31.2855 31.4324
31.4708 31.2457
31.6563 31.114
31.8418 30.7174
32.0275 30.5129
32.2132 30.0033
32.399 29.4591
32.5848 29.0445
32.7708 28.6622
32.9569 28.5572
33.143 28.2146
33.3293 27.9321
33.5158 27.6035
33.7022 27.1421
33.8887 26.7393
34.0753 26.4616
34.262 26.0662
34.4488 25.6951
34.6357 25.4162
34.8227 25.239
35.0098 24.9501
35.1969 24.5606
35.3842 24.3287
35.5716 24.217
35.759 23.9009
35.9468 23.512
36.1345 23.2239
36.3222 23.1314
36.5101 22.7831
36.6981 22.5019
36.8861 22.1662
37.0743 21.8818
37.2626 21.611
37.451 21.3789
37.6395 21.1841
37.8281 20.8267
38.0168 20.5793
38.2056 20.2499
38.3945 19.997
38.5837 19.811
38.7728 19.5762
38.9621 19.2751
39.1514 19.0574
39.3409 18.8445
39.5304 18.5816
39.7201 18.3854
39.9099 18.1789
40.0999 17.9231
40.2899 17.7341
40.48 17.4275
40.6703 17.2032
40.8607 17.0025
41.0512 16.7312
41.242 16.5256
41.4327 16.3722
41.6236 16.0575
41.8146 15.8736
42.0057 15.6521
42.1969 15.4564
42.3882 15.2854
42.5797 15.1049
42.7713 14.8777
42.963 14.628
43.1549 14.4458
43.3468 14.2488
43.5389 13.9751
43.7312 13.8567
43.9237 13.7027
44.1162 13.4758
44.3088 13.291
44.5016 13.1306
44.6945 12.901
44.8875 12.7155
45.0806 12.5701
45.2739 12.3743
45.4673 12.2241
45.6609 12.0609
45.8546 11.9078
46.0484 11.7334
46.2424 11.5448
46.4365 11.4265
46.631 11.2078
46.8254 10.9917
47.0199 10.8753
47.2146 10.7443
47.4095 10.5645
47.6044 10.3841
47.7996 10.2554
47.9948 10.0755
48.1902 9.94095
48.3858 9.8185
48.5815 9.6565
48.7774 9.55563
48.9734 9.39685
49.1696 9.24732
49.3661 9.14758
49.5626 8.94241
49.7592 8.85599
49.956 8.72565
50.153 8.58806
50.3501 8.43464
50.5474 8.32756
50.7448 8.24014
50.9424 8.07473
51.1402 7.93636
51.3381 7.79827
51.5362 7.68941
51.7344 7.55049
51.9328 7.4186
52.1316 7.2902
52.3304 7.18961
52.5293 7.06901
52.7284 6.94468
52.9276 6.85025
53.1271 6.73524
53.3267 6.59918
53.5265 6.43888
53.7264 6.40575
53.9266 6.26119
54.1269 6.19208
54.3274 6.02919
54.528 5.83384
54.7289 5.71375
54.9301 5.529
55.1314 5.38056
55.3328 5.13852
55.5344 4.98246
55.7361 4.82252