File: XRD/Ni3Fe_FD0758.xy
TT I
1.27165 6.72362
1.45013 6.49984
1.62863 4.87207
1.80712 4.75137
1.98562 4.70625
2.16411 5.44966
2.34263 5.64669
2.52115 7.04103
2.69965 8.77467
2.87818 9.01191
3.05672 10.9084
3.23527 15.071
3.4138 19.0732
3.59237 24.2771
3.77094 26.2607
3.9495 29.2903
4.12809 34.7634
4.30669 258.309
4.4853 69.3534
4.6639 54.7647
4.84253 66.3236
5.02118 84.9864
5.19981 301.66
5.37848 188.88
5.55716 100.83
5.73586 90.4227
5.91455 91.7509
6.09328 4309.04
6.27201 82.5552
6.45075 67.048
6.62952 62.6536
6.8083 58.4658
6.98711 55.4515
7.16591 55.1061
7.34475 100.632
7.5236 54.683
7.70247 55.8061
7.88135 56.992
8.06026 61.4442
8.23919 68.6472
8.41812 84.3882
8.59709 1094.72
8.77609 98.7295
8.9551 91.9804
9.13412 81.0509
9.31318 81.6266
9.49226 83.7367
9.67134 99.0562
9.85047 98.6722
10.0296 302.028
10.2088 409.551
10.388 103.749
10.5672 510.572
10.7465 85.8073
10.9257 77.9562
11.105 71.5782
11.2844 70.1598
11.4637 64.0828
11.6431 63.1689
11.8225 62.0266
12.002 62.8347
12.1814 147.411
12.3609 71.3538
12.5405 63.9369
12.72 70.4831
12.8996 70.1543
13.0792 77.6713
13.2589 226.039
13.4386 127.547
13.6183 237.131
13.7981 98.7501
13.9779 75.1169
14.1577 71.9366
14.3376 71.652
14.5175 68.0647
14.6974 69.5701
14.8774 105.349
15.0574 152.434
15.2374 70.9889
15.4175 65.491
15.5976 65.1734
15.7778 90.573
15.958 158.209
16.1382 62.7545
16.3185 58.5608
16.4988 54.9791
16.6792 54.0709
16.8596 54.7232
17.04 55.171
17.2205 65.6129
17.401 71.2869
17.5815 58.7999
17.7622 60.5295
17.9428 71.6765
18.1237 138.286
18.3044 88.7731
18.4852 78.0152
18.666 59.8448
18.8469 57.5257
19.0278 56.5738
19.2088 58.6151
19.3898 76.6212
19.5709 53.7945
19.752 52.7938
19.9332 55.4027
20.1144 69.0668
20.2957 63.3443
20.477 53.3935
20.6586 49.3009
20.84 48.4598
21.0215 48.1563
21.203 50.3664
21.3846 48.588
21.5662 48.3536
21.7479 51.7346
21.9297 64.2545
22.1115 55.4994
22.2933 49.5616
22.4753 48.6429
22.6572 48.3256
22.8393 51.2509
23.0214 57.1128
23.2037 48.4888
23.3859 49.0797
23.5682 56.5602
23.7505 48.1705
23.9329 44.7072
24.1154 43.8286
24.2979 43.0803
24.4805 42.498
24.6631 42.5396
24.8458 41.8778
25.0286 42.3563
25.2114 44.1854
25.3943 44.4163
25.5773 40.6044
25.7605 40.1192
25.9436 40.5361
26.1268 41.3475
26.31 39.6993
26.4933 40.3646
26.6767 41.9111
26.8601 40.1714
27.0437 38.5705
27.2272 38.2907
27.4109 38.0726
27.5946 38.1808
27.7784 37.437
27.9623 38.0225
28.1462 38.6088
28.3304 36.9823
28.5145 35.7395
28.6987 35.3499
28.8829 35.2842
29.0673 34.4241
29.2517 34.1086
29.4361 33.8611
29.6207 32.9239
29.8053 32.6621
29.99 32.3921
30.1748 32.2467
30.3597 32.0111
30.5447 31.9394
30.7297 32.0329
30.915 31.4335
31.1002 30.9341
31.2855 30.6026
31.4708 30.5774
31.6563 30.1218
31.8418 29.9555
32.0275 29.6805
32.2132 29.1868
32.399 28.7074
32.5848 28.2743
32.7708 27.966
32.9569 27.7941
33.143 27.5625
33.3293 27.1933
33.5158 26.7961
33.7022 26.4465
33.8887 26.1464
34.0753 25.8566
34.262 25.5652
34.4488 25.1654
34.6357 24.7251
34.8227 24.4876
35.0098 24.2669
35.1969 23.9812
35.3842 23.8078
35.5716 23.5736
35.759 23.3406
35.9468 22.9588
36.1345 22.7445
36.3222 22.4656
36.5101 22.2416
36.6981 21.8813
36.8861 21.634
37.0743 21.3997
37.2626 21.1507
37.451 20.8523
37.6395 20.6882
37.8281 20.3719
38.0168 20.102
38.2056 19.7826
38.3945 19.5363
38.5837 19.3307
38.7728 19.0434
38.9621 18.928
39.1514 18.5676
39.3409 18.3342
39.5304 18.1327
39.7201 17.9659
39.9099 17.725
40.0999 17.5054
40.2899 17.25
40.48 17.0478
40.6703 16.7955
40.8607 16.6635
41.0512 16.4256
41.242 16.1831
41.4327 15.9718
41.6236 15.7565
41.8146 15.5761
42.0057 15.3478
42.1969 15.1393
42.3882 14.9179
42.5797 14.7327
42.7713 14.5514
42.963 14.3595
43.1549 14.1521
43.3468 13.9456
43.5389 13.7626
43.7312 13.5937
43.9237 13.3336
44.1162 13.2049
44.3088 12.9989
44.5016 12.8376
44.6945 12.7324
44.8875 12.4624
45.0806 12.297
45.2739 12.1182
45.4673 11.9502
45.6609 11.8246
45.8546 11.6359
46.0484 11.4517
46.2424 11.307
46.4365 11.1725
46.631 10.9557
46.8254 10.8181
47.0199 10.667
47.2146 10.5209
47.4095 10.3508
47.6044 10.2102
47.7996 10.0461
47.9948 9.91373
48.1902 9.74988
48.3858 9.60503
48.5815 9.45459
48.7774 9.33671
48.9734 9.23476
49.1696 9.03152
49.3661 8.90904
49.5626 8.77777
49.7592 8.65534
49.956 8.54567
50.153 8.39163
50.3501 8.26463
50.5474 8.10733
50.7448 8.01993
50.9424 7.88191
51.1402 7.78201
51.3381 7.62836
51.5362 7.49743
51.7344 7.38485
51.9328 7.27543
52.1316 7.10223
52.3304 7.07382
52.5293 6.95172
52.7284 6.83044
52.9276 6.68949
53.1271 6.59628
53.3267 6.43714
53.5265 6.36669
53.7264 6.24221
53.9266 6.14249
54.1269 6.02795
54.3274 5.91187
54.528 5.79577
54.7289 5.6365
54.9301 5.47117
55.1314 5.32392
55.3328 5.10934
55.5344 4.989
55.7361 4.7605