File: XRD/Ni3Fe_FD0760.xy
TT I
1.27165 7.28261
1.45013 6.37456
1.62863 5.27501
1.80712 4.96406
1.98562 4.5043
2.16411 5.60855
2.34263 5.2625
2.52115 6.74793
2.69965 8.42821
2.87818 8.87547
3.05672 11.0012
3.23527 15.3421
3.4138 19.0921
3.59237 24.2187
3.77094 26.1423
3.9495 29.8927
4.12809 34.8528
4.30669 260.388
4.4853 70.0629
4.6639 54.8364
4.84253 66.7202
5.02118 85.8043
5.19981 304.701
5.37848 188.242
5.55716 100.854
5.73586 90.9385
5.91455 91.6956
6.09328 4320.7
6.27201 82.666
6.45075 67.1214
6.62952 63.0168
6.8083 58.5395
6.98711 55.4286
7.16591 55.5301
7.34475 100.575
7.5236 54.8438
7.70247 55.8929
7.88135 57.7774
8.06026 61.8291
8.23919 68.812
8.41812 84.0495
8.59709 1095.22
8.77609 98.8258
8.9551 92.1852
9.13412 81.1243
9.31318 81.7417
9.49226 83.8331
9.67134 99.5421
9.85047 98.6079
10.0296 304.031
10.2088 407.644
10.388 103.98
10.5672 512.61
10.7465 86.1034
10.9257 78.158
11.105 71.3754
11.2844 70.9109
11.4637 64.4979
11.6431 63.4713
11.8225 62.2486
12.002 63.2008
12.1814 147.217
12.3609 71.6003
12.5405 63.99
12.72 70.2794
12.8996 70.3576
13.0792 77.9786
13.2589 225.651
13.4386 126.96
13.6183 238.192
13.7981 98.5709
13.9779 75.2349
14.1577 72.2302
14.3376 71.4312
14.5175 68.3963
14.6974 69.9027
14.8774 105.409
15.0574 152.375
15.2374 71.2549
15.4175 66.0678
15.5976 65.0737
15.7778 91.1319
15.958 158.795
16.1382 62.7908
16.3185 58.5647
16.4988 55.1732
16.6792 54.106
16.8596 55.0933
17.04 55.2659
17.2205 65.708
17.401 71.0502
17.5815 58.6098
17.7622 60.6534
17.9428 71.9822
18.1237 138.861
18.3044 88.9709
18.4852 78.2189
18.666 60.0414
18.8469 57.6679
19.0278 56.5838
19.2088 58.7995
19.3898 76.9452
19.5709 53.8087
19.752 52.8597
19.9332 55.5146
20.1144 69.2679
20.2957 63.5245
20.477 53.5385
20.6586 49.3205
20.84 48.4944
21.0215 48.1665
21.203 50.5564
21.3846 48.6961
21.5662 48.3576
21.7479 51.7414
21.9297 64.2889
22.1115 55.7892
22.2933 49.7097
22.4753 48.6085
22.6572 48.3765
22.8393 51.185
23.0214 57.3076
23.2037 48.357
23.3859 49.1215
23.5682 56.5654
23.7505 48.1054
23.9329 44.8588
24.1154 43.7858
24.2979 43.2064
24.4805 42.5763
24.6631 42.6292
24.8458 42.0502
25.0286 42.4301
25.2114 44.3765
25.3943 44.4546
25.5773 40.5714
25.7605 40.1355
25.9436 40.6917
26.1268 41.4048
26.31 39.8759
26.4933 40.347
26.6767 41.8668
26.8601 40.143
27.0437 38.736
27.2272 38.1987
27.4109 38.1843
27.5946 38.148
27.7784 37.6799
27.9623 38.142
28.1462 38.6333
28.3304 36.9879
28.5145 35.698
28.6987 35.5023
28.8829 35.216
29.0673 34.417
29.2517 34.1575
29.4361 33.9591
29.6207 33.0436
29.8053 32.7753
29.99 32.4632
30.1748 32.3148
30.3597 32.1077
30.5447 31.9563
30.7297 32.0276
30.915 31.497
31.1002 30.9102
31.2855 30.6134
31.4708 30.6449
31.6563 30.0707
31.8418 29.9705
32.0275 29.8088
32.2132 29.142
32.399 28.8259
32.5848 28.3267
32.7708 27.992
32.9569 27.8107
33.143 27.5698
33.3293 27.2713
33.5158 26.7933
33.7022 26.4218
33.8887 26.2398
34.0753 25.862
34.262 25.5286
34.4488 25.2393
34.6357 24.7922
34.8227 24.5639
35.0098 24.3368
35.1969 24.038
35.3842 23.8783
35.5716 23.5957
35.759 23.3212
35.9468 22.9382
36.1345 22.7829
36.3222 22.5259
36.5101 22.3179
36.6981 21.955
36.8861 21.7299
37.0743 21.4192
37.2626 21.1286
37.451 20.8899
37.6395 20.7078
37.8281 20.4318
38.0168 20.2339
38.2056 19.8644
38.3945 19.5927
38.5837 19.3604
38.7728 19.1478
38.9621 18.9162
39.1514 18.6154
39.3409 18.4139
39.5304 18.1596
39.7201 17.9401
39.9099 17.7358
40.0999 17.4844
40.2899 17.2823
40.48 17.0472
40.6703 16.8306
40.8607 16.59
41.0512 16.4394
41.242 16.1702
41.4327 15.9968
41.6236 15.7289
41.8146 15.5805
42.0057 15.3625
42.1969 15.1307
42.3882 15.0036
42.5797 14.745
42.7713 14.5885
42.963 14.3943
43.1549 14.139
43.3468 13.9376
43.5389 13.7737
43.7312 13.5629
43.9237 13.4101
44.1162 13.1744
44.3088 13.0006
44.5016 12.8062
44.6945 12.6665
44.8875 12.5021
45.0806 12.3464
45.2739 12.1452
45.4673 11.9646
45.6609 11.7948
45.8546 11.6704
46.0484 11.4583
46.2424 11.3263
46.4365 11.1807
46.631 10.9671
46.8254 10.8244
47.0199 10.6593
47.2146 10.5135
47.4095 10.3329
47.6044 10.1627
47.7996 10.0389
47.9948 9.87736
48.1902 9.76971
48.3858 9.60423
48.5815 9.48304
48.7774 9.34682
48.9734 9.2094
49.1696 9.09736
49.3661 8.94102
49.5626 8.77212
49.7592 8.65684
49.956 8.50949
50.153 8.37525
50.3501 8.25524
50.5474 8.12606
50.7448 8.00985
50.9424 7.89361
51.1402 7.77284
51.3381 7.66981
51.5362 7.52429
51.7344 7.39173
51.9328 7.24541
52.1316 7.09901
52.3304 7.03345
52.5293 6.93436
52.7284 6.78672
52.9276 6.66715
53.1271 6.5937
53.3267 6.48721
53.5265 6.33548
53.7264 6.23277
53.9266 6.15589
54.1269 6.00645
54.3274 5.92487
54.528 5.78834
54.7289 5.6187
54.9301 5.45704
55.1314 5.33662
55.3328 5.13323
55.5344 4.90636
55.7361 4.77425