File: XRD/Ni3Fe_FD0557.xy
TT I
1.27165 7.64354
1.45013 6.37497
1.62863 5.33359
1.80712 5.06313
1.98562 5.00816
2.16411 5.47108
2.34263 5.21764
2.52115 6.59998
2.69965 7.58998
2.87818 8.27712
3.05672 11.1094
3.23527 14.7933
3.4138 18.8078
3.59237 23.5004
3.77094 26.024
3.9495 29.4438
4.12809 34.4732
4.30669 162.675
4.4853 60.1786
4.6639 55.6886
4.84253 68.3381
5.02118 87.853
5.19981 418.963
5.37848 194.586
5.55716 103.088
5.73586 93.0073
5.91455 96.5781
6.09328 4439.1
6.27201 83.0277
6.45075 67.5143
6.62952 62.6789
6.8083 58.6439
6.98711 55.9407
7.16591 55.3675
7.34475 81.4691
7.5236 54.9101
7.70247 56.4036
7.88135 58.3268
8.06026 62.8535
8.23919 69.8856
8.41812 85.7612
8.59709 1225.86
8.77609 100.415
8.9551 90.3202
9.13412 82.4752
9.31318 83.4159
9.49226 84.9056
9.67134 96.6763
9.85047 100.346
10.0296 374.773
10.2088 384.665
10.388 105.281
10.5672 515.876
10.7465 86.9629
10.9257 78.3399
11.105 71.921
11.2844 69.8245
11.4637 65.356
11.6431 63.8393
11.8225 62.8461
12.002 64.5123
12.1814 155.576
12.3609 69.0956
12.5405 64.8999
12.72 69.5362
12.8996 71.3946
13.0792 80.1959
13.2589 247.8
13.4386 122.081
13.6183 252.988
13.7981 96.3726
13.9779 76.134
14.1577 72.7928
14.3376 71.669
14.5175 69.6539
14.6974 71.0289
14.8774 114.373
15.0574 145.714
15.2374 70.8771
15.4175 66.6931
15.5976 66.5592
15.7778 98.1451
15.958 154.429
16.1382 62.5341
16.3185 58.806
16.4988 55.9105
16.6792 54.8441
16.8596 55.4559
17.04 56.4501
17.2205 67.7007
17.401 71.3602
17.5815 59.6041
17.7622 61.8521
17.9428 75.2454
18.1237 141.076
18.3044 91.7798
18.4852 77.1062
18.666 60.916
18.8469 58.3029
19.0278 57.1416
19.2088 60.0002
19.3898 76.4862
19.5709 54.6454
19.752 53.6564
19.9332 56.973
20.1144 70.355
20.2957 64.3285
20.477 53.6543
20.6586 50.0226
20.84 49.2733
21.0215 48.977
21.203 51.1552
21.3846 49.2329
21.5662 49.39
21.7479 53.3657
21.9297 65.0157
22.1115 56.2597
22.2933 50.2687
22.4753 49.1444
22.6572 49.2253
22.8393 52.4738
23.0214 57.7128
23.2037 49.113
23.3859 50.2305
23.5682 57.3091
23.7505 48.3722
23.9329 45.4811
24.1154 44.4815
24.2979 43.7062
24.4805 43.159
24.6631 43.0792
24.8458 42.4628
25.0286 43.213
25.2114 44.9962
25.3943 44.902
25.5773 41.2236
25.7605 40.7358
25.9436 40.9871
26.1268 41.9749
26.31 40.3714
26.4933 41.1613
26.6767 42.4213
26.8601 40.5149
27.0437 39.1038
27.2272 38.673
27.4109 38.7112
27.5946 38.5334
27.7784 37.9951
27.9623 38.5597
28.1462 38.9509
28.3304 37.3476
28.5145 36.1372
28.6987 35.8003
28.8829 35.5903
29.0673 34.8777
29.2517 34.6118
29.4361 34.3503
29.6207 33.3341
29.8053 33.0392
29.99 32.8022
30.1748 32.6368
30.3597 32.5385
30.5447 32.3615
30.7297 32.4506
30.915 31.7795
31.1002 31.2897
31.2855 31.1208
31.4708 30.9976
31.6563 30.5619
31.8418 30.2408
32.0275 30.0049
32.2132 29.524
32.399 29.045
32.5848 28.6577
32.7708 28.3111
32.9569 28.1051
33.143 27.9572
33.3293 27.4503
33.5158 27.138
33.7022 26.7899
33.8887 26.4524
34.0753 26.0906
34.262 25.7347
34.4488 25.3978
34.6357 25.122
34.8227 24.7581
35.0098 24.5704
35.1969 24.3238
35.3842 24.0635
35.5716 23.9752
35.759 23.6145
35.9468 23.2921
36.1345 22.9833
36.3222 22.78
36.5101 22.6329
36.6981 22.2241
36.8861 21.8875
37.0743 21.6002
37.2626 21.4225
37.451 21.0768
37.6395 20.8974
37.8281 20.5704
38.0168 20.3287
38.2056 20.0341
38.3945 19.7875
38.5837 19.5175
38.7728 19.3461
38.9621 19.0532
39.1514 18.8305
39.3409 18.59
39.5304 18.4128
39.7201 18.1568
39.9099 17.9378
40.0999 17.6748
40.2899 17.413
40.48 17.2529
40.6703 16.9816
40.8607 16.8853
41.0512 16.5735
41.242 16.3822
41.4327 16.1376
41.6236 15.8762
41.8146 15.7308
42.0057 15.5054
42.1969 15.3092
42.3882 15.1588
42.5797 14.8807
42.7713 14.6697
42.963 14.5208
43.1549 14.2884
43.3468 14.1009
43.5389 13.8956
43.7312 13.7097
43.9237 13.5352
44.1162 13.3781
44.3088 13.1551
44.5016 12.9414
44.6945 12.7876
44.8875 12.5758
45.0806 12.4527
45.2739 12.2812
45.4673 12.1241
45.6609 11.9026
45.8546 11.7691
46.0484 11.6035
46.2424 11.4223
46.4365 11.2821
46.631 11.0986
46.8254 10.9379
47.0199 10.7771
47.2146 10.5964
47.4095 10.4716
47.6044 10.3052
47.7996 10.1541
47.9948 9.97275
48.1902 9.87211
48.3858 9.7308
48.5815 9.58821
48.7774 9.44757
48.9734 9.2713
49.1696 9.16345
49.3661 9.02438
49.5626 8.85482
49.7592 8.74252
49.956 8.61437
50.153 8.48943
50.3501 8.32165
50.5474 8.20268
50.7448 8.07818
50.9424 7.95497
51.1402 7.83633
51.3381 7.70984
51.5362 7.61731
51.7344 7.48604
51.9328 7.34441
52.1316 7.19426
52.3304 7.11193
52.5293 6.95611
52.7284 6.89238
52.9276 6.75831
53.1271 6.67291
53.3267 6.54391
53.5265 6.41614
53.7264 6.35679
53.9266 6.19796
54.1269 6.06895
54.3274 5.973
54.528 5.83645
54.7289 5.62145
54.9301 5.48384
55.1314 5.36427
55.3328 5.18226
55.5344 5.00047
55.7361 4.77753