File: XRD/Ni3Fe_FD0561.xy
TT I
1.27165 7.52454
1.45013 6.71357
1.62863 5.93923
1.80712 4.7313
1.98562 4.90614
2.16411 4.54576
2.34263 5.46697
2.52115 6.36644
2.69965 7.93768
2.87818 8.06473
3.05672 11.107
3.23527 15.061
3.4138 19.2873
3.59237 23.5286
3.77094 26.0186
3.9495 30.0315
4.12809 34.7555
4.30669 152.61
4.4853 59.0138
4.6639 55.9014
4.84253 68.4048
5.02118 88.6553
5.19981 430.419
5.37848 198.556
5.55716 103.646
5.73586 93.3091
5.91455 96.8152
6.09328 4448.84
6.27201 82.9161
6.45075 67.8967
6.62952 62.5627
6.8083 58.3922
6.98711 56.2449
7.16591 55.4151
7.34475 79.5462
7.5236 54.7171
7.70247 56.3634
7.88135 57.987
8.06026 62.7519
8.23919 69.9754
8.41812 85.8468
8.59709 1227.42
8.77609 100.254
8.9551 90.0449
9.13412 82.7504
9.31318 83.1526
9.49226 85.1535
9.67134 96.6126
9.85047 100.955
10.0296 377.825
10.2088 387.186
10.388 105.991
10.5672 519.024
10.7465 86.8508
10.9257 78.5861
11.105 71.8541
11.2844 69.8464
11.4637 65.2163
11.6431 64.1067
11.8225 62.6544
12.002 64.3219
12.1814 155.447
12.3609 68.8836
12.5405 64.9076
12.72 69.1438
12.8996 71.6797
13.0792 80.3097
13.2589 248.437
13.4386 122.609
13.6183 254.738
13.7981 96.9392
13.9779 76.283
14.1577 72.5469
14.3376 71.2208
14.5175 69.3334
14.6974 71.0688
14.8774 115.248
15.0574 143.894
15.2374 70.7699
15.4175 66.8303
15.5976 66.5242
15.7778 98.5138
15.958 152.558
16.1382 62.5917
16.3185 58.6037
16.4988 55.8347
16.6792 54.6789
16.8596 55.3031
17.04 56.3048
17.2205 67.7722
17.401 71.0519
17.5815 59.6948
17.7622 61.5383
17.9428 75.3571
18.1237 141.807
18.3044 91.8085
18.4852 77.055
18.666 60.7119
18.8469 58.3969
19.0278 57.1958
19.2088 60.1871
19.3898 76.2529
19.5709 54.4779
19.752 53.6353
19.9332 56.9879
20.1144 70.3283
20.2957 64.0575
20.477 53.6915
20.6586 49.9769
20.84 49.2691
21.0215 48.8745
21.203 51.2785
21.3846 49.2757
21.5662 49.4136
21.7479 53.3454
21.9297 65.1072
22.1115 56.47
22.2933 50.1576
22.4753 49.1196
22.6572 49.2839
22.8393 52.473
23.0214 57.5895
23.2037 48.9258
23.3859 50.14
23.5682 57.4148
23.7505 48.4225
23.9329 45.5728
24.1154 44.3823
24.2979 43.7184
24.4805 43.1224
24.6631 43.1034
24.8458 42.6012
25.0286 43.4033
25.2114 45.0351
25.3943 44.8641
25.5773 41.0596
25.7605 40.5923
25.9436 41.1863
26.1268 41.9357
26.31 40.4656
26.4933 41.0449
26.6767 42.4361
26.8601 40.7298
27.0437 39.1061
27.2272 38.7735
27.4109 38.6755
27.5946 38.6723
27.7784 38.2134
27.9623 38.7372
28.1462 39.0742
28.3304 37.5589
28.5145 36.243
28.6987 35.9107
28.8829 35.6924
29.0673 34.9455
29.2517 34.605
29.4361 34.4545
29.6207 33.3023
29.8053 33.1861
29.99 32.8157
30.1748 32.5805
30.3597 32.5488
30.5447 32.4643
30.7297 32.3207
30.915 31.8052
31.1002 31.4541
31.2855 31.0959
31.4708 31.0587
31.6563 30.4982
31.8418 30.3318
32.0275 30.1085
32.2132 29.5713
32.399 29.1072
32.5848 28.6928
32.7708 28.2572
32.9569 28.1197
33.143 27.9027
33.3293 27.5356
33.5158 27.3004
33.7022 26.7341
33.8887 26.5367
34.0753 26.1432
34.262 25.7878
34.4488 25.4357
34.6357 25.1285
34.8227 24.8186
35.0098 24.6559
35.1969 24.3737
35.3842 24.0995
35.5716 23.9021
35.759 23.6293
35.9468 23.2713
36.1345 23.0444
36.3222 22.7962
36.5101 22.5644
36.6981 22.2108
36.8861 21.894
37.0743 21.5506
37.2626 21.4213
37.451 21.1388
37.6395 20.9468
37.8281 20.5609
38.0168 20.3392
38.2056 20.0959
38.3945 19.7617
38.5837 19.5433
38.7728 19.3813
38.9621 19.0977
39.1514 18.8501
39.3409 18.5696
39.5304 18.4408
39.7201 18.1687
39.9099 17.9766
40.0999 17.6588
40.2899 17.4123
40.48 17.2166
40.6703 17.0422
40.8607 16.8487
41.0512 16.6141
41.242 16.3613
41.4327 16.1095
41.6236 15.9411
41.8146 15.742
42.0057 15.5078
42.1969 15.3078
42.3882 15.1156
42.5797 14.9215
42.7713 14.7206
42.963 14.5009
43.1549 14.2869
43.3468 14.0952
43.5389 13.9182
43.7312 13.6998
43.9237 13.5143
44.1162 13.2827
44.3088 13.1503
44.5016 12.9382
44.6945 12.8026
44.8875 12.6202
45.0806 12.417
45.2739 12.2618
45.4673 12.1249
45.6609 11.9384
45.8546 11.7648
46.0484 11.6152
46.2424 11.4482
46.4365 11.256
46.631 11.0979
46.8254 10.8949
47.0199 10.767
47.2146 10.6201
47.4095 10.4698
47.6044 10.3031
47.7996 10.1569
47.9948 9.99902
48.1902 9.82579
48.3858 9.71304
48.5815 9.57697
48.7774 9.47688
48.9734 9.30544
49.1696 9.15049
49.3661 9.00909
49.5626 8.88084
49.7592 8.77782
49.956 8.65405
50.153 8.44203
50.3501 8.34779
50.5474 8.17475
50.7448 8.11563
50.9424 7.96479
51.1402 7.85042
51.3381 7.72331
51.5362 7.58608
51.7344 7.48719
51.9328 7.30658
52.1316 7.22967
52.3304 7.1105
52.5293 6.98872
52.7284 6.90069
52.9276 6.77701
53.1271 6.71968
53.3267 6.51846
53.5265 6.40409
53.7264 6.28595
53.9266 6.16927
54.1269 6.07198
54.3274 5.97683
54.528 5.83682
54.7289 5.66801
54.9301 5.53565
55.1314 5.3688
55.3328 5.14537
55.5344 5.00482
55.7361 4.87323