File: XRD/Ni3Fe_FD0316.xy
TT I
1.27165 7.57486
1.45013 6.12116
1.62863 5.44251
1.80712 4.96585
1.98562 4.85143
2.16411 5.25087
2.34263 4.66239
2.52115 5.883
2.69965 7.26541
2.87818 7.85029
3.05672 11.6388
3.23527 15.4524
3.4138 18.6912
3.59237 24.6566
3.77094 26.3865
3.9495 30.4064
4.12809 35.9888
4.30669 240.694
4.4853 68.9207
4.6639 57.0847
4.84253 69.3134
5.02118 91.463
5.19981 510.067
5.37848 233.969
5.55716 106.239
5.73586 96.0965
5.91455 100.432
6.09328 3911.04
6.27201 87.6803
6.45075 69.8292
6.62952 65.1705
6.8083 61.1534
6.98711 57.9102
7.16591 57.3098
7.34475 98.3311
7.5236 56.4812
7.70247 57.8045
7.88135 59.426
8.06026 64.2823
8.23919 71.8786
8.41812 89.4235
8.59709 1097.26
8.77609 105.907
8.9551 95.3784
9.13412 84.3673
9.31318 85.6123
9.49226 87.0621
9.67134 102.764
9.85047 103.557
10.0296 391.19
10.2088 508.913
10.388 109.201
10.5672 475.427
10.7465 89.9738
10.9257 81.096
11.105 74.3978
11.2844 72.9794
11.4637 67.0367
11.6431 65.3733
11.8225 64.5023
12.002 66.0704
12.1814 146.052
12.3609 74.0871
12.5405 66.6811
12.72 72.7835
12.8996 73.2816
13.0792 81.8787
13.2589 230.066
13.4386 137.419
13.6183 232.112
13.7981 105.682
13.9779 78.3198
14.1577 74.676
14.3376 74.3418
14.5175 70.977
14.6974 72.899
14.8774 113.211
15.0574 161.121
15.2374 73.5592
15.4175 68.6385
15.5976 67.9879
15.7778 97.805
15.958 171.846
16.1382 65.1017
16.3185 60.8772
16.4988 57.3929
16.6792 56.4994
16.8596 57.2012
17.04 57.9357
17.2205 68.0473
17.401 75.0268
17.5815 60.9266
17.7622 63.3029
17.9428 77.5857
18.1237 140.051
18.3044 90.5245
18.4852 82.0512
18.666 62.3407
18.8469 60.0293
19.0278 58.8942
19.2088 61.6847
19.3898 78.3295
19.5709 56.0942
19.752 54.9728
19.9332 58.1546
20.1144 71.6109
20.2957 64.4153
20.477 55.8829
20.6586 51.2774
20.84 50.5187
21.0215 50.4061
21.203 52.1374
21.3846 50.7739
21.5662 50.4254
21.7479 54.3802
21.9297 66.2221
22.1115 57.5246
22.2933 51.7665
22.4753 50.547
22.6572 50.5155
22.8393 53.3337
23.0214 59.4722
23.2037 50.5425
23.3859 51.46
23.5682 57.6346
23.7505 50.2213
23.9329 46.7238
24.1154 45.5499
24.2979 44.9634
24.4805 44.2788
24.6631 44.3229
24.8458 43.6871
25.0286 44.09
25.2114 46.1386
25.3943 46.2456
25.5773 42.5639
25.7605 41.843
25.9436 42.0952
26.1268 43.0481
26.31 41.5225
26.4933 42.0093
26.6767 43.5606
26.8601 41.7941
27.0437 40.1855
27.2272 39.7918
27.4109 39.5925
27.5946 39.7254
27.7784 39.1974
27.9623 39.5094
28.1462 40.1431
28.3304 38.3901
28.5145 37.0909
28.6987 36.8357
28.8829 36.4453
29.0673 35.8549
29.2517 35.4565
29.4361 35.297
29.6207 34.2405
29.8053 33.9959
29.99 33.78
30.1748 33.4014
30.3597 33.3268
30.5447 33.1774
30.7297 33.2024
30.915 32.6657
31.1002 32.246
31.2855 31.8506
31.4708 31.7423
31.6563 31.3032
31.8418 31.1374
32.0275 30.9172
32.2132 30.3526
32.399 29.8624
32.5848 29.3556
32.7708 29.0433
32.9569 28.8698
33.143 28.7441
33.3293 28.2921
33.5158 27.9004
33.7022 27.4485
33.8887 27.1307
34.0753 26.7852
34.262 26.4727
34.4488 26.1296
34.6357 25.755
34.8227 25.4872
35.0098 25.2562
35.1969 24.965
35.3842 24.7366
35.5716 24.4706
35.759 24.3035
35.9468 23.8347
36.1345 23.6681
36.3222 23.4158
36.5101 23.1249
36.6981 22.8769
36.8861 22.4828
37.0743 22.1889
37.2626 21.9866
37.451 21.648
37.6395 21.5278
37.8281 21.2225
38.0168 20.8198
38.2056 20.5788
38.3945 20.3325
38.5837 20.0312
38.7728 19.7693
38.9621 19.569
39.1514 19.3059
39.3409 19.0916
39.5304 18.7722
39.7201 18.6177
39.9099 18.4287
40.0999 18.1384
40.2899 17.879
40.48 17.6539
40.6703 17.4657
40.8607 17.3316
41.0512 17.0076
41.242 16.7737
41.4327 16.6194
41.6236 16.3852
41.8146 16.1459
42.0057 15.9277
42.1969 15.7095
42.3882 15.5097
42.5797 15.2855
42.7713 15.1325
42.963 14.9129
43.1549 14.6519
43.3468 14.4669
43.5389 14.2527
43.7312 14.0662
43.9237 13.8719
44.1162 13.6984
44.3088 13.4816
44.5016 13.3182
44.6945 13.1434
44.8875 12.9936
45.0806 12.7804
45.2739 12.5413
45.4673 12.4276
45.6609 12.2386
45.8546 12.0587
46.0484 11.876
46.2424 11.7232
46.4365 11.5917
46.631 11.354
46.8254 11.2111
47.0199 11.0413
47.2146 10.8917
47.4095 10.7302
47.6044 10.5494
47.7996 10.4224
47.9948 10.2338
48.1902 10.0811
48.3858 9.96983
48.5815 9.81628
48.7774 9.70628
48.9734 9.54116
49.1696 9.40394
49.3661 9.24795
49.5626 9.0634
49.7592 9.01782
49.956 8.8735
50.153 8.71824
50.3501 8.54956
50.5474 8.42052
50.7448 8.3069
50.9424 8.17748
51.1402 8.09234
51.3381 7.90383
51.5362 7.75639
51.7344 7.68635
51.9328 7.49227
52.1316 7.39429
52.3304 7.26921
52.5293 7.18732
52.7284 7.06817
52.9276 6.91949
53.1271 6.833
53.3267 6.71106
53.5265 6.57514
53.7264 6.4855
53.9266 6.37763
54.1269 6.25915
54.3274 6.11811
54.528 5.99412
54.7289 5.81358
54.9301 5.64902
55.1314 5.53868
55.3328 5.34386
55.5344 5.08165
55.7361 5.01994