File: XRD/Ni3Fe_FD0515.xy
TT I
1.27165 7.58214
1.45013 6.22239
1.62863 5.82198
1.80712 5.44861
1.98562 4.93359
2.16411 4.92988
2.34263 4.94681
2.52115 6.67603
2.69965 7.68566
2.87818 8.57334
3.05672 11.6664
3.23527 14.8951
3.4138 19.2787
3.59237 24.4358
3.77094 26.473
3.9495 30.2685
4.12809 35.0418
4.30669 240.069
4.4853 68.0811
4.6639 56.284
4.84253 67.7033
5.02118 88.3301
5.19981 384.949
5.37848 205.745
5.55716 103.362
5.73586 93.5204
5.91455 95.753
6.09328 4121.49
6.27201 85.2967
6.45075 68.3272
6.62952 64.0785
6.8083 59.6921
6.98711 56.873
7.16591 55.9991
7.34475 97.1755
7.5236 55.6947
7.70247 56.8059
7.88135 58.2673
8.06026 62.896
8.23919 70.1052
8.41812 86.4463
8.59709 1133.13
8.77609 102.398
8.9551 93.3729
9.13412 82.6857
9.31318 83.3837
9.49226 85.5541
9.67134 100.655
9.85047 100.851
10.0296 347.402
10.2088 450.651
10.388 106.878
10.5672 491.096
10.7465 87.7307
10.9257 79.5661
11.105 72.8619
11.2844 71.404
11.4637 65.5657
11.6431 64.5731
11.8225 63.27
12.002 64.1039
12.1814 149.867
12.3609 72.7535
12.5405 65.2639
12.72 71.551
12.8996 71.705
13.0792 79.635
13.2589 232.57
13.4386 132.152
13.6183 239.518
13.7981 103.17
13.9779 76.7651
14.1577 73.6912
14.3376 72.9208
14.5175 69.4996
14.6974 71.4526
14.8774 110.702
15.0574 156.447
15.2374 72.3107
15.4175 67.2858
15.5976 66.596
15.7778 95.2859
15.958 161.972
16.1382 64.0099
16.3185 59.5466
16.4988 56.1706
16.6792 55.0485
16.8596 55.8423
17.04 56.4672
17.2205 66.9989
17.401 72.7296
17.5815 60.0434
17.7622 62.0132
17.9428 74.6985
18.1237 137.623
18.3044 90.4865
18.4852 80.9724
18.666 61.1391
18.8469 58.8976
19.0278 57.7326
19.2088 60.4924
19.3898 76.928
19.5709 54.8912
19.752 53.9079
19.9332 57.1696
20.1144 70.3835
20.2957 63.9515
20.477 54.8634
20.6586 50.3736
20.84 49.359
21.0215 49.2872
21.203 51.369
21.3846 49.6811
21.5662 49.5414
21.7479 53.2312
21.9297 64.945
22.1115 56.3394
22.2933 50.705
22.4753 49.6124
22.6572 49.5251
22.8393 52.2871
23.0214 57.919
23.2037 49.3881
23.3859 50.4279
23.5682 57.11
23.7505 49.5029
23.9329 45.7673
24.1154 44.681
24.2979 44.0395
24.4805 43.4867
24.6631 43.2768
24.8458 42.786
25.0286 43.1675
25.2114 45.0191
25.3943 45.2003
25.5773 41.6055
25.7605 40.9009
25.9436 41.3811
26.1268 42.1105
26.31 40.631
26.4933 41.2788
26.6767 42.7632
26.8601 40.9682
27.0437 39.4428
27.2272 39.0717
27.4109 38.8754
27.5946 38.9607
27.7784 38.3365
27.9623 38.8451
28.1462 39.3877
28.3304 37.7328
28.5145 36.4068
28.6987 36.0687
28.8829 35.8517
29.0673 35.0832
29.2517 34.7661
29.4361 34.4551
29.6207 33.5655
29.8053 33.3224
29.99 32.9797
30.1748 32.9042
30.3597 32.6359
30.5447 32.5011
30.7297 32.6119
30.915 32.0609
31.1002 31.5263
31.2855 31.1785
31.4708 31.1849
31.6563 30.8309
31.8418 30.5769
32.0275 30.3157
32.2132 29.729
32.399 29.2886
32.5848 28.8184
32.7708 28.4815
32.9569 28.4406
33.143 28.1948
33.3293 27.8322
33.5158 27.4053
33.7022 26.9508
33.8887 26.6759
34.0753 26.3581
34.262 26.0701
34.4488 25.5809
34.6357 25.2817
34.8227 25.1075
35.0098 24.838
35.1969 24.572
35.3842 24.2789
35.5716 24.064
35.759 23.7857
35.9468 23.4087
36.1345 23.2183
36.3222 22.9481
36.5101 22.7901
36.6981 22.4174
36.8861 22.1712
37.0743 21.765
37.2626 21.5041
37.451 21.285
37.6395 21.0942
37.8281 20.7108
38.0168 20.4606
38.2056 20.215
38.3945 19.9357
38.5837 19.7094
38.7728 19.4873
38.9621 19.2074
39.1514 18.9801
39.3409 18.7328
39.5304 18.4793
39.7201 18.3206
39.9099 18.0379
40.0999 17.7977
40.2899 17.5945
40.48 17.3808
40.6703 17.107
40.8607 16.9721
41.0512 16.7476
41.242 16.4865
41.4327 16.3031
41.6236 16.0184
41.8146 15.8238
42.0057 15.6495
42.1969 15.4062
42.3882 15.2405
42.5797 14.9981
42.7713 14.7794
42.963 14.6117
43.1549 14.3945
43.3468 14.1834
43.5389 14.0545
43.7312 13.8298
43.9237 13.6197
44.1162 13.4364
44.3088 13.257
44.5016 13.0467
44.6945 12.8753
44.8875 12.7541
45.0806 12.517
45.2739 12.3556
45.4673 12.1678
45.6609 12.0145
45.8546 11.8329
46.0484 11.7215
46.2424 11.525
46.4365 11.3688
46.631 11.1961
46.8254 11.0083
47.0199 10.882
47.2146 10.6682
47.4095 10.5394
47.6044 10.3684
47.7996 10.2446
47.9948 10.078
48.1902 9.95085
48.3858 9.82682
48.5815 9.6787
48.7774 9.497
48.9734 9.35293
49.1696 9.24042
49.3661 9.11852
49.5626 8.9402
49.7592 8.83734
49.956 8.70467
50.153 8.55169
50.3501 8.38392
50.5474 8.30524
50.7448 8.17658
50.9424 8.04513
51.1402 7.92361
51.3381 7.80498
51.5362 7.66648
51.7344 7.51792
51.9328 7.40124
52.1316 7.2752
52.3304 7.18963
52.5293 7.00212
52.7284 6.93654
52.9276 6.80198
53.1271 6.71201
53.3267 6.59473
53.5265 6.4477
53.7264 6.38069
53.9266 6.24033
54.1269 6.12063
54.3274 6.01317
54.528 5.9107
54.7289 5.69071
54.9301 5.56935
55.1314 5.41339
55.3328 5.20157
55.5344 5.01691
55.7361 4.91717