File: XRD/Ni3Fe_FD0408.xy
TT I
1.27165 7.87793
1.45013 5.93284
1.62863 5.01297
1.80712 4.75609
1.98562 5.15572
2.16411 5.1545
2.34263 5.25614
2.52115 6.60659
2.69965 7.02228
2.87818 8.85821
3.05672 10.7967
3.23527 15.3169
3.4138 19.3537
3.59237 24.5287
3.77094 26.9122
3.9495 30.486
4.12809 35.2646
4.30669 268.207
4.4853 71.2634
4.6639 56.0159
4.84253 67.8037
5.02118 89.1238
5.19981 426.494
5.37848 224.67
5.55716 104.954
5.73586 94.2893
5.91455 97.1505
6.09328 3904.08
6.27201 87.2324
6.45075 69.5875
6.62952 64.5686
6.8083 60.5569
6.98711 57.1572
7.16591 56.9592
7.34475 103.836
7.5236 56.0
7.70247 57.5032
7.88135 58.9098
8.06026 63.5484
8.23919 71.08
8.41812 87.9328
8.59709 1084.18
8.77609 104.896
8.9551 95.1849
9.13412 83.8438
9.31318 84.7173
9.49226 86.1565
9.67134 102.781
9.85047 102.571
10.0296 363.325
10.2088 509.385
10.388 108.232
10.5672 472.365
10.7465 89.0964
10.9257 80.6929
11.105 73.8011
11.2844 72.9084
11.4637 66.4162
11.6431 65.0661
11.8225 63.9379
12.002 64.8717
12.1814 144.071
12.3609 74.4167
12.5405 66.1716
12.72 72.5037
12.8996 72.5511
13.0792 80.6225
13.2589 225.118
13.4386 138.398
13.6183 229.52
13.7981 106.311
13.9779 77.4723
14.1577 74.5135
14.3376 73.8096
14.5175 70.426
14.6974 72.006
14.8774 110.316
15.0574 166.208
15.2374 73.3255
15.4175 67.9329
15.5976 67.3478
15.7778 95.6362
15.958 171.498
16.1382 65.1764
16.3185 60.5406
16.4988 57.0261
16.6792 55.9191
16.8596 56.6334
17.04 57.1882
17.2205 67.0238
17.401 74.5129
17.5815 60.8643
17.7622 62.6713
17.9428 75.6844
18.1237 137.027
18.3044 89.3829
18.4852 82.7039
18.666 62.0957
18.8469 59.3902
19.0278 58.3205
19.2088 61.1243
19.3898 77.7735
19.5709 55.7886
19.752 54.5102
19.9332 57.4844
20.1144 70.8761
20.2957 64.1742
20.477 55.8902
20.6586 50.9072
20.84 50.0719
21.0215 49.697
21.203 51.8006
21.3846 50.3593
21.5662 49.9632
21.7479 53.5327
21.9297 65.6456
22.1115 56.9866
22.2933 51.4163
22.4753 50.2395
22.6572 50.0517
22.8393 52.7425
23.0214 58.9772
23.2037 50.0388
23.3859 50.7285
23.5682 57.2498
23.7505 50.0384
23.9329 46.3395
24.1154 45.1218
24.2979 44.5539
24.4805 43.8786
24.6631 43.929
24.8458 43.2327
25.0286 43.804
25.2114 45.6852
25.3943 45.7777
25.5773 41.8627
25.7605 41.5951
25.9436 41.7182
26.1268 42.6782
26.31 41.1481
26.4933 41.6934
26.6767 43.0654
26.8601 41.4835
27.0437 39.8383
27.2272 39.4335
27.4109 39.3073
27.5946 39.3717
27.7784 38.8292
27.9623 39.1859
28.1462 39.9164
28.3304 38.0988
28.5145 36.716
28.6987 36.3772
28.8829 36.0781
29.0673 35.454
29.2517 35.1137
29.4361 35.1015
29.6207 33.8551
29.8053 33.5998
29.99 33.3299
30.1748 33.1696
30.3597 33.1071
30.5447 32.8999
30.7297 32.9577
30.915 32.3247
31.1002 31.9467
31.2855 31.6305
31.4708 31.5637
31.6563 31.0959
31.8418 30.8417
32.0275 30.609
32.2132 30.1784
32.399 29.6498
32.5848 29.1236
32.7708 28.8811
32.9569 28.7462
33.143 28.4211
33.3293 28.1037
33.5158 27.6022
33.7022 27.2275
33.8887 26.8552
34.0753 26.6183
34.262 26.2632
34.4488 25.9794
34.6357 25.6604
34.8227 25.3391
35.0098 25.1077
35.1969 24.8263
35.3842 24.5376
35.5716 24.3405
35.759 24.0737
35.9468 23.6996
36.1345 23.3837
36.3222 23.2313
36.5101 23.0024
36.6981 22.6449
36.8861 22.3597
37.0743 21.9715
37.2626 21.8104
37.451 21.4676
37.6395 21.3597
37.8281 20.9448
38.0168 20.686
38.2056 20.4144
38.3945 20.156
38.5837 19.886
38.7728 19.6379
38.9621 19.3817
39.1514 19.1591
39.3409 18.924
39.5304 18.7037
39.7201 18.5205
39.9099 18.2277
40.0999 18.0242
40.2899 17.7515
40.48 17.5253
40.6703 17.3245
40.8607 17.1802
41.0512 16.9203
41.242 16.654
41.4327 16.4325
41.6236 16.2204
41.8146 16.0594
42.0057 15.845
42.1969 15.6132
42.3882 15.4323
42.5797 15.1736
42.7713 14.9234
42.963 14.7559
43.1549 14.5893
43.3468 14.324
43.5389 14.1353
43.7312 13.9189
43.9237 13.7693
44.1162 13.5513
44.3088 13.4086
44.5016 13.213
44.6945 13.04
44.8875 12.8334
45.0806 12.6774
45.2739 12.5023
45.4673 12.3303
45.6609 12.1699
45.8546 11.9418
46.0484 11.781
46.2424 11.5947
46.4365 11.5015
46.631 11.2731
46.8254 11.0781
47.0199 10.9647
47.2146 10.8209
47.4095 10.6258
47.6044 10.4584
47.7996 10.3608
47.9948 10.1677
48.1902 10.0552
48.3858 9.88595
48.5815 9.75663
48.7774 9.60906
48.9734 9.47136
49.1696 9.29375
49.3661 9.17832
49.5626 9.01089
49.7592 8.92351
49.956 8.78202
50.153 8.6461
50.3501 8.47956
50.5474 8.40455
50.7448 8.25194
50.9424 8.1042
51.1402 8.03797
51.3381 7.81524
51.5362 7.71965
51.7344 7.61398
51.9328 7.47853
52.1316 7.3467
52.3304 7.24078
52.5293 7.09081
52.7284 6.96197
52.9276 6.8875
53.1271 6.7811
53.3267 6.61696
53.5265 6.52349
53.7264 6.41878
53.9266 6.29029
54.1269 6.17484
54.3274 6.09126
54.528 5.8922
54.7289 5.79917
54.9301 5.58744
55.1314 5.48971
55.3328 5.20742
55.5344 5.13753
55.7361 4.94324