File: XRD/Ni3Fe_FD0627.xy
TT I
1.27165 7.70241
1.45013 5.9111
1.62863 5.37996
1.80712 4.8028
1.98562 4.34936
2.16411 4.49518
2.34263 5.15537
2.52115 6.60019
2.69965 8.18652
2.87818 8.38424
3.05672 10.9951
3.23527 14.871
3.4138 18.7287
3.59237 24.0803
3.77094 26.5715
3.9495 30.2107
4.12809 35.8718
4.30669 227.24
4.4853 66.9249
4.6639 55.6182
4.84253 67.1716
5.02118 86.789
5.19981 346.722
5.37848 194.202
5.55716 102.296
5.73586 92.3887
5.91455 94.5824
6.09328 4389.06
6.27201 83.9207
6.45075 67.9286
6.62952 63.3326
6.8083 59.298
6.98711 56.3391
7.16591 55.4976
7.34475 94.2587
7.5236 55.2155
7.70247 56.5876
7.88135 58.3077
8.06026 62.3442
8.23919 70.1374
8.41812 85.5615
8.59709 1156.12
8.77609 100.451
8.9551 92.3637
9.13412 82.1558
9.31318 82.9139
9.49226 84.9721
9.67134 99.5164
9.85047 100.518
10.0296 334.603
10.2088 422.042
10.388 105.147
10.5672 504.457
10.7465 87.108
10.9257 78.9879
11.105 72.1987
11.2844 70.9991
11.4637 65.2151
11.6431 64.0202
11.8225 62.7227
12.002 63.7851
12.1814 151.046
12.3609 71.6424
12.5405 64.7586
12.72 70.6355
12.8996 71.5559
13.0792 79.0168
13.2589 233.906
13.4386 127.805
13.6183 244.444
13.7981 100.366
13.9779 76.1988
14.1577 72.9279
14.3376 72.1274
14.5175 69.0902
14.6974 70.8055
14.8774 110.221
15.0574 150.567
15.2374 71.6859
15.4175 66.9019
15.5976 65.9229
15.7778 94.6585
15.958 157.11
16.1382 63.3343
16.3185 59.2162
16.4988 55.7534
16.6792 54.8244
16.8596 55.6087
17.04 56.0611
17.2205 67.0163
17.401 72.5103
17.5815 59.4975
17.7622 61.5424
17.9428 73.3349
18.1237 138.587
18.3044 90.6463
18.4852 78.4402
18.666 60.6593
18.8469 58.3498
19.0278 57.1372
19.2088 59.6796
19.3898 76.4952
19.5709 54.6307
19.752 53.514
19.9332 56.5303
20.1144 69.6423
20.2957 63.9335
20.477 53.9773
20.6586 49.9524
20.84 49.1358
21.0215 48.6863
21.203 51.1976
21.3846 49.2753
21.5662 48.9068
21.7479 52.6289
21.9297 64.5435
22.1115 56.1783
22.2933 50.1631
22.4753 49.1834
22.6572 48.9492
22.8393 52.0481
23.0214 57.6398
23.2037 49.1178
23.3859 49.9847
23.5682 56.8069
23.7505 48.7923
23.9329 45.2927
24.1154 44.3184
24.2979 43.6838
24.4805 43.1612
24.6631 42.9728
24.8458 42.471
25.0286 42.9847
25.2114 44.7035
25.3943 44.8188
25.5773 41.1869
25.7605 40.6904
25.9436 40.9969
26.1268 41.8907
26.31 40.2812
26.4933 40.8577
26.6767 42.3894
26.8601 40.6863
27.0437 39.0644
27.2272 38.6751
27.4109 38.6981
27.5946 38.6245
27.7784 38.0819
27.9623 38.5567
28.1462 38.8895
28.3304 37.4036
28.5145 36.1818
28.6987 35.8341
28.8829 35.6089
29.0673 34.801
29.2517 34.4624
29.4361 34.3608
29.6207 33.3332
29.8053 33.103
29.99 32.7915
30.1748 32.544
30.3597 32.4312
30.5447 32.3765
30.7297 32.3033
30.915 31.759
31.1002 31.2762
31.2855 31.0059
31.4708 31.0347
31.6563 30.5157
31.8418 30.3079
32.0275 30.0982
32.2132 29.4895
32.399 28.9727
32.5848 28.6278
32.7708 28.2166
32.9569 28.2572
33.143 28.0795
33.3293 27.5269
33.5158 27.2029
33.7022 26.747
33.8887 26.4196
34.0753 26.144
34.262 25.7529
34.4488 25.3661
34.6357 25.0716
34.8227 24.872
35.0098 24.522
35.1969 24.38
35.3842 24.0752
35.5716 23.855
35.759 23.5912
35.9468 23.2033
36.1345 22.9829
36.3222 22.8147
36.5101 22.499
36.6981 22.2402
36.8861 21.9771
37.0743 21.549
37.2626 21.3434
37.451 21.0653
37.6395 20.9638
37.8281 20.6797
38.0168 20.3166
38.2056 20.1032
38.3945 19.8188
38.5837 19.5042
38.7728 19.3206
38.9621 19.0418
39.1514 18.7663
39.3409 18.5093
39.5304 18.3344
39.7201 18.1757
39.9099 18.0134
40.0999 17.6783
40.2899 17.4388
40.48 17.2433
40.6703 17.0347
40.8607 16.8273
41.0512 16.6363
41.242 16.3061
41.4327 16.1794
41.6236 15.9122
41.8146 15.7537
42.0057 15.4843
42.1969 15.2434
42.3882 15.1388
42.5797 14.8983
42.7713 14.7232
42.963 14.5332
43.1549 14.3087
43.3468 14.1096
43.5389 13.9186
43.7312 13.6963
43.9237 13.525
44.1162 13.3167
44.3088 13.1242
44.5016 13.0146
44.6945 12.7807
44.8875 12.5895
45.0806 12.4278
45.2739 12.2721
45.4673 12.07
45.6609 11.8943
45.8546 11.7689
46.0484 11.6385
46.2424 11.4039
46.4365 11.2742
46.631 11.0548
46.8254 10.9229
47.0199 10.7408
47.2146 10.6132
47.4095 10.4435
47.6044 10.3059
47.7996 10.1331
47.9948 9.97553
48.1902 9.83882
48.3858 9.70368
48.5815 9.56066
48.7774 9.44373
48.9734 9.32842
49.1696 9.16089
49.3661 9.00365
49.5626 8.85398
49.7592 8.7515
49.956 8.64599
50.153 8.50022
50.3501 8.36101
50.5474 8.22055
50.7448 8.09488
50.9424 7.97003
51.1402 7.84631
51.3381 7.68619
51.5362 7.64069
51.7344 7.45348
51.9328 7.3426
52.1316 7.20084
52.3304 7.11429
52.5293 6.97298
52.7284 6.89876
52.9276 6.75206
53.1271 6.66026
53.3267 6.54408
53.5265 6.38202
53.7264 6.30823
53.9266 6.18036
54.1269 6.08496
54.3274 5.97369
54.528 5.85876
54.7289 5.6536
54.9301 5.51985
55.1314 5.3549
55.3328 5.21591
55.5344 5.06607
55.7361 4.82333