File: XRD/Ni3Fe_FD0763.xy
TT I
1.27165 7.32527
1.45013 6.29808
1.62863 5.14842
1.80712 4.74353
1.98562 4.23599
2.16411 5.06355
2.34263 5.54056
2.52115 6.87248
2.69965 8.49573
2.87818 8.9248
3.05672 11.4145
3.23527 15.3219
3.4138 19.2281
3.59237 24.5298
3.77094 26.3031
3.9495 29.9991
4.12809 35.0523
4.30669 264.192
4.4853 70.9448
4.6639 55.395
4.84253 66.2265
5.02118 85.4379
5.19981 303.439
5.37848 188.249
5.55716 100.733
5.73586 91.5358
5.91455 92.0575
6.09328 4271.75
6.27201 82.6561
6.45075 66.7781
6.62952 62.6608
6.8083 58.8946
6.98711 55.2816
7.16591 55.7012
7.34475 101.205
7.5236 54.7986
7.70247 55.9707
7.88135 57.6421
8.06026 62.1007
8.23919 69.118
8.41812 84.4547
8.59709 1094.73
8.77609 98.8353
8.9551 92.9112
9.13412 81.148
9.31318 81.7367
9.49226 83.8349
9.67134 99.7524
9.85047 98.576
10.0296 302.719
10.2088 405.213
10.388 104.153
10.5672 507.127
10.7465 85.9493
10.9257 78.3663
11.105 71.7935
11.2844 71.0451
11.4637 64.3817
11.6431 63.5088
11.8225 62.1616
12.002 62.7297
12.1814 147.518
12.3609 71.6783
12.5405 64.1729
12.72 70.3742
12.8996 70.4321
13.0792 77.7427
13.2589 225.764
13.4386 126.721
13.6183 236.723
13.7981 98.432
13.9779 75.5267
14.1577 72.2384
14.3376 71.721
14.5175 68.3995
14.6974 70.007
14.8774 105.537
15.0574 151.503
15.2374 71.0823
15.4175 65.7952
15.5976 65.2783
15.7778 90.9158
15.958 158.107
16.1382 63.0357
16.3185 58.7228
16.4988 55.104
16.6792 54.2456
16.8596 55.0024
17.04 55.3441
17.2205 65.6562
17.401 71.1884
17.5815 58.9442
17.7622 60.7829
17.9428 71.8163
18.1237 138.96
18.3044 88.921
18.4852 77.9909
18.666 60.0039
18.8469 57.7847
19.0278 56.703
19.2088 58.6385
19.3898 76.7502
19.5709 53.9461
19.752 52.8304
19.9332 55.6541
20.1144 69.2814
20.2957 63.2843
20.477 53.3865
20.6586 49.3349
20.84 48.6196
21.0215 48.2265
21.203 50.31
21.3846 48.653
21.5662 48.261
21.7479 51.9314
21.9297 64.2918
22.1115 55.629
22.2933 49.5611
22.4753 48.6181
22.6572 48.3696
22.8393 51.117
23.0214 57.2477
23.2037 48.3739
23.3859 49.0424
23.5682 56.4656
23.7505 48.2516
23.9329 44.8902
24.1154 43.8538
24.2979 43.2999
24.4805 42.7009
24.6631 42.5713
24.8458 41.8784
25.0286 42.4566
25.2114 44.368
25.3943 44.3885
25.5773 40.7283
25.7605 40.0822
25.9436 40.4134
26.1268 41.4905
26.31 39.8943
26.4933 40.4561
26.6767 41.9697
26.8601 40.1542
27.0437 38.6161
27.2272 38.3058
27.4109 38.1622
27.5946 38.089
27.7784 37.5988
27.9623 38.0967
28.1462 38.6291
28.3304 36.9384
28.5145 35.6878
28.6987 35.3113
28.8829 35.217
29.0673 34.4484
29.2517 34.2084
29.4361 33.9995
29.6207 33.0224
29.8053 32.7474
29.99 32.385
30.1748 32.1109
30.3597 32.0779
30.5447 31.9704
30.7297 32.0748
30.915 31.4222
31.1002 30.9272
31.2855 30.7275
31.4708 30.5991
31.6563 30.1404
31.8418 29.9705
32.0275 29.8231
32.2132 29.1902
32.399 28.715
32.5848 28.2384
32.7708 27.9883
32.9569 27.8539
33.143 27.5689
33.3293 27.2815
33.5158 26.8968
33.7022 26.4373
33.8887 26.128
34.0753 25.7913
34.262 25.5312
34.4488 25.1481
34.6357 24.8458
34.8227 24.5833
35.0098 24.359
35.1969 24.0217
35.3842 23.8605
35.5716 23.5968
35.759 23.3673
35.9468 22.9486
36.1345 22.7055
36.3222 22.5154
36.5101 22.3464
36.6981 21.9415
36.8861 21.6547
37.0743 21.3653
37.2626 21.1572
37.451 20.8288
37.6395 20.7207
37.8281 20.4356
38.0168 20.1263
38.2056 19.8624
38.3945 19.5446
38.5837 19.3343
38.7728 19.0938
38.9621 18.8855
39.1514 18.5703
39.3409 18.3919
39.5304 18.1073
39.7201 17.937
39.9099 17.7873
40.0999 17.571
40.2899 17.3017
40.48 17.0556
40.6703 16.8524
40.8607 16.6801
41.0512 16.3546
41.242 16.1559
41.4327 16.0131
41.6236 15.8161
41.8146 15.5732
42.0057 15.3466
42.1969 15.1482
42.3882 14.9637
42.5797 14.7626
42.7713 14.5722
42.963 14.3822
43.1549 14.1785
43.3468 13.8951
43.5389 13.7759
43.7312 13.5527
43.9237 13.3796
44.1162 13.2157
44.3088 12.9857
44.5016 12.8398
44.6945 12.6736
44.8875 12.5003
45.0806 12.2949
45.2739 12.1634
45.4673 11.9463
45.6609 11.7842
45.8546 11.6283
46.0484 11.4955
46.2424 11.325
46.4365 11.1856
46.631 10.9428
46.8254 10.8146
47.0199 10.6809
47.2146 10.5332
47.4095 10.3432
47.6044 10.1811
47.7996 10.05
47.9948 9.93448
48.1902 9.74228
48.3858 9.63718
48.5815 9.47357
48.7774 9.36037
48.9734 9.19189
49.1696 9.06068
49.3661 8.94219
49.5626 8.76743
49.7592 8.63828
49.956 8.53239
50.153 8.43777
50.3501 8.27309
50.5474 8.14713
50.7448 8.02237
50.9424 7.9209
51.1402 7.76987
51.3381 7.6157
51.5362 7.53335
51.7344 7.35
51.9328 7.26923
52.1316 7.14363
52.3304 7.08532
52.5293 6.92711
52.7284 6.79763
52.9276 6.70706
53.1271 6.56729
53.3267 6.48511
53.5265 6.35909
53.7264 6.25893
53.9266 6.12595
54.1269 6.00351
54.3274 5.90154
54.528 5.78464
54.7289 5.62223
54.9301 5.45811
55.1314 5.37076
55.3328 5.1616
55.5344 4.95668
55.7361 4.79617