File: XRD/Ni3Fe_FD0962.xy
TT I
1.27165 7.24203
1.45013 6.61006
1.62863 5.56484
1.80712 5.22213
1.98562 4.58026
2.16411 4.91533
2.34263 5.98587
2.52115 7.2474
2.69965 8.80937
2.87818 9.07023
3.05672 11.2071
3.23527 15.6022
3.4138 19.2461
3.59237 23.5428
3.77094 25.8955
3.9495 29.7409
4.12809 34.3152
4.30669 184.635
4.4853 61.4688
4.6639 54.5207
4.84253 66.8647
5.02118 84.8544
5.19981 286.391
5.37848 173.45
5.55716 100.234
5.73586 90.4215
5.91455 91.3064
6.09328 4627.78
6.27201 80.5497
6.45075 66.4907
6.62952 61.7826
6.8083 57.7822
6.98711 55.0224
7.16591 54.4959
7.34475 83.5087
7.5236 53.8685
7.70247 55.076
7.88135 56.8164
8.06026 61.3184
8.23919 68.7216
8.41812 83.1288
8.59709 1166.57
8.77609 96.7473
8.9551 89.1504
9.13412 80.7914
9.31318 81.6401
9.49226 83.4459
9.67134 95.1663
9.85047 97.9429
10.0296 306.613
10.2088 357.625
10.388 101.891
10.5672 525.212
10.7465 84.717
10.9257 76.7594
11.105 70.81
11.2844 68.7401
11.4637 63.5827
11.6431 62.5456
11.8225 61.6183
12.002 62.3177
12.1814 155.946
12.3609 68.5944
12.5405 63.2163
12.72 68.2976
12.8996 69.6669
13.0792 77.12
13.2589 237.562
13.4386 118.511
13.6183 249.184
13.7981 94.6808
13.9779 74.4217
14.1577 71.2284
14.3376 70.0159
14.5175 67.4944
14.6974 68.9411
14.8774 106.821
15.0574 144.432
15.2374 69.4719
15.4175 65.2729
15.5976 64.2857
15.7778 91.6746
15.958 148.235
16.1382 61.1694
16.3185 57.4002
16.4988 54.5001
16.6792 53.3595
16.8596 54.2697
17.04 54.5935
17.2205 65.3706
17.401 69.1009
17.5815 58.0912
17.7622 59.8919
17.9428 71.26
18.1237 137.182
18.3044 90.0182
18.4852 75.0207
18.666 59.2291
18.8469 56.9897
19.0278 55.9661
19.2088 58.0289
19.3898 74.5664
19.5709 53.1576
19.752 52.3119
19.9332 55.1321
20.1144 68.707
20.2957 63.7953
20.477 52.3579
20.6586 48.7682
20.84 47.9502
21.0215 47.7885
21.203 49.9039
21.3846 48.0791
21.5662 48.0135
21.7479 51.4569
21.9297 63.4517
22.1115 55.2693
22.2933 48.9841
22.4753 48.0613
22.6572 47.8649
22.8393 50.989
23.0214 56.0894
23.2037 47.8339
23.3859 48.6762
23.5682 56.3886
23.7505 47.387
23.9329 44.3243
24.1154 43.3566
24.2979 42.6621
24.4805 42.1118
24.6631 41.9745
24.8458 41.4391
25.0286 42.1341
25.2114 43.7778
25.3943 43.7907
25.5773 40.2442
25.7605 39.7627
25.9436 39.9864
26.1268 40.9624
26.31 39.2035
26.4933 39.9046
26.6767 41.4039
26.8601 39.5958
27.0437 38.0924
27.2272 37.7798
27.4109 37.6333
27.5946 37.7953
27.7784 37.1265
27.9623 37.7211
28.1462 38.1248
28.3304 36.4827
28.5145 35.3218
28.6987 34.9572
28.8829 34.8571
29.0673 34.0137
29.2517 33.7506
29.4361 33.4219
29.6207 32.5948
29.8053 32.2687
29.99 31.9379
30.1748 31.8237
30.3597 31.7551
30.5447 31.5679
30.7297 31.6393
30.915 31.0897
31.1002 30.6453
31.2855 30.2946
31.4708 30.2654
31.6563 29.8293
31.8418 29.6408
32.0275 29.3196
32.2132 28.8358
32.399 28.3492
32.5848 28.0267
32.7708 27.636
32.9569 27.4205
33.143 27.3566
33.3293 26.9211
33.5158 26.5136
33.7022 26.148
33.8887 25.8472
34.0753 25.5929
34.262 25.1684
34.4488 24.7921
34.6357 24.5056
34.8227 24.2458
35.0098 24.0659
35.1969 23.7801
35.3842 23.6721
35.5716 23.3653
35.759 23.0046
35.9468 22.7723
36.1345 22.5747
36.3222 22.2779
36.5101 21.9891
36.6981 21.7369
36.8861 21.3926
37.0743 21.1508
37.2626 20.874
37.451 20.643
37.6395 20.4314
37.8281 20.0878
38.0168 19.8749
38.2056 19.6091
38.3945 19.3174
38.5837 19.0756
38.7728 18.8049
38.9621 18.5958
39.1514 18.3724
39.3409 18.1386
39.5304 17.864
39.7201 17.6938
39.9099 17.5199
40.0999 17.2673
40.2899 17.0263
40.48 16.8252
40.6703 16.6376
40.8607 16.4545
41.0512 16.2184
41.242 16.0178
41.4327 15.7522
41.6236 15.5863
41.8146 15.4076
42.0057 15.148
42.1969 14.9777
42.3882 14.8047
42.5797 14.5487
42.7713 14.317
42.963 14.1615
43.1549 13.9751
43.3468 13.7528
43.5389 13.625
43.7312 13.4302
43.9237 13.1989
44.1162 13.0094
44.3088 12.8212
44.5016 12.7015
44.6945 12.4741
44.8875 12.3558
45.0806 12.1373
45.2739 12.0122
45.4673 11.8044
45.6609 11.6478
45.8546 11.4836
46.0484 11.3106
46.2424 11.1955
46.4365 10.9978
46.631 10.8342
46.8254 10.6907
47.0199 10.5096
47.2146 10.3857
47.4095 10.2339
47.6044 10.0403
47.7996 9.92326
47.9948 9.76552
48.1902 9.64157
48.3858 9.47138
48.5815 9.35373
48.7774 9.22686
48.9734 9.08391
49.1696 8.97904
49.3661 8.7874
49.5626 8.63392
49.7592 8.5785
49.956 8.40235
50.153 8.27684
50.3501 8.14154
50.5474 8.03829
50.7448 7.90566
50.9424 7.82289
51.1402 7.67447
51.3381 7.55555
51.5362 7.41165
51.7344 7.27865
51.9328 7.20081
52.1316 7.02675
52.3304 6.94252
52.5293 6.8141
52.7284 6.7385
52.9276 6.60717
53.1271 6.51686
53.3267 6.39028
53.5265 6.30403
53.7264 6.19157
53.9266 6.0832
54.1269 5.96018
54.3274 5.84339
54.528 5.72813
54.7289 5.52605
54.9301 5.40702
55.1314 5.28736
55.3328 5.05138
55.5344 4.89749
55.7361 4.76171