File: XRD/Ni3Fe_FD0471.xy
TT I
1.27165 7.60351
1.45013 5.9179
1.62863 5.88146
1.80712 5.44739
1.98562 4.5319
2.16411 4.14068
2.34263 5.39953
2.52115 5.85575
2.69965 7.20964
2.87818 8.41372
3.05672 10.7867
3.23527 15.2034
3.4138 19.0399
3.59237 23.1638
3.77094 26.5085
3.9495 30.0198
4.12809 34.9636
4.30669 121.742
4.4853 56.3144
4.6639 56.3753
4.84253 69.0932
5.02118 90.2107
5.19981 530.813
5.37848 205.297
5.55716 104.8
5.73586 95.0435
5.91455 98.8646
6.09328 4303.27
6.27201 83.3381
6.45075 68.996
6.62952 63.2753
6.8083 59.1207
6.98711 56.5209
7.16591 55.9854
7.34475 71.9425
7.5236 54.9999
7.70247 57.0637
7.88135 58.4415
8.06026 63.5771
8.23919 70.5553
8.41812 86.299
8.59709 1239.01
8.77609 101.503
8.9551 90.2299
9.13412 83.9489
9.31318 85.1095
9.49226 86.1303
9.67134 96.4203
9.85047 102.578
10.0296 411.702
10.2088 407.711
10.388 108.215
10.5672 498.924
10.7465 88.0422
10.9257 78.9267
11.105 72.4746
11.2844 69.8075
11.4637 65.7229
11.6431 64.598
11.8225 63.2874
12.002 65.5423
12.1814 155.735
12.3609 68.7236
12.5405 65.4349
12.72 69.5415
12.8996 72.2814
13.0792 82.0845
13.2589 251.992
13.4386 125.548
13.6183 254.054
13.7981 98.3284
13.9779 77.1632
14.1577 73.0594
14.3376 71.4033
14.5175 69.9162
14.6974 71.7961
14.8774 118.358
15.0574 148.079
15.2374 71.0031
15.4175 67.6274
15.5976 67.1771
15.7778 101.291
15.958 155.393
16.1382 62.5526
16.3185 58.8173
16.4988 56.1989
16.6792 55.2291
16.8596 55.685
17.04 57.228
17.2205 68.6633
17.401 71.6083
17.5815 60.2404
17.7622 62.3623
17.9428 77.2624
18.1237 140.447
18.3044 92.2701
18.4852 78.1212
18.666 61.4721
18.8469 58.8798
19.0278 57.8236
19.2088 61.0542
19.3898 76.6378
19.5709 54.8887
19.752 54.1692
19.9332 57.8179
20.1144 70.4292
20.2957 64.4298
20.477 54.2371
20.6586 50.3506
20.84 49.5146
21.0215 49.4423
21.203 51.4002
21.3846 49.6146
21.5662 49.9257
21.7479 53.9249
21.9297 65.5674
22.1115 56.6473
22.2933 50.5324
22.4753 49.5537
22.6572 49.9148
22.8393 53.1094
23.0214 57.9703
23.2037 49.5049
23.3859 50.8782
23.5682 57.486
23.7505 48.7827
23.9329 45.9435
24.1154 44.806
24.2979 44.233
24.4805 43.5934
24.6631 43.559
24.8458 42.9322
25.0286 43.7711
25.2114 45.2947
25.3943 45.324
25.5773 41.4983
25.7605 41.0959
25.9436 41.6538
26.1268 42.3136
26.31 40.7934
26.4933 41.4204
26.6767 42.7482
26.8601 41.0656
27.0437 39.5548
27.2272 39.021
27.4109 38.9586
27.5946 38.91
27.7784 38.4295
27.9623 38.9685
28.1462 39.5192
28.3304 37.7524
28.5145 36.5465
28.6987 36.0887
28.8829 35.8954
29.0673 35.2735
29.2517 34.8498
29.4361 34.6839
29.6207 33.6395
29.8053 33.3736
29.99 33.1281
30.1748 32.86
30.3597 32.7883
30.5447 32.5654
30.7297 32.7087
30.915 32.0278
31.1002 31.5919
31.2855 31.3054
31.4708 31.3141
31.6563 30.817
31.8418 30.5541
32.0275 30.3726
32.2132 29.8519
32.399 29.4149
32.5848 28.8292
32.7708 28.5505
32.9569 28.4268
33.143 28.2577
33.3293 27.7487
33.5158 27.4167
33.7022 27.0211
33.8887 26.7168
34.0753 26.343
34.262 26.0228
34.4488 25.6569
34.6357 25.3318
34.8227 25.0134
35.0098 24.8042
35.1969 24.5247
35.3842 24.3295
35.5716 24.1364
35.759 23.8247
35.9468 23.5005
36.1345 23.2427
36.3222 22.9877
36.5101 22.7378
36.6981 22.3837
36.8861 22.1274
37.0743 21.8386
37.2626 21.5773
37.451 21.2508
37.6395 21.1276
37.8281 20.7884
38.0168 20.4732
38.2056 20.2292
38.3945 19.9629
38.5837 19.7456
38.7728 19.5152
38.9621 19.2576
39.1514 18.9893
39.3409 18.7255
39.5304 18.5598
39.7201 18.3623
39.9099 18.062
40.0999 17.8417
40.2899 17.5841
40.48 17.4002
40.6703 17.1607
40.8607 16.9624
41.0512 16.7317
41.242 16.4691
41.4327 16.2872
41.6236 16.0662
41.8146 15.8171
42.0057 15.6936
42.1969 15.3782
42.3882 15.2904
42.5797 15.0685
42.7713 14.8158
42.963 14.6358
43.1549 14.438
43.3468 14.2166
43.5389 14.0067
43.7312 13.8412
43.9237 13.5896
44.1162 13.49
44.3088 13.2402
44.5016 13.0502
44.6945 12.8921
44.8875 12.7075
45.0806 12.5352
45.2739 12.3881
45.4673 12.1667
45.6609 11.9755
45.8546 11.9136
46.0484 11.6827
46.2424 11.4664
46.4365 11.3548
46.631 11.2142
46.8254 10.9911
47.0199 10.8642
47.2146 10.6961
47.4095 10.5164
47.6044 10.3767
47.7996 10.2362
47.9948 10.0459
48.1902 9.90234
48.3858 9.82011
48.5815 9.64815
48.7774 9.54723
48.9734 9.36929
49.1696 9.21543
49.3661 9.07602
49.5626 8.94109
49.7592 8.80037
49.956 8.68506
50.153 8.56385
50.3501 8.41931
50.5474 8.28661
50.7448 8.17377
50.9424 8.03767
51.1402 7.89387
51.3381 7.76946
51.5362 7.6576
51.7344 7.55033
51.9328 7.41212
52.1316 7.22489
52.3304 7.16914
52.5293 7.03342
52.7284 6.87165
52.9276 6.77547
53.1271 6.70804
53.3267 6.56562
53.5265 6.48408
53.7264 6.36189
53.9266 6.26618
54.1269 6.14084
54.3274 5.99889
54.528 5.86826
54.7289 5.66545
54.9301 5.53029
55.1314 5.38046
55.3328 5.21642
55.5344 5.05994
55.7361 4.89323