File: XRD/Ni3Fe_FD0956.xy
TT I
1.27165 7.20557
1.45013 6.08049
1.62863 4.97202
1.80712 4.8833
1.98562 5.00693
2.16411 5.14222
2.34263 5.85847
2.52115 7.17178
2.69965 8.62421
2.87818 8.61544
3.05672 11.7067
3.23527 15.551
3.4138 18.8984
3.59237 23.8238
3.77094 26.0642
3.9495 29.0549
4.12809 33.9058
4.30669 163.871
4.4853 59.1719
4.6639 54.8596
4.84253 66.4458
5.02118 85.2971
5.19981 294.199
5.37848 178.425
5.55716 100.027
5.73586 90.5381
5.91455 91.4949
6.09328 4534.93
6.27201 79.9675
6.45075 66.9125
6.62952 61.8218
6.8083 57.8389
6.98711 54.6969
7.16591 54.4713
7.34475 79.3789
7.5236 53.7692
7.70247 55.7048
7.88135 56.7494
8.06026 61.4023
8.23919 68.3941
8.41812 82.7772
8.59709 1177.7
8.77609 96.418
8.9551 89.0697
9.13412 80.9714
9.31318 81.9523
9.49226 83.4163
9.67134 95.04
9.85047 98.4926
10.0296 314.092
10.2088 362.234
10.388 101.951
10.5672 525.08
10.7465 84.969
10.9257 76.6308
11.105 70.4905
11.2844 68.3652
11.4637 63.8458
11.6431 62.5245
11.8225 61.4202
12.002 62.0217
12.1814 156.782
12.3609 67.923
12.5405 63.586
12.72 67.6933
12.8996 70.0154
13.0792 77.5453
13.2589 239.689
13.4386 118.868
13.6183 252.911
13.7981 95.0143
13.9779 74.3485
14.1577 70.8197
14.3376 69.7906
14.5175 67.4415
14.6974 69.158
14.8774 108.353
15.0574 144.977
15.2374 69.0405
15.4175 65.1698
15.5976 64.3953
15.7778 92.7115
15.958 148.965
16.1382 60.9305
16.3185 57.3888
16.4988 54.3887
16.6792 53.3249
16.8596 54.0187
17.04 54.611
17.2205 65.8427
17.401 69.0952
17.5815 58.0695
17.7622 59.933
17.9428 71.4536
18.1237 136.938
18.3044 90.0976
18.4852 75.1256
18.666 59.4262
18.8469 57.0493
19.0278 55.6781
19.2088 58.1274
19.3898 74.3371
19.5709 53.213
19.752 52.3868
19.9332 55.1747
20.1144 68.632
20.2957 64.0424
20.477 52.6569
20.6586 48.7612
20.84 47.8811
21.0215 47.6536
21.203 50.0128
21.3846 48.0348
21.5662 47.7735
21.7479 51.609
21.9297 63.3548
22.1115 55.256
22.2933 48.9059
22.4753 47.7698
22.6572 47.7806
22.8393 50.9331
23.0214 56.1512
23.2037 47.9426
23.3859 48.6505
23.5682 56.3947
23.7505 47.4414
23.9329 44.2922
24.1154 43.4382
24.2979 42.6355
24.4805 42.1521
24.6631 42.0755
24.8458 41.464
25.0286 42.1003
25.2114 43.8885
25.3943 43.5486
25.5773 40.1894
25.7605 39.7093
25.9436 40.0921
26.1268 40.9696
26.31 39.4857
26.4933 39.9307
26.6767 41.4318
26.8601 39.8099
27.0437 38.2711
27.2272 37.8203
27.4109 37.6659
27.5946 37.6827
27.7784 37.2327
27.9623 37.8535
28.1462 38.1561
28.3304 36.4585
28.5145 35.3951
28.6987 34.9774
28.8829 34.8143
29.0673 34.1103
29.2517 33.7815
29.4361 33.5156
29.6207 32.5748
29.8053 32.3026
29.99 32.0045
30.1748 31.9013
30.3597 31.6565
30.5447 31.6372
30.7297 31.6565
30.915 30.9917
31.1002 30.6406
31.2855 30.3067
31.4708 30.3118
31.6563 29.8899
31.8418 29.6115
32.0275 29.3389
32.2132 28.8321
32.399 28.4466
32.5848 27.8651
32.7708 27.6602
32.9569 27.5254
33.143 27.2558
33.3293 26.9417
33.5158 26.5805
33.7022 26.1149
33.8887 25.9059
34.0753 25.5275
34.262 25.2373
34.4488 24.8737
34.6357 24.5216
34.8227 24.2681
35.0098 24.1056
35.1969 23.7895
35.3842 23.5986
35.5716 23.3025
35.759 23.1023
35.9468 22.7213
36.1345 22.4601
36.3222 22.2101
36.5101 22.1115
36.6981 21.7581
36.8861 21.4135
37.0743 21.1321
37.2626 20.8669
37.451 20.5809
37.6395 20.5289
37.8281 20.1745
38.0168 19.8864
38.2056 19.6011
38.3945 19.3378
38.5837 19.0852
38.7728 18.9552
38.9621 18.6877
39.1514 18.3232
39.3409 18.1385
39.5304 17.9637
39.7201 17.7795
39.9099 17.5872
40.0999 17.2881
40.2899 17.0544
40.48 16.8179
40.6703 16.6456
40.8607 16.4744
41.0512 16.2462
41.242 15.9834
41.4327 15.8274
41.6236 15.5662
41.8146 15.3695
42.0057 15.1861
42.1969 14.9658
42.3882 14.7971
42.5797 14.5574
42.7713 14.3708
42.963 14.2137
43.1549 14.026
43.3468 13.7874
43.5389 13.6165
43.7312 13.4298
43.9237 13.2494
44.1162 13.0605
44.3088 12.8772
44.5016 12.6724
44.6945 12.5123
44.8875 12.3448
45.0806 12.1698
45.2739 11.9701
45.4673 11.8667
45.6609 11.6422
45.8546 11.521
46.0484 11.3202
46.2424 11.1529
46.4365 11.0019
46.631 10.8229
46.8254 10.6753
47.0199 10.5032
47.2146 10.3747
47.4095 10.232
47.6044 10.0871
47.7996 9.88839
47.9948 9.79329
48.1902 9.61266
48.3858 9.4877
48.5815 9.37643
48.7774 9.25443
48.9734 9.10137
49.1696 8.94423
49.3661 8.8456
49.5626 8.70591
49.7592 8.57695
49.956 8.41688
50.153 8.29748
50.3501 8.1406
50.5474 8.03771
50.7448 7.9241
50.9424 7.81402
51.1402 7.68348
51.3381 7.57489
51.5362 7.43445
51.7344 7.31404
51.9328 7.20944
52.1316 7.08292
52.3304 6.96084
52.5293 6.7782
52.7284 6.73482
52.9276 6.63928
53.1271 6.53458
53.3267 6.38289
53.5265 6.27253
53.7264 6.1719
53.9266 6.08196
54.1269 5.9714
54.3274 5.84921
54.528 5.67091
54.7289 5.51715
54.9301 5.39136
55.1314 5.22533
55.3328 5.04034
55.5344 4.8641
55.7361 4.72683