File: XRD/Ni3Fe_FD0741.xy
TT I
1.27165 7.11491
1.45013 6.59168
1.62863 5.27212
1.80712 4.54488
1.98562 4.21475
2.16411 4.82626
2.34263 5.25184
2.52115 7.70074
2.69965 8.67008
2.87818 8.67897
3.05672 11.2514
3.23527 15.1922
3.4138 18.9376
3.59237 24.046
3.77094 26.2191
3.9495 29.8274
4.12809 35.01
4.30669 222.605
4.4853 65.9047
4.6639 55.3178
4.84253 66.8961
5.02118 86.101
5.19981 317.942
5.37848 185.16
5.55716 101.658
5.73586 91.782
5.91455 92.9104
6.09328 4573.76
6.27201 82.7671
6.45075 67.1317
6.62952 62.7979
6.8083 58.6943
6.98711 56.2145
7.16591 55.0216
7.34475 91.4824
7.5236 54.6652
7.70247 55.9875
7.88135 57.2193
8.06026 61.9636
8.23919 69.2735
8.41812 84.2787
8.59709 1162.19
8.77609 99.0057
8.9551 91.2103
9.13412 81.7894
9.31318 82.044
9.49226 84.0103
9.67134 98.0675
9.85047 98.7618
10.0296 321.273
10.2088 414.128
10.388 103.508
10.5672 516.829
10.7465 85.9843
10.9257 78.205
11.105 71.8961
11.2844 70.4004
11.4637 64.586
11.6431 63.5421
11.8225 62.3192
12.002 63.0743
12.1814 151.907
12.3609 70.449
12.5405 64.3407
12.72 69.6972
12.8996 70.3005
13.0792 78.1799
13.2589 234.708
13.4386 126.451
13.6183 245.175
13.7981 97.9028
13.9779 75.5767
14.1577 72.165
14.3376 71.352
14.5175 68.4884
14.6974 70.0291
14.8774 108.419
15.0574 151.327
15.2374 70.814
15.4175 66.0484
15.5976 65.3878
15.7778 93.1096
15.958 156.117
16.1382 62.7903
16.3185 58.5147
16.4988 55.4108
16.6792 54.276
16.8596 54.929
17.04 55.3877
17.2205 66.1853
17.401 70.8347
17.5815 58.9762
17.7622 60.8896
17.9428 72.4386
18.1237 138.366
18.3044 90.0974
18.4852 77.2711
18.666 60.0828
18.8469 57.7671
19.0278 56.5982
19.2088 59.0032
19.3898 75.9721
19.5709 54.0276
19.752 52.8707
19.9332 55.7016
20.1144 69.3639
20.2957 63.6258
20.477 53.4506
20.6586 49.6119
20.84 48.4203
21.0215 48.2813
21.203 50.7224
21.3846 48.747
21.5662 48.3339
21.7479 52.1274
21.9297 64.1073
22.1115 55.693
22.2933 49.7659
22.4753 48.6503
22.6572 48.4462
22.8393 51.5341
23.0214 57.0297
23.2037 48.5058
23.3859 49.3689
23.5682 56.7243
23.7505 48.1308
23.9329 44.9344
24.1154 43.837
24.2979 43.1235
24.4805 42.7655
24.6631 42.641
24.8458 41.8776
25.0286 42.6742
25.2114 44.3498
25.3943 44.3272
25.5773 40.6518
25.7605 40.2765
25.9436 40.5599
26.1268 41.4542
26.31 39.9198
26.4933 40.4436
26.6767 41.8792
26.8601 40.2583
27.0437 38.823
27.2272 38.2755
27.4109 38.1644
27.5946 38.133
27.7784 37.5626
27.9623 38.2353
28.1462 38.5492
28.3304 37.0652
28.5145 35.7469
28.6987 35.3587
28.8829 35.2001
29.0673 34.5116
29.2517 34.2313
29.4361 34.0024
29.6207 33.0358
29.8053 32.7403
29.99 32.3616
30.1748 32.2457
30.3597 32.1078
30.5447 31.8905
30.7297 32.0913
30.915 31.4382
31.1002 30.888
31.2855 30.6515
31.4708 30.6993
31.6563 30.1839
31.8418 29.9836
32.0275 29.8169
32.2132 29.2678
32.399 28.7548
32.5848 28.3758
32.7708 28.0567
32.9569 27.867
33.143 27.6734
33.3293 27.3285
33.5158 26.926
33.7022 26.4202
33.8887 26.1829
34.0753 25.8148
34.262 25.5466
34.4488 25.1697
34.6357 24.8416
34.8227 24.5254
35.0098 24.3666
35.1969 24.1285
35.3842 23.8287
35.5716 23.6696
35.759 23.3393
35.9468 22.955
36.1345 22.7604
36.3222 22.4857
36.5101 22.3436
36.6981 22.0928
36.8861 21.7063
37.0743 21.4207
37.2626 21.1679
37.451 20.8758
37.6395 20.7928
37.8281 20.4097
38.0168 20.1009
38.2056 19.863
38.3945 19.6316
38.5837 19.3968
38.7728 19.1624
38.9621 18.8311
39.1514 18.6765
39.3409 18.4246
39.5304 18.1544
39.7201 17.9772
39.9099 17.7594
40.0999 17.5182
40.2899 17.2675
40.48 16.9752
40.6703 16.8275
40.8607 16.6916
41.0512 16.4732
41.242 16.1852
41.4327 15.9658
41.6236 15.7473
41.8146 15.5853
42.0057 15.3914
42.1969 15.2092
42.3882 15.0089
42.5797 14.7285
42.7713 14.573
42.963 14.3178
43.1549 14.1799
43.3468 13.9227
43.5389 13.7506
43.7312 13.5816
43.9237 13.4329
44.1162 13.1897
44.3088 13.0163
44.5016 12.8252
44.6945 12.6404
44.8875 12.4986
45.0806 12.2883
45.2739 12.1733
45.4673 12.0239
45.6609 11.7847
45.8546 11.6539
46.0484 11.448
46.2424 11.3261
46.4365 11.161
46.631 10.9852
46.8254 10.7752
47.0199 10.6796
47.2146 10.5335
47.4095 10.3215
47.6044 10.1856
47.7996 10.0449
47.9948 9.88674
48.1902 9.76648
48.3858 9.62114
48.5815 9.47462
48.7774 9.32898
48.9734 9.2219
49.1696 9.06225
49.3661 8.9262
49.5626 8.78614
49.7592 8.69341
49.956 8.54189
50.153 8.38991
50.3501 8.25759
50.5474 8.1742
50.7448 8.01615
50.9424 7.89342
51.1402 7.77129
51.3381 7.59768
51.5362 7.53087
51.7344 7.4035
51.9328 7.29439
52.1316 7.15788
52.3304 7.04361
52.5293 6.95061
52.7284 6.7773
52.9276 6.68545
53.1271 6.60617
53.3267 6.45692
53.5265 6.3478
53.7264 6.23058
53.9266 6.12912
54.1269 6.04444
54.3274 5.88237
54.528 5.75413
54.7289 5.64728
54.9301 5.46843
55.1314 5.30861
55.3328 5.11786
55.5344 4.93123
55.7361 4.83111