File: XRD/Ni3Fe_FD0566.xy
TT I
1.27165 7.34418
1.45013 6.32348
1.62863 5.28762
1.80712 5.31825
1.98562 4.41894
2.16411 4.44334
2.34263 5.08853
2.52115 6.4663
2.69965 8.08095
2.87818 9.30408
3.05672 10.8604
3.23527 14.9713
3.4138 19.0583
3.59237 23.6491
3.77094 25.9176
3.9495 29.6112
4.12809 34.1255
4.30669 143.018
4.4853 58.5422
4.6639 56.209
4.84253 67.9735
5.02118 88.7636
5.19981 443.423
5.37848 198.195
5.55716 103.251
5.73586 93.5204
5.91455 97.0382
6.09328 4464.06
6.27201 82.5394
6.45075 68.0181
6.62952 63.0487
6.8083 58.9865
6.98711 55.7616
7.16591 55.5742
7.34475 77.1667
7.5236 54.8458
7.70247 56.3923
7.88135 58.0592
8.06026 62.5755
8.23919 70.0113
8.41812 85.8199
8.59709 1242.44
8.77609 99.7271
8.9551 89.9026
9.13412 83.0059
9.31318 83.3707
9.49226 85.7282
9.67134 96.3882
9.85047 100.87
10.0296 379.41
10.2088 382.989
10.388 106.104
10.5672 524.081
10.7465 87.2801
10.9257 78.1586
11.105 72.0816
11.2844 69.7349
11.4637 65.1279
11.6431 63.8121
11.8225 62.8331
12.002 64.7152
12.1814 155.191
12.3609 68.6002
12.5405 64.8266
12.72 68.8161
12.8996 71.7228
13.0792 80.3903
13.2589 250.214
13.4386 122.112
13.6183 254.239
13.7981 96.1699
13.9779 76.565
14.1577 72.5764
14.3376 71.5468
14.5175 69.1974
14.6974 70.932
14.8774 115.507
15.0574 144.606
15.2374 70.5416
15.4175 66.6944
15.5976 66.6394
15.7778 98.7678
15.958 152.592
16.1382 62.3056
16.3185 58.5155
16.4988 55.8296
16.6792 54.9369
16.8596 55.2394
17.04 56.4203
17.2205 67.8007
17.401 71.0266
17.5815 59.6057
17.7622 61.9814
17.9428 75.7045
18.1237 141.297
18.3044 91.9597
18.4852 76.9692
18.666 60.8828
18.8469 58.3823
19.0278 57.3235
19.2088 60.1709
19.3898 76.2401
19.5709 54.5316
19.752 53.7345
19.9332 56.7504
20.1144 70.6068
20.2957 64.3213
20.477 53.7486
20.6586 49.8436
20.84 49.1141
21.0215 48.8612
21.203 51.1592
21.3846 49.1498
21.5662 49.3521
21.7479 53.3588
21.9297 65.0415
22.1115 56.3788
22.2933 50.0173
22.4753 49.2221
22.6572 49.2639
22.8393 52.4283
23.0214 57.4366
23.2037 49.1302
23.3859 50.3685
23.5682 57.5046
23.7505 48.4386
23.9329 45.4643
24.1154 44.3385
24.2979 43.6255
24.4805 43.2499
24.6631 43.0938
24.8458 42.5215
25.0286 43.2575
25.2114 44.8811
25.3943 44.826
25.5773 41.133
25.7605 40.815
25.9436 41.1233
26.1268 42.0487
26.31 40.3443
26.4933 41.0862
26.6767 42.4366
26.8601 40.6977
27.0437 39.22
27.2272 38.8242
27.4109 38.7463
27.5946 38.5615
27.7784 38.1039
27.9623 38.7086
28.1462 39.073
28.3304 37.3718
28.5145 36.1608
28.6987 35.9122
28.8829 35.6137
29.0673 34.8721
29.2517 34.5036
29.4361 34.2787
29.6207 33.2898
29.8053 33.0882
29.99 32.7184
30.1748 32.6803
30.3597 32.3973
30.5447 32.4434
30.7297 32.4519
30.915 31.739
31.1002 31.3971
31.2855 31.1032
31.4708 30.9409
31.6563 30.5799
31.8418 30.3598
32.0275 30.0684
32.2132 29.5334
32.399 29.1057
32.5848 28.7085
32.7708 28.3642
32.9569 28.2532
33.143 28.0096
33.3293 27.6124
33.5158 27.1758
33.7022 26.7484
33.8887 26.4236
34.0753 26.1904
34.262 25.8674
34.4488 25.4443
34.6357 25.15
34.8227 24.8458
35.0098 24.7012
35.1969 24.3483
35.3842 24.0706
35.5716 23.9332
35.759 23.6336
35.9468 23.2869
36.1345 23.0038
36.3222 22.8039
36.5101 22.5848
36.6981 22.2437
36.8861 21.9826
37.0743 21.5902
37.2626 21.3341
37.451 21.0835
37.6395 20.9272
37.8281 20.614
38.0168 20.3522
38.2056 20.1003
38.3945 19.8403
38.5837 19.643
38.7728 19.3237
38.9621 19.0019
39.1514 18.815
39.3409 18.5465
39.5304 18.3407
39.7201 18.0938
39.9099 17.9194
40.0999 17.7145
40.2899 17.4943
40.48 17.2404
40.6703 17.0062
40.8607 16.8453
41.0512 16.5743
41.242 16.3447
41.4327 16.1808
41.6236 15.9087
41.8146 15.6752
42.0057 15.443
42.1969 15.377
42.3882 15.1751
42.5797 14.8918
42.7713 14.6989
42.963 14.4857
43.1549 14.2709
43.3468 14.0983
43.5389 13.9253
43.7312 13.6841
43.9237 13.5151
44.1162 13.3545
44.3088 13.1543
44.5016 12.9517
44.6945 12.769
44.8875 12.6284
45.0806 12.4474
45.2739 12.2659
45.4673 12.1047
45.6609 11.9256
45.8546 11.7885
46.0484 11.6265
46.2424 11.3896
46.4365 11.265
46.631 11.0908
46.8254 10.9278
47.0199 10.7881
47.2146 10.6103
47.4095 10.4585
47.6044 10.3329
47.7996 10.1572
47.9948 10.0159
48.1902 9.8064
48.3858 9.71201
48.5815 9.56276
48.7774 9.42458
48.9734 9.29918
49.1696 9.13849
49.3661 9.01147
49.5626 8.82866
49.7592 8.73705
49.956 8.60414
50.153 8.47398
50.3501 8.35791
50.5474 8.23314
50.7448 8.12084
50.9424 7.96187
51.1402 7.80997
51.3381 7.73064
51.5362 7.61264
51.7344 7.44895
51.9328 7.36225
52.1316 7.24617
52.3304 7.07342
52.5293 6.95547
52.7284 6.87704
52.9276 6.74986
53.1271 6.61768
53.3267 6.53098
53.5265 6.43883
53.7264 6.29378
53.9266 6.21191
54.1269 6.08221
54.3274 5.95243
54.528 5.82923
54.7289 5.68587
54.9301 5.5133
55.1314 5.36001
55.3328 5.17078
55.5344 4.95318
55.7361 4.82659