File: XRD/Ni3Fe_FD1047.xy
TT I
1.27165 6.76005
1.45013 6.06077
1.62863 4.75899
1.80712 4.5959
1.98562 4.09677
2.16411 4.63276
2.34263 5.31686
2.52115 7.19221
2.69965 8.00863
2.87818 8.47027
3.05672 10.3727
3.23527 14.5751
3.4138 18.5353
3.59237 21.178
3.77094 24.3904
3.9495 28.1437
4.12809 31.9685
4.30669 56.5707
4.4853 46.1638
4.6639 52.753
4.84253 64.2781
5.02118 82.927
5.19981 233.586
5.37848 213.249
5.55716 97.1694
5.73586 87.958
5.91455 88.943
6.09328 4592.79
6.27201 76.0895
6.45075 63.2342
6.62952 58.3835
6.8083 54.1751
6.98711 52.442
7.16591 51.7285
7.34475 56.0311
7.5236 59.0894
7.70247 53.2238
7.88135 54.8569
8.06026 59.187
8.23919 65.8746
8.41812 77.9248
8.59709 1089.29
8.77609 94.7102
8.9551 82.1844
9.13412 79.017
9.31318 89.8621
9.49226 81.1459
9.67134 86.6974
9.85047 93.9114
10.0296 347.811
10.2088 437.117
10.388 97.9583
10.5672 505.424
10.7465 86.4128
10.9257 73.449
11.105 68.0537
11.2844 64.9187
11.4637 61.6732
11.6431 60.559
11.8225 59.6599
12.002 67.087
12.1814 146.827
12.3609 64.6406
12.5405 61.4237
12.72 64.1034
12.8996 67.9174
13.0792 76.6616
13.2589 227.813
13.4386 127.119
13.6183 236.719
13.7981 100.312
13.9779 73.5101
14.1577 75.5523
14.3376 67.2888
14.5175 66.3232
14.6974 67.5199
14.8774 110.021
15.0574 160.818
15.2374 66.4014
15.4175 64.18
15.5976 63.2699
15.7778 94.2518
15.958 167.967
16.1382 59.8324
16.3185 55.7892
16.4988 53.4191
16.6792 52.7017
16.8596 52.8259
17.04 53.7152
17.2205 64.4383
17.401 71.9198
17.5815 57.2535
17.7622 60.0741
17.9428 73.3954
18.1237 141.872
18.3044 88.9457
18.4852 79.365
18.666 58.8025
18.8469 56.5492
19.0278 55.1295
19.2088 57.897
19.3898 76.1014
19.5709 52.9398
19.752 51.9097
19.9332 54.9029
20.1144 70.4864
20.2957 63.3793
20.477 52.8999
20.6586 48.504
20.84 47.9493
21.0215 47.1715
21.203 49.4898
21.3846 47.8503
21.5662 47.6575
21.7479 51.8384
21.9297 65.3158
22.1115 55.9511
22.2933 48.9325
22.4753 47.5816
22.6572 47.6321
22.8393 51.2141
23.0214 57.3687
23.2037 47.7658
23.3859 49.3606
23.5682 57.2739
23.7505 48.128
23.9329 44.353
24.1154 43.2264
24.2979 42.3194
24.4805 41.9026
24.6631 41.9855
24.8458 41.3364
25.0286 41.9417
25.2114 44.13
25.3943 44.1841
25.5773 40.3325
25.7605 39.6392
25.9436 40.0474
26.1268 41.1361
26.31 39.3825
26.4933 39.9467
26.6767 42.0255
26.8601 40.0931
27.0437 38.1855
27.2272 37.8264
27.4109 37.627
27.5946 37.8756
27.7784 37.2786
27.9623 37.9962
28.1462 38.6318
28.3304 36.7879
28.5145 35.3953
28.6987 34.9309
28.8829 34.7157
29.0673 34.0997
29.2517 33.6796
29.4361 33.52
29.6207 32.5208
29.8053 32.3309
29.99 31.8657
30.1748 31.9175
30.3597 31.7572
30.5447 31.5778
30.7297 31.8243
30.915 31.2117
31.1002 30.737
31.2855 30.3747
31.4708 30.3382
31.6563 30.01
31.8418 29.7383
32.0275 29.5306
32.2132 28.921
32.399 28.507
32.5848 28.0709
32.7708 27.6737
32.9569 27.6518
33.143 27.3827
33.3293 26.9845
33.5158 26.6751
33.7022 26.1312
33.8887 25.9597
34.0753 25.5747
34.262 25.2994
34.4488 24.8993
34.6357 24.553
34.8227 24.2549
35.0098 24.0939
35.1969 23.8548
35.3842 23.6629
35.5716 23.4104
35.759 23.063
35.9468 22.7476
36.1345 22.6034
36.3222 22.3504
36.5101 22.0388
36.6981 21.7949
36.8861 21.4988
37.0743 21.1324
37.2626 20.9006
37.451 20.6364
37.6395 20.4974
37.8281 20.1659
38.0168 19.8376
38.2056 19.6245
38.3945 19.4137
38.5837 19.1336
38.7728 18.9047
38.9621 18.6216
39.1514 18.4499
39.3409 18.1836
39.5304 17.9731
39.7201 17.8047
39.9099 17.5687
40.0999 17.2574
40.2899 17.0958
40.48 16.8517
40.6703 16.6373
40.8607 16.4652
41.0512 16.2689
41.242 15.9947
41.4327 15.7436
41.6236 15.6043
41.8146 15.3806
42.0057 15.1715
42.1969 14.9956
42.3882 14.804
42.5797 14.5766
42.7713 14.3913
42.963 14.2278
43.1549 14.0099
43.3468 13.8053
43.5389 13.5937
43.7312 13.4334
43.9237 13.229
44.1162 13.0749
44.3088 12.8895
44.5016 12.6608
44.6945 12.5292
44.8875 12.3637
45.0806 12.1431
45.2739 11.9943
45.4673 11.8846
45.6609 11.6277
45.8546 11.5342
46.0484 11.3732
46.2424 11.1558
46.4365 11.0521
46.631 10.8278
46.8254 10.6974
47.0199 10.548
47.2146 10.3871
47.4095 10.2189
47.6044 10.0703
47.7996 9.93025
47.9948 9.74471
48.1902 9.57046
48.3858 9.47295
48.5815 9.38029
48.7774 9.22492
48.9734 9.08573
49.1696 8.95843
49.3661 8.82786
49.5626 8.63323
49.7592 8.54957
49.956 8.47823
50.153 8.27288
50.3501 8.17548
50.5474 8.04393
50.7448 7.92907
50.9424 7.77646
51.1402 7.6815
51.3381 7.54217
51.5362 7.46627
51.7344 7.3099
51.9328 7.18195
52.1316 7.03224
52.3304 6.95999
52.5293 6.80452
52.7284 6.73752
52.9276 6.5773
53.1271 6.51541
53.3267 6.41384
53.5265 6.28073
53.7264 6.17659
53.9266 6.06599
54.1269 5.92611
54.3274 5.8474
54.528 5.73916
54.7289 5.54503
54.9301 5.37831
55.1314 5.25416
55.3328 5.11973
55.5344 4.93367
55.7361 4.81256