File: XRD/Ni3Fe_FD0856.xy
TT I
1.27165 7.02714
1.45013 5.52939
1.62863 5.56015
1.80712 5.06889
1.98562 4.3527
2.16411 5.30771
2.34263 5.84628
2.52115 7.62258
2.69965 8.82233
2.87818 9.45958
3.05672 11.6962
3.23527 15.377
3.4138 18.85
3.59237 23.7836
3.77094 25.9245
3.9495 29.6887
4.12809 34.7728
4.30669 215.933
4.4853 64.8219
4.6639 54.8176
4.84253 66.1244
5.02118 85.2078
5.19981 295.796
5.37848 176.512
5.55716 100.251
5.73586 90.3541
5.91455 91.3927
6.09328 4368.08
6.27201 81.369
6.45075 66.3057
6.62952 61.9032
6.8083 57.8956
6.98711 55.5314
7.16591 54.7843
7.34475 89.8678
7.5236 54.2433
7.70247 55.6303
7.88135 57.2115
8.06026 61.3919
8.23919 68.3046
8.41812 83.485
8.59709 1133.29
8.77609 97.5227
8.9551 90.4633
9.13412 80.9164
9.31318 81.4091
9.49226 83.3333
9.67134 96.9748
9.85047 97.98
10.0296 307.963
10.2088 397.616
10.388 102.597
10.5672 526.335
10.7465 85.3618
10.9257 77.2214
11.105 71.2596
11.2844 69.6199
11.4637 64.3462
11.6431 63.0104
11.8225 61.5705
12.002 62.5161
12.1814 153.079
12.3609 69.5513
12.5405 63.445
12.72 68.7312
12.8996 69.7451
13.0792 77.5073
13.2589 233.191
13.4386 121.723
13.6183 248.686
13.7981 96.1145
13.9779 74.8403
14.1577 71.405
14.3376 70.7798
14.5175 67.9623
14.6974 69.3556
14.8774 106.797
15.0574 147.552
15.2374 70.0038
15.4175 65.4094
15.5976 64.6989
15.7778 91.2554
15.958 154.169
16.1382 61.8053
16.3185 57.9251
16.4988 54.7875
16.6792 53.6906
16.8596 54.3556
17.04 54.955
17.2205 65.4827
17.401 70.0466
17.5815 58.2664
17.7622 60.426
17.9428 71.3724
18.1237 138.055
18.3044 89.9214
18.4852 76.2851
18.666 59.5339
18.8469 57.422
19.0278 55.9643
19.2088 58.2851
19.3898 76.0742
19.5709 53.4123
19.752 52.6957
19.9332 55.2872
20.1144 68.8717
20.2957 63.8837
20.477 53.0018
20.6586 48.9888
20.84 48.0353
21.0215 47.8855
21.203 50.4669
21.3846 48.2862
21.5662 48.0665
21.7479 51.7186
21.9297 63.6132
22.1115 55.5952
22.2933 49.0213
22.4753 48.362
22.6572 48.2137
22.8393 51.1725
23.0214 56.6122
23.2037 48.2285
23.3859 48.9492
23.5682 56.5202
23.7505 47.6825
23.9329 44.6424
24.1154 43.5472
24.2979 42.8962
24.4805 42.4339
24.6631 42.3247
24.8458 41.6898
25.0286 42.1434
25.2114 44.0843
25.3943 43.9658
25.5773 40.4198
25.7605 39.9785
25.9436 40.2364
26.1268 41.2017
26.31 39.5678
26.4933 40.0554
26.6767 41.6034
26.8601 39.8786
27.0437 38.3356
27.2272 38.008
27.4109 37.9173
27.5946 37.9331
27.7784 37.3682
27.9623 37.8929
28.1462 38.3872
28.3304 36.592
28.5145 35.4904
28.6987 35.1796
28.8829 34.9859
29.0673 34.2606
29.2517 33.8974
29.4361 33.7173
29.6207 32.7724
29.8053 32.4048
29.99 32.2254
30.1748 32.0749
30.3597 31.9009
30.5447 31.6825
30.7297 31.8715
30.915 31.1854
31.1002 30.824
31.2855 30.4766
31.4708 30.4629
31.6563 30.011
31.8418 29.7095
32.0275 29.5812
32.2132 29.1843
32.399 28.5184
32.5848 28.1862
32.7708 27.7937
32.9569 27.654
33.143 27.5114
33.3293 27.0467
33.5158 26.6717
33.7022 26.2231
33.8887 26.0109
34.0753 25.6331
34.262 25.378
34.4488 25.0731
34.6357 24.7034
34.8227 24.4019
35.0098 24.1761
35.1969 23.9214
35.3842 23.6381
35.5716 23.4285
35.759 23.124
35.9468 22.8544
36.1345 22.5979
36.3222 22.387
36.5101 22.2222
36.6981 21.826
36.8861 21.4969
37.0743 21.2377
37.2626 21.0172
37.451 20.7638
37.6395 20.5575
37.8281 20.279
38.0168 20.0175
38.2056 19.6651
38.3945 19.4688
38.5837 19.189
38.7728 18.9282
38.9621 18.7671
39.1514 18.5376
39.3409 18.2816
39.5304 17.9742
39.7201 17.811
39.9099 17.5856
40.0999 17.3529
40.2899 17.1393
40.48 16.8799
40.6703 16.6836
40.8607 16.4894
41.0512 16.3078
41.242 16.0076
41.4327 15.8904
41.6236 15.6853
41.8146 15.4872
42.0057 15.25
42.1969 15.0128
42.3882 14.85
42.5797 14.6503
42.7713 14.4801
42.963 14.2192
43.1549 14.0665
43.3468 13.8315
43.5389 13.694
43.7312 13.4731
43.9237 13.3197
44.1162 13.1102
44.3088 12.9753
44.5016 12.7611
44.6945 12.5444
44.8875 12.3845
45.0806 12.2363
45.2739 12.0596
45.4673 11.9172
45.6609 11.7425
45.8546 11.5683
46.0484 11.4089
46.2424 11.2628
46.4365 11.0693
46.631 10.9168
46.8254 10.7562
47.0199 10.6016
47.2146 10.4591
47.4095 10.2663
47.6044 10.1351
47.7996 9.9873
47.9948 9.82621
48.1902 9.67782
48.3858 9.57657
48.5815 9.41436
48.7774 9.3093
48.9734 9.10458
49.1696 8.98873
49.3661 8.85445
49.5626 8.67955
49.7592 8.60902
49.956 8.48441
50.153 8.33318
50.3501 8.18895
50.5474 8.07414
50.7448 7.95468
50.9424 7.82881
51.1402 7.75081
51.3381 7.586
51.5362 7.50334
51.7344 7.34451
51.9328 7.2065
52.1316 7.06031
52.3304 7.00807
52.5293 6.87455
52.7284 6.77238
52.9276 6.65411
53.1271 6.54852
53.3267 6.44569
53.5265 6.31052
53.7264 6.20656
53.9266 6.09883
54.1269 6.03029
54.3274 5.90453
54.528 5.72718
54.7289 5.58754
54.9301 5.40527
55.1314 5.26827
55.3328 5.08745
55.5344 4.90006
55.7361 4.79378