File: XRD/Ni3Fe_FD0958.xy
TT I
1.27165 6.9885
1.45013 6.0756
1.62863 5.03695
1.80712 4.77861
1.98562 4.51428
2.16411 5.19178
2.34263 5.74338
2.52115 7.16724
2.69965 8.64282
2.87818 8.97491
3.05672 10.8388
3.23527 15.4216
3.4138 18.8947
3.59237 23.4829
3.77094 25.6375
3.9495 29.6273
4.12809 34.8362
4.30669 172.089
4.4853 60.1579
4.6639 54.4515
4.84253 66.6615
5.02118 85.1438
5.19981 291.977
5.37848 176.147
5.55716 100.244
5.73586 90.1887
5.91455 91.1848
6.09328 4547.33
6.27201 80.1247
6.45075 66.8842
6.62952 61.5233
6.8083 57.8408
6.98711 54.8974
7.16591 54.9334
7.34475 80.9161
7.5236 53.8464
7.70247 55.5012
7.88135 57.2666
8.06026 61.6881
8.23919 68.5556
8.41812 82.8914
8.59709 1174.45
8.77609 96.311
8.9551 89.1656
9.13412 80.7153
9.31318 81.5331
9.49226 83.5129
9.67134 95.3896
9.85047 98.4239
10.0296 312.391
10.2088 358.559
10.388 102.055
10.5672 527.578
10.7465 84.869
10.9257 76.8279
11.105 70.3567
11.2844 68.3896
11.4637 63.7204
11.6431 62.2468
11.8225 61.5181
12.002 62.1185
12.1814 156.182
12.3609 68.0665
12.5405 63.4365
12.72 67.7694
12.8996 69.711
13.0792 78.3868
13.2589 239.094
13.4386 118.42
13.6183 252.287
13.7981 94.7781
13.9779 74.5632
14.1577 70.9451
14.3376 69.7385
14.5175 67.6365
14.6974 69.1082
14.8774 108.074
15.0574 144.161
15.2374 69.3833
15.4175 65.1335
15.5976 64.3275
15.7778 92.4208
15.958 148.134
16.1382 61.1639
16.3185 57.4315
16.4988 54.5766
16.6792 53.4719
16.8596 54.1864
17.04 54.7173
17.2205 65.6628
17.401 68.9016
17.5815 58.0425
17.7622 60.0793
17.9428 71.3562
18.1237 136.786
18.3044 90.3482
18.4852 74.8186
18.666 59.3251
18.8469 56.9781
19.0278 56.0244
19.2088 58.1199
19.3898 74.5639
19.5709 53.1575
19.752 52.2386
19.9332 54.9848
20.1144 68.6771
20.2957 63.7648
20.477 52.4612
20.6586 48.7033
20.84 48.1665
21.0215 47.6482
21.203 50.0731
21.3846 47.9074
21.5662 47.9853
21.7479 51.4835
21.9297 63.347
22.1115 55.2189
22.2933 48.7459
22.4753 47.8655
22.6572 47.8711
22.8393 50.9765
23.0214 56.1664
23.2037 47.8896
23.3859 48.8459
23.5682 56.4797
23.7505 47.3517
23.9329 44.3718
24.1154 43.2812
24.2979 42.5579
24.4805 42.1574
24.6631 42.108
24.8458 41.3252
25.0286 42.1231
25.2114 43.8416
25.3943 43.6344
25.5773 40.217
25.7605 39.7378
25.9436 40.1778
26.1268 41.002
26.31 39.3442
26.4933 39.9546
26.6767 41.4482
26.8601 39.8098
27.0437 38.187
27.2272 37.8147
27.4109 37.7248
27.5946 37.6924
27.7784 37.2566
27.9623 37.7414
28.1462 38.1526
28.3304 36.4995
28.5145 35.3701
28.6987 34.9944
28.8829 34.817
29.0673 33.9997
29.2517 33.7487
29.4361 33.4574
29.6207 32.5857
29.8053 32.3413
29.99 32.1142
30.1748 31.8718
30.3597 31.7225
30.5447 31.6558
30.7297 31.6953
30.915 31.067
31.1002 30.6352
31.2855 30.3818
31.4708 30.3014
31.6563 29.8509
31.8418 29.7082
32.0275 29.322
32.2132 28.9305
32.399 28.4514
32.5848 28.0521
32.7708 27.7062
32.9569 27.5325
33.143 27.2964
33.3293 26.8733
33.5158 26.5628
33.7022 26.1947
33.8887 25.8934
34.0753 25.6757
34.262 25.263
34.4488 24.8331
34.6357 24.4961
34.8227 24.2681
35.0098 24.1295
35.1969 23.8533
35.3842 23.6057
35.5716 23.4438
35.759 23.0562
35.9468 22.7569
36.1345 22.4645
36.3222 22.2577
36.5101 22.0212
36.6981 21.7663
36.8861 21.4101
37.0743 21.1136
37.2626 20.9139
37.451 20.6602
37.6395 20.4767
37.8281 20.1414
38.0168 19.8927
38.2056 19.6775
38.3945 19.3158
38.5837 19.1377
38.7728 18.9278
38.9621 18.6687
39.1514 18.3849
39.3409 18.0986
39.5304 17.971
39.7201 17.7774
39.9099 17.5243
40.0999 17.2828
40.2899 17.0738
40.48 16.7921
40.6703 16.6343
40.8607 16.4678
41.0512 16.1944
41.242 15.962
41.4327 15.7453
41.6236 15.5454
41.8146 15.4043
42.0057 15.248
42.1969 14.9439
42.3882 14.8286
42.5797 14.6479
42.7713 14.3936
42.963 14.1978
43.1549 13.9975
43.3468 13.7836
43.5389 13.6191
43.7312 13.3951
43.9237 13.2473
44.1162 13.0183
44.3088 12.9066
44.5016 12.6741
44.6945 12.4992
44.8875 12.3872
45.0806 12.1638
45.2739 12.0212
45.4673 11.8401
45.6609 11.6657
45.8546 11.4861
46.0484 11.3545
46.2424 11.2175
46.4365 11.0367
46.631 10.8766
46.8254 10.692
47.0199 10.5174
47.2146 10.3807
47.4095 10.2419
47.6044 10.0246
47.7996 9.93303
47.9948 9.7883
48.1902 9.6583
48.3858 9.49013
48.5815 9.36835
48.7774 9.26008
48.9734 9.13016
49.1696 8.95786
49.3661 8.77346
49.5626 8.65514
49.7592 8.55738
49.956 8.45908
50.153 8.27776
50.3501 8.18969
50.5474 8.03754
50.7448 7.94627
50.9424 7.7864
51.1402 7.68972
51.3381 7.52221
51.5362 7.49086
51.7344 7.35514
51.9328 7.19338
52.1316 7.05429
52.3304 6.95306
52.5293 6.81084
52.7284 6.75963
52.9276 6.6227
53.1271 6.51219
53.3267 6.39156
53.5265 6.272
53.7264 6.17329
53.9266 6.08527
54.1269 5.94775
54.3274 5.83864
54.528 5.75823
54.7289 5.53927
54.9301 5.42176
55.1314 5.27073
55.3328 5.04804
55.5344 4.85603
55.7361 4.77524