File: XRD/Ni3Fe_FD0152.xy
TT I
1.27165 7.74169
1.45013 6.7811
1.62863 6.12423
1.80712 5.62706
1.98562 4.24701
2.16411 5.27879
2.34263 4.22784
2.52115 4.98951
2.69965 5.84234
2.87818 8.02823
3.05672 11.5852
3.23527 15.0584
3.4138 19.0052
3.59237 21.622
3.77094 25.1855
3.9495 28.652
4.12809 32.2209
4.30669 37.616
4.4853 44.8593
4.6639 53.4983
4.84253 65.8995
5.02118 90.3077
5.19981 543.012
5.37848 455.797
5.55716 107.438
5.73586 94.7734
5.91455 104.892
6.09328 2705.93
6.27201 88.9966
6.45075 66.6183
6.62952 59.8128
6.8083 55.3763
6.98711 53.6122
7.16591 52.2072
7.34475 52.0565
7.5236 55.9015
7.70247 53.9626
7.88135 55.9047
8.06026 60.0865
8.23919 67.8784
8.41812 83.2294
8.59709 888.941
8.77609 116.294
8.9551 85.0003
9.13412 81.0207
9.31318 86.3665
9.49226 83.3559
9.67134 88.2855
9.85047 98.4198
10.0296 542.939
10.2088 996.047
10.388 104.288
10.5672 328.976
10.7465 90.6089
10.9257 75.6275
11.105 70.0018
11.2844 65.7872
11.4637 63.4075
11.6431 61.64
11.8225 61.0388
12.002 64.9687
12.1814 117.927
12.3609 74.9862
12.5405 62.9202
12.72 64.8635
12.8996 69.5506
13.0792 78.7736
13.2589 203.94
13.4386 212.483
13.6183 191.899
13.7981 154.085
13.9779 75.7393
14.1577 74.2347
14.3376 68.6384
14.5175 68.0776
14.6974 69.4909
14.8774 120.993
15.0574 205.233
15.2374 68.8942
15.4175 65.9782
15.5976 65.5212
15.7778 107.423
15.958 184.638
16.1382 61.6851
16.3185 57.0708
16.4988 54.9261
16.6792 53.842
16.8596 54.291
17.04 55.1684
17.2205 65.2836
17.401 81.209
17.5815 58.6006
17.7622 61.1364
17.9428 83.4728
18.1237 114.752
18.3044 88.446
18.4852 95.1633
18.666 60.871
18.8469 58.2843
19.0278 56.6255
19.2088 61.6567
19.3898 69.0126
19.5709 56.1424
19.752 53.2746
19.9332 58.0782
20.1144 66.8082
20.2957 61.077
20.477 59.133
20.6586 49.7537
20.84 48.9769
21.0215 48.8506
21.203 49.4984
21.3846 50.3793
21.5662 48.7277
21.7479 53.9753
21.9297 61.999
22.1115 56.1789
22.2933 52.5055
22.4753 48.9037
22.6572 48.9784
22.8393 52.0618
23.0214 57.0318
23.2037 49.8838
23.3859 51.7317
23.5682 53.6211
23.7505 53.3996
23.9329 45.5781
24.1154 44.2464
24.2979 43.5652
24.4805 42.9949
24.6631 42.9672
24.8458 42.4861
25.0286 43.092
25.2114 44.6802
25.3943 44.9862
25.5773 41.8725
25.7605 40.6104
25.9436 40.9927
26.1268 41.5767
26.31 40.9802
26.4933 41.0093
26.6767 41.9486
26.8601 41.3039
27.0437 39.419
27.2272 38.9349
27.4109 38.6666
27.5946 38.7259
27.7784 38.443
27.9623 38.5065
28.1462 39.5483
28.3304 37.9713
28.5145 36.3602
28.6987 35.8774
28.8829 35.5919
29.0673 35.104
29.2517 34.5394
29.4361 34.1946
29.6207 33.6113
29.8053 33.0737
29.99 32.7519
30.1748 32.5914
30.3597 32.6663
30.5447 32.4008
30.7297 32.3087
30.915 32.0748
31.1002 31.4549
31.2855 31.2439
31.4708 30.985
31.6563 30.8789
31.8418 30.3371
32.0275 30.2245
32.2132 29.8298
32.399 29.2074
32.5848 28.6769
32.7708 28.3531
32.9569 28.2682
33.143 27.945
33.3293 27.6713
33.5158 27.3541
33.7022 26.8162
33.8887 26.5401
34.0753 26.1545
34.262 25.7426
34.4488 25.4111
34.6357 25.1735
34.8227 24.911
35.0098 24.5593
35.1969 24.3869
35.3842 24.124
35.5716 23.9926
35.759 23.6964
35.9468 23.3123
36.1345 23.0965
36.3222 22.8634
36.5101 22.5303
36.6981 22.2697
36.8861 22.064
37.0743 21.6273
37.2626 21.4282
37.451 21.1085
37.6395 20.8992
37.8281 20.6136
38.0168 20.4182
38.2056 20.1279
38.3945 19.7988
38.5837 19.5357
38.7728 19.3382
38.9621 19.0512
39.1514 18.8111
39.3409 18.5788
39.5304 18.3412
39.7201 18.1881
39.9099 17.9344
40.0999 17.6576
40.2899 17.4515
40.48 17.2623
40.6703 17.0281
40.8607 16.8624
41.0512 16.6017
41.242 16.3758
41.4327 16.1823
41.6236 15.9657
41.8146 15.8478
42.0057 15.5209
42.1969 15.3014
42.3882 15.1341
42.5797 14.8999
42.7713 14.6866
42.963 14.4969
43.1549 14.3522
43.3468 14.1054
43.5389 13.9155
43.7312 13.749
43.9237 13.5832
44.1162 13.3477
44.3088 13.1728
44.5016 12.9574
44.6945 12.7433
44.8875 12.6055
45.0806 12.4626
45.2739 12.2698
45.4673 12.083
45.6609 11.9066
45.8546 11.7816
46.0484 11.6129
46.2424 11.4445
46.4365 11.3015
46.631 11.096
46.8254 10.9196
47.0199 10.7676
47.2146 10.6285
47.4095 10.4859
47.6044 10.3134
47.7996 10.156
47.9948 9.99523
48.1902 9.87377
48.3858 9.70069
48.5815 9.60661
48.7774 9.42882
48.9734 9.28557
49.1696 9.20045
49.3661 9.03204
49.5626 8.87559
49.7592 8.7733
49.956 8.64707
50.153 8.48406
50.3501 8.36652
50.5474 8.26207
50.7448 8.12124
50.9424 7.96311
51.1402 7.88442
51.3381 7.72443
51.5362 7.59926
51.7344 7.50044
51.9328 7.33317
52.1316 7.22617
52.3304 7.13916
52.5293 6.9963
52.7284 6.92529
52.9276 6.81153
53.1271 6.69727
53.3267 6.58421
53.5265 6.41596
53.7264 6.34123
53.9266 6.22194
54.1269 6.10721
54.3274 5.92073
54.528 5.81571
54.7289 5.64418
54.9301 5.45961
55.1314 5.34061
55.3328 5.07646
55.5344 4.85335
55.7361 4.78017