File: XRD/Ni3Fe_FD0022.xy
TT I
1.27165 34.0486
1.45013 29.5367
1.62863 26.7499
1.80712 23.3903
1.98562 23.6215
2.16411 24.6064
2.34263 25.1025
2.52115 24.9646
2.69965 28.8697
2.87818 39.2243
3.05672 65.8958
3.23527 76.4583
3.4138 41.7644
3.59237 38.7796
3.77094 39.8026
3.9495 38.4908
4.12809 51.1366
4.30669 85.9579
4.4853 60.9961
4.6639 47.2277
4.84253 53.3801
5.02118 86.473
5.19981 269.179
5.37848 3824.24
5.55716 156.345
5.73586 100.295
5.91455 110.486
6.09328 450.913
6.27201 318.631
6.45075 72.7003
6.62952 55.7886
6.8083 53.9105
6.98711 45.6446
7.16591 48.3405
7.34475 71.8993
7.5236 57.9156
7.70247 46.6709
7.88135 37.7352
8.06026 39.3374
8.23919 44.1622
8.41812 56.256
8.59709 156.199
8.77609 670.187
8.9551 77.7495
9.13412 58.742
9.31318 249.036
9.49226 52.832
9.67134 52.423
9.85047 59.8046
10.0296 98.1998
10.2088 478.745
10.388 133.212
10.5672 90.8696
10.7465 273.322
10.9257 48.9832
11.105 42.3706
11.2844 41.1996
11.4637 38.179
11.6431 37.6463
11.8225 36.8246
12.002 71.565
12.1814 46.7011
12.3609 94.0727
12.5405 44.7892
12.72 40.7652
12.8996 39.9595
13.0792 42.5779
13.2589 63.302
13.4386 145.471
13.6183 92.91
13.7981 155.528
13.9779 62.3218
14.1577 47.5871
14.3376 47.778
14.5175 37.9729
14.6974 37.7423
14.8774 42.8065
15.0574 59.9226
15.2374 93.4077
15.4175 41.2158
15.5976 38.1797
15.7778 40.9109
15.958 53.4665
16.1382 119.319
16.3185 39.8572
16.4988 33.7044
16.6792 31.8911
16.8596 31.7079
17.04 39.4876
17.2205 33.4368
17.401 36.3096
17.5815 48.1456
17.7622 35.1531
17.9428 40.2965
18.1237 42.8778
18.3044 88.9318
18.4852 56.2667
18.666 65.3609
18.8469 36.2066
19.0278 33.4483
19.2088 33.4618
19.3898 39.3509
19.5709 46.615
19.752 35.8272
19.9332 31.5938
20.1144 32.451
20.2957 42.2182
20.477 38.9924
20.6586 39.0961
20.84 31.7182
21.0215 29.6996
21.203 28.6844
21.3846 28.9643
21.5662 32.1261
21.7479 29.5773
21.9297 30.9976
22.1115 40.5075
22.2933 42.652
22.4753 35.6094
22.6572 29.9833
22.8393 30.3973
23.0214 31.0924
23.2037 38.5528
23.3859 33.7856
23.5682 34.1596
23.7505 33.9872
23.9329 41.7193
24.1154 29.2274
24.2979 27.3918
24.4805 26.3933
24.6631 26.2141
24.8458 27.8105
25.0286 26.0818
25.2114 26.2301
25.3943 28.4135
25.5773 30.3483
25.7605 28.9654
25.9436 26.5646
26.1268 25.5078
26.31 26.467
26.4933 27.9144
26.6767 25.8387
26.8601 27.3159
27.0437 30.4453
27.2272 27.0024
27.4109 24.6447
27.5946 24.6125
27.7784 24.8136
27.9623 25.188
28.1462 25.4771
28.3304 26.8993
28.5145 27.2225
28.6987 24.9696
28.8829 22.9732
29.0673 22.6208
29.2517 23.344
29.4361 22.0465
29.6207 22.0024
29.8053 22.6199
29.99 21.2633
30.1748 21.3365
30.3597 21.0221
30.5447 21.3394
30.7297 21.1192
30.915 21.1064
31.1002 22.877
31.2855 21.7705
31.4708 20.5276
31.6563 20.4613
31.8418 21.3674
32.0275 20.4322
32.2132 20.4244
32.399 20.7995
32.5848 19.7477
32.7708 18.9255
32.9569 18.7212
33.143 18.7176
33.3293 18.3921
33.5158 18.8407
33.7022 19.0183
33.8887 17.9366
34.0753 17.6947
34.262 17.6085
34.4488 17.2263
34.6357 17.0518
34.8227 16.9847
35.0098 16.5107
35.1969 16.3812
35.3842 16.2285
35.5716 16.1784
35.759 16.4571
35.9468 16.6028
36.1345 16.009
36.3222 15.6792
36.5101 15.5457
36.6981 15.5023
36.8861 15.1727
37.0743 15.2394
37.2626 14.8236
37.451 14.6015
37.6395 14.4036
37.8281 14.1852
38.0168 14.0558
38.2056 13.9521
38.3945 13.6246
38.5837 13.5397
38.7728 13.4666
38.9621 13.2098
39.1514 13.1303
39.3409 12.8896
39.5304 12.6468
39.7201 12.5445
39.9099 12.4606
40.0999 12.2948
40.2899 12.2627
40.48 12.0202
40.6703 11.9068
40.8607 11.8125
41.0512 11.6477
41.242 11.5733
41.4327 11.452
41.6236 11.1769
41.8146 11.0628
42.0057 10.907
42.1969 10.8176
42.3882 10.7072
42.5797 10.4593
42.7713 10.367
42.963 10.2181
43.1549 10.0946
43.3468 9.9226
43.5389 9.81247
43.7312 9.66983
43.9237 9.51664
44.1162 9.43434
44.3088 9.31443
44.5016 9.16821
44.6945 9.0842
44.8875 8.94314
45.0806 8.85112
45.2739 8.73639
45.4673 8.62133
45.6609 8.47149
45.8546 8.34184
46.0484 8.28919
46.2424 8.16758
46.4365 8.03139
46.631 7.92316
46.8254 7.80964
47.0199 7.68232
47.2146 7.58893
47.4095 7.4634
47.6044 7.37041
47.7996 7.26411
47.9948 7.14856
48.1902 7.04909
48.3858 6.97407
48.5815 6.8582
48.7774 6.76773
48.9734 6.70109
49.1696 6.5502
49.3661 6.46898
49.5626 6.39468
49.7592 6.32929
49.956 6.19416
50.153 6.12063
50.3501 6.02668
50.5474 5.95685
50.7448 5.86643
50.9424 5.77545
51.1402 5.71637
51.3381 5.60712
51.5362 5.52482
51.7344 5.43492
51.9328 5.3939
52.1316 5.25188
52.3304 5.21562
52.5293 5.10697
52.7284 5.00917
52.9276 4.94799
53.1271 4.88474
53.3267 4.81484
53.5265 4.67307
53.7264 4.63134
53.9266 4.55265
54.1269 4.45958
54.3274 4.34251
54.528 4.23526
54.7289 4.1131
54.9301 3.97666
55.1314 3.873
55.3328 3.72953
55.5344 3.57994
55.7361 3.53905