File: XRD/Ni3Fe_FD1069.xy
TT I
1.27165 7.11312
1.45013 5.99492
1.62863 4.87913
1.80712 3.87509
1.98562 4.24953
2.16411 3.6914
2.34263 5.01647
2.52115 7.77094
2.69965 8.27204
2.87818 9.25452
3.05672 11.0023
3.23527 14.9081
3.4138 18.0955
3.59237 21.0389
3.77094 24.374
3.9495 28.3058
4.12809 32.2244
4.30669 56.6831
4.4853 46.2896
4.6639 52.976
4.84253 64.4854
5.02118 83.2902
5.19981 230.241
5.37848 207.675
5.55716 97.6791
5.73586 88.2508
5.91455 89.0657
6.09328 4542.01
6.27201 75.6527
6.45075 63.5427
6.62952 58.089
6.8083 54.4792
6.98711 52.4297
7.16591 51.7521
7.34475 56.0432
7.5236 58.3396
7.70247 53.2217
7.88135 54.9975
8.06026 58.7484
8.23919 65.6945
8.41812 78.0277
8.59709 1107.94
8.77609 94.9887
8.9551 82.2801
9.13412 78.9507
9.31318 88.4786
9.49226 80.8667
9.67134 86.4915
9.85047 94.5673
10.0296 349.268
10.2088 449.041
10.388 97.8308
10.5672 512.808
10.7465 86.0628
10.9257 73.7658
11.105 68.4126
11.2844 64.9938
11.4637 61.9245
11.6431 60.6372
11.8225 59.8695
12.002 66.0955
12.1814 147.234
12.3609 64.8263
12.5405 61.6457
12.72 64.0452
12.8996 68.0844
13.0792 76.8062
13.2589 230.664
13.4386 126.553
13.6183 237.052
13.7981 100.238
13.9779 73.4511
14.1577 74.7542
14.3376 67.3691
14.5175 66.5512
14.6974 67.8376
14.8774 110.271
15.0574 159.551
15.2374 66.8819
15.4175 64.1353
15.5976 63.3988
15.7778 95.0555
15.958 169.842
16.1382 59.9597
16.3185 55.9583
16.4988 53.6622
16.6792 52.6394
16.8596 52.9683
17.04 53.9267
17.2205 65.1052
17.401 72.4271
17.5815 57.2487
17.7622 59.948
17.9428 73.6808
18.1237 142.706
18.3044 89.4731
18.4852 78.7912
18.666 58.961
18.8469 56.622
19.0278 55.2492
19.2088 58.298
19.3898 76.2763
19.5709 53.1586
19.752 51.7883
19.9332 55.2345
20.1144 70.567
20.2957 63.6958
20.477 53.016
20.6586 48.4814
20.84 48.0791
21.0215 47.3066
21.203 49.7125
21.3846 48.0686
21.5662 47.7293
21.7479 51.858
21.9297 65.4073
22.1115 55.86
22.2933 49.0336
22.4753 47.5105
22.6572 47.7073
22.8393 51.3818
23.0214 57.4648
23.2037 47.8621
23.3859 49.4423
23.5682 57.3031
23.7505 48.3243
23.9329 44.2963
24.1154 43.266
24.2979 42.492
24.4805 42.1479
24.6631 42.0084
24.8458 41.4088
25.0286 42.0552
25.2114 44.2564
25.3943 44.583
25.5773 40.2418
25.7605 39.7064
25.9436 40.0219
26.1268 41.4639
26.31 39.4744
26.4933 40.1894
26.6767 42.0623
26.8601 40.2151
27.0437 38.4203
27.2272 37.9699
27.4109 37.8917
27.5946 37.9488
27.7784 37.3162
27.9623 38.084
28.1462 38.793
28.3304 36.824
28.5145 35.463
28.6987 35.1696
28.8829 34.9385
29.0673 34.2092
29.2517 33.7477
29.4361 33.8204
29.6207 32.6339
29.8053 32.2769
29.99 32.0578
30.1748 32.0059
30.3597 31.7894
30.5447 31.7368
30.7297 31.8841
30.915 31.3246
31.1002 30.7756
31.2855 30.5163
31.4708 30.3831
31.6563 29.9876
31.8418 29.7514
32.0275 29.5668
32.2132 29.0528
32.399 28.4951
32.5848 28.1165
32.7708 27.7436
32.9569 27.6242
33.143 27.4859
33.3293 27.1279
33.5158 26.7033
33.7022 26.2799
33.8887 25.9807
34.0753 25.6581
34.262 25.2788
34.4488 24.9829
34.6357 24.6175
34.8227 24.3526
35.0098 24.1393
35.1969 23.9307
35.3842 23.7268
35.5716 23.4941
35.759 23.2198
35.9468 22.7937
36.1345 22.6399
36.3222 22.4528
36.5101 22.1909
36.6981 21.982
36.8861 21.5826
37.0743 21.1759
37.2626 21.0204
37.451 20.6592
37.6395 20.5917
37.8281 20.2099
38.0168 19.9618
38.2056 19.7007
38.3945 19.451
38.5837 19.2059
38.7728 18.9254
38.9621 18.6793
39.1514 18.4712
39.3409 18.248
39.5304 18.0378
39.7201 17.8535
39.9099 17.6698
40.0999 17.3642
40.2899 17.1598
40.48 16.8981
40.6703 16.6669
40.8607 16.5467
41.0512 16.317
41.242 16.0477
41.4327 15.9067
41.6236 15.5748
41.8146 15.5263
42.0057 15.2265
42.1969 15.0147
42.3882 14.8203
42.5797 14.6464
42.7713 14.456
42.963 14.2098
43.1549 14.0274
43.3468 13.8041
43.5389 13.6687
43.7312 13.4392
43.9237 13.2604
44.1162 13.1068
44.3088 12.9399
44.5016 12.7162
44.6945 12.5896
44.8875 12.4387
45.0806 12.187
45.2739 12.0314
45.4673 11.9088
45.6609 11.6896
45.8546 11.5629
46.0484 11.344
46.2424 11.1823
46.4365 11.0442
46.631 10.9146
46.8254 10.6927
47.0199 10.5193
47.2146 10.3896
47.4095 10.2425
47.6044 10.1045
47.7996 9.97842
47.9948 9.80754
48.1902 9.64092
48.3858 9.52086
48.5815 9.4063
48.7774 9.24615
48.9734 9.1191
49.1696 8.96517
49.3661 8.83615
49.5626 8.65661
49.7592 8.57351
49.956 8.47168
50.153 8.32664
50.3501 8.20215
50.5474 8.08767
50.7448 7.99797
50.9424 7.8294
51.1402 7.70346
51.3381 7.54073
51.5362 7.4479
51.7344 7.31323
51.9328 7.24286
52.1316 7.08538
52.3304 6.99051
52.5293 6.85344
52.7284 6.73082
52.9276 6.61003
53.1271 6.5393
53.3267 6.43956
53.5265 6.309
53.7264 6.18534
53.9266 6.09401
54.1269 5.97172
54.3274 5.86812
54.528 5.78389
54.7289 5.55508
54.9301 5.38078
55.1314 5.3318
55.3328 5.09497
55.5344 4.91791
55.7361 4.76635