File: XRD/Ni3Fe_FD0704.xy
TT I
1.27165 7.54936
1.45013 5.89169
1.62863 5.03758
1.80712 5.20638
1.98562 4.895
2.16411 4.62434
2.34263 5.66801
2.52115 6.98385
2.69965 7.52981
2.87818 8.19219
3.05672 10.92
3.23527 15.0517
3.4138 18.3638
3.59237 23.5641
3.77094 25.8925
3.9495 29.4362
4.12809 34.5234
4.30669 107.846
4.4853 54.4707
4.6639 55.8464
4.84253 68.6516
5.02118 88.1334
5.19981 438.89
5.37848 195.251
5.55716 102.71
5.73586 93.6173
5.91455 96.0568
6.09328 4655.06
6.27201 81.1245
6.45075 69.8779
6.62952 63.0129
6.8083 59.0681
6.98711 55.8319
7.16591 56.0011
7.34475 68.2186
7.5236 54.2595
7.70247 56.932
7.88135 57.7031
8.06026 62.6072
8.23919 69.4346
8.41812 84.6846
8.59709 1257.01
8.77609 98.4045
8.9551 90.0395
9.13412 82.9991
9.31318 84.9455
9.49226 85.4589
9.67134 95.7971
9.85047 101.651
10.0296 369.399
10.2088 354.088
10.388 106.073
10.5672 519.673
10.7465 86.2954
10.9257 77.8577
11.105 71.4577
11.2844 68.4453
11.4637 64.8037
11.6431 63.4801
11.8225 63.0075
12.002 64.6986
12.1814 156.052
12.3609 67.0109
12.5405 64.7299
12.72 68.1052
12.8996 71.4615
13.0792 80.9883
13.2589 252.519
13.4386 120.05
13.6183 258.988
13.7981 93.8306
13.9779 76.1134
14.1577 72.0094
14.3376 70.4308
14.5175 69.0444
14.6974 71.0007
14.8774 114.652
15.0574 138.759
15.2374 69.7184
15.4175 66.35
15.5976 66.0084
15.7778 97.342
15.958 147.437
16.1382 61.2805
16.3185 57.7481
16.4988 55.2248
16.6792 54.3984
16.8596 54.955
17.04 56.0277
17.2205 67.6118
17.401 69.4013
17.5815 59.2574
17.7622 61.4644
17.9428 74.5917
18.1237 141.582
18.3044 91.7264
18.4852 74.6982
18.666 60.1391
18.8469 58.1619
19.0278 56.6697
19.2088 59.6335
19.3898 75.8711
19.5709 53.991
19.752 53.3998
19.9332 56.3488
20.1144 69.738
20.2957 63.9783
20.477 53.0317
20.6586 49.6901
20.84 48.7345
21.0215 48.6077
21.203 50.8935
21.3846 48.7715
21.5662 48.8832
21.7479 52.7661
21.9297 64.7711
22.1115 55.9621
22.2933 49.3409
22.4753 48.6224
22.6572 48.9086
22.8393 52.2386
23.0214 56.9027
23.2037 48.81
23.3859 49.9333
23.5682 57.2157
23.7505 47.824
23.9329 45.0827
24.1154 43.9577
24.2979 43.3785
24.4805 43.0085
24.6631 42.6919
24.8458 42.0575
25.0286 42.9406
25.2114 44.8028
25.3943 44.5654
25.5773 40.8741
25.7605 40.3733
25.9436 40.8268
26.1268 41.6858
26.31 39.973
26.4933 40.8879
26.6767 42.0721
26.8601 40.3977
27.0437 38.7837
27.2272 38.4421
27.4109 38.3538
27.5946 38.2902
27.7784 37.8075
27.9623 38.4727
28.1462 38.6566
28.3304 36.9762
28.5145 35.7733
28.6987 35.4747
28.8829 35.3493
29.0673 34.6976
29.2517 34.3399
29.4361 34.1665
29.6207 33.0098
29.8053 32.755
29.99 32.4956
30.1748 32.413
30.3597 32.288
30.5447 32.2298
30.7297 32.171
30.915 31.5443
31.1002 31.1008
31.2855 30.7292
31.4708 30.7453
31.6563 30.2602
31.8418 30.1686
32.0275 29.8842
32.2132 29.2839
32.399 28.9258
32.5848 28.4739
32.7708 28.1623
32.9569 27.9838
33.143 27.6412
33.3293 27.3804
33.5158 26.8581
33.7022 26.5701
33.8887 26.2916
34.0753 25.9011
34.262 25.5586
34.4488 25.3072
34.6357 24.9451
34.8227 24.684
35.0098 24.5142
35.1969 24.1507
35.3842 23.9985
35.5716 23.7131
35.759 23.4637
35.9468 23.0954
36.1345 22.8378
36.3222 22.5988
36.5101 22.462
36.6981 22.0942
36.8861 21.7184
37.0743 21.4675
37.2626 21.193
37.451 20.9267
37.6395 20.755
37.8281 20.4075
38.0168 20.1292
38.2056 19.9495
38.3945 19.5948
38.5837 19.3777
38.7728 19.1212
38.9621 18.9778
39.1514 18.6607
39.3409 18.4864
39.5304 18.2605
39.7201 18.0677
39.9099 17.7599
40.0999 17.5586
40.2899 17.3111
40.48 17.0558
40.6703 16.8889
40.8607 16.7293
41.0512 16.4999
41.242 16.2718
41.4327 15.9844
41.6236 15.7616
41.8146 15.6031
42.0057 15.3594
42.1969 15.1368
42.3882 15.002
42.5797 14.7624
42.7713 14.5793
42.963 14.3791
43.1549 14.174
43.3468 13.9968
43.5389 13.814
43.7312 13.5796
43.9237 13.3829
44.1162 13.1978
44.3088 13.0593
44.5016 12.852
44.6945 12.6698
44.8875 12.4969
45.0806 12.3608
45.2739 12.1267
45.4673 11.9886
45.6609 11.8574
45.8546 11.6694
46.0484 11.4828
46.2424 11.3279
46.4365 11.1831
46.631 10.9643
46.8254 10.8348
47.0199 10.6915
47.2146 10.5605
47.4095 10.3571
47.6044 10.2096
47.7996 10.0618
47.9948 9.9137
48.1902 9.74655
48.3858 9.63907
48.5815 9.53631
48.7774 9.39425
48.9734 9.20041
49.1696 9.10061
49.3661 8.95781
49.5626 8.78831
49.7592 8.66325
49.956 8.55102
50.153 8.42326
50.3501 8.2385
50.5474 8.15535
50.7448 8.0236
50.9424 7.92187
51.1402 7.77742
51.3381 7.67243
51.5362 7.51969
51.7344 7.41182
51.9328 7.29584
52.1316 7.13381
52.3304 7.06258
52.5293 6.93848
52.7284 6.84068
52.9276 6.6892
53.1271 6.63428
53.3267 6.46955
53.5265 6.361
53.7264 6.21059
53.9266 6.14579
54.1269 6.05814
54.3274 5.92391
54.528 5.80072
54.7289 5.63563
54.9301 5.47745
55.1314 5.36595
55.3328 5.10703
55.5344 4.90942
55.7361 4.86685