File: XRD/Ni3Fe_FD0982.xy
TT I
1.27165 6.80936
1.45013 5.44831
1.62863 5.33433
1.80712 5.26785
1.98562 4.76761
2.16411 5.58161
2.34263 5.42704
2.52115 6.45938
2.69965 8.30513
2.87818 8.63293
3.05672 11.3923
3.23527 15.1066
3.4138 18.8276
3.59237 24.1815
3.77094 25.903
3.9495 29.5069
4.12809 34.8396
4.30669 231.241
4.4853 66.0736
4.6639 54.6588
4.84253 65.9193
5.02118 83.816
5.19981 271.73
5.37848 172.884
5.55716 99.554
5.73586 89.9343
5.91455 90.3433
6.09328 4590.58
6.27201 80.6601
6.45075 66.1326
6.62952 61.9168
6.8083 57.8474
6.98711 55.1836
7.16591 54.3406
7.34475 93.3769
7.5236 53.9232
7.70247 55.6196
7.88135 56.7638
8.06026 61.324
8.23919 68.2524
8.41812 82.993
8.59709 1120.53
8.77609 96.2753
8.9551 90.4152
9.13412 80.2749
9.31318 80.7802
9.49226 82.5748
9.67134 96.7684
9.85047 97.5838
10.0296 291.359
10.2088 366.51
10.388 101.869
10.5672 530.506
10.7465 84.255
10.9257 77.1484
11.105 70.6699
11.2844 69.2017
11.4637 63.5825
11.6431 62.364
11.8225 61.1084
12.002 62.1644
12.1814 152.301
12.3609 69.5944
12.5405 63.3933
12.72 68.7933
12.8996 69.2631
13.0792 76.6396
13.2589 229.257
13.4386 119.709
13.6183 243.179
13.7981 95.1461
13.9779 74.196
14.1577 70.9756
14.3376 70.2272
14.5175 67.6556
14.6974 68.8241
14.8774 104.353
15.0574 147.616
15.2374 69.6003
15.4175 65.0136
15.5976 64.2104
15.7778 89.7222
15.958 152.128
16.1382 61.6745
16.3185 57.6474
16.4988 54.4063
16.6792 53.3866
16.8596 54.0589
17.04 54.326
17.2205 64.8062
17.401 68.6605
17.5815 57.9911
17.7622 59.8077
17.9428 70.4297
18.1237 138.228
18.3044 88.6155
18.4852 75.602
18.666 59.3037
18.8469 56.9523
19.0278 55.5672
19.2088 57.9722
19.3898 75.3148
19.5709 53.1559
19.752 52.0605
19.9332 54.5338
20.1144 68.6692
20.2957 63.3181
20.477 52.4808
20.6586 48.7556
20.84 47.8104
21.0215 47.6748
21.203 49.9807
21.3846 47.9996
21.5662 47.6231
21.7479 51.0564
21.9297 63.6021
22.1115 55.2721
22.2933 48.7782
22.4753 48.0211
22.6572 47.741
22.8393 50.5396
23.0214 56.3896
23.2037 47.7986
23.3859 48.454
23.5682 56.3894
23.7505 47.3383
23.9329 44.328
24.1154 43.2308
24.2979 42.5421
24.4805 42.0326
24.6631 41.9114
24.8458 41.382
25.0286 41.8662
25.2114 43.7642
25.3943 43.6627
25.5773 40.1041
25.7605 39.584
25.9436 40.0492
26.1268 40.9994
26.31 39.2183
26.4933 39.8386
26.6767 41.3877
26.8601 39.6808
27.0437 38.1948
27.2272 37.8262
27.4109 37.5623
27.5946 37.5354
27.7784 36.9691
27.9623 37.6678
28.1462 38.0634
28.3304 36.3361
28.5145 35.1908
28.6987 34.8989
28.8829 34.8425
29.0673 34.0163
29.2517 33.6233
29.4361 33.5114
29.6207 32.4533
29.8053 32.2353
29.99 31.9455
30.1748 31.89
30.3597 31.6489
30.5447 31.5584
30.7297 31.7112
30.915 30.9896
31.1002 30.566
31.2855 30.2069
31.4708 30.1966
31.6563 29.7152
31.8418 29.5098
32.0275 29.3501
32.2132 28.7895
32.399 28.3741
32.5848 27.9925
32.7708 27.6306
32.9569 27.3844
33.143 27.3062
33.3293 26.876
33.5158 26.6371
33.7022 26.1207
33.8887 25.8759
34.0753 25.4173
34.262 25.2017
34.4488 24.8095
34.6357 24.5321
34.8227 24.2427
35.0098 24.0324
35.1969 23.747
35.3842 23.4895
35.5716 23.3346
35.759 23.0658
35.9468 22.6361
36.1345 22.5064
36.3222 22.2533
36.5101 22.0315
36.6981 21.6634
36.8861 21.3631
37.0743 21.1142
37.2626 20.8824
37.451 20.5888
37.6395 20.3921
37.8281 20.1606
38.0168 19.7689
38.2056 19.5519
38.3945 19.2406
38.5837 19.088
38.7728 18.8291
38.9621 18.6312
39.1514 18.2767
39.3409 18.1507
39.5304 17.8854
39.7201 17.7125
39.9099 17.5044
40.0999 17.2522
40.2899 17.0782
40.48 16.7835
40.6703 16.6392
40.8607 16.4425
41.0512 16.1876
41.242 15.9714
41.4327 15.8011
41.6236 15.5311
41.8146 15.3586
42.0057 15.1355
42.1969 14.9452
42.3882 14.7106
42.5797 14.5603
42.7713 14.3715
42.963 14.145
43.1549 13.9915
43.3468 13.7477
43.5389 13.5994
43.7312 13.4161
43.9237 13.2039
44.1162 13.0783
44.3088 12.8392
44.5016 12.6552
44.6945 12.5194
44.8875 12.338
45.0806 12.1923
45.2739 11.9771
45.4673 11.8564
45.6609 11.6646
45.8546 11.4663
46.0484 11.3122
46.2424 11.153
46.4365 11.0368
46.631 10.8242
46.8254 10.6361
47.0199 10.4793
47.2146 10.3671
47.4095 10.2223
47.6044 10.0746
47.7996 9.95114
47.9948 9.74531
48.1902 9.64469
48.3858 9.49344
48.5815 9.33638
48.7774 9.19856
48.9734 9.0783
49.1696 8.90954
49.3661 8.77975
49.5626 8.64124
49.7592 8.56493
49.956 8.39792
50.153 8.26661
50.3501 8.13798
50.5474 8.0248
50.7448 7.9056
50.9424 7.79002
51.1402 7.64336
51.3381 7.52975
51.5362 7.41962
51.7344 7.33142
51.9328 7.16605
52.1316 7.04964
52.3304 6.99647
52.5293 6.79766
52.7284 6.71361
52.9276 6.64089
53.1271 6.49947
53.3267 6.39688
53.5265 6.31803
53.7264 6.22287
53.9266 6.06307
54.1269 5.94056
54.3274 5.80494
54.528 5.6961
54.7289 5.53702
54.9301 5.41432
55.1314 5.23251
55.3328 5.05013
55.5344 4.87606
55.7361 4.72902