File: XRD/Ni3Fe_FD0569.xy
TT I
1.27165 7.4108
1.45013 6.12321
1.62863 5.5257
1.80712 4.15044
1.98562 4.20077
2.16411 4.60161
2.34263 5.16605
2.52115 6.299
2.69965 7.88114
2.87818 8.79661
3.05672 11.0573
3.23527 14.7854
3.4138 18.7641
3.59237 23.3992
3.77094 25.8929
3.9495 29.8524
4.12809 34.2993
4.30669 138.544
4.4853 58.3079
4.6639 56.1417
4.84253 67.9164
5.02118 88.7078
5.19981 450.249
5.37848 196.856
5.55716 103.307
5.73586 93.9423
5.91455 96.8257
6.09328 4483.07
6.27201 82.5284
6.45075 67.9531
6.62952 62.6333
6.8083 58.5124
6.98711 55.8667
7.16591 55.455
7.34475 76.02
7.5236 54.7081
7.70247 56.2777
7.88135 58.0895
8.06026 62.524
8.23919 69.9301
8.41812 85.4819
8.59709 1233.38
8.77609 99.7303
8.9551 89.858
9.13412 82.5824
9.31318 83.5846
9.49226 85.5005
9.67134 96.1607
9.85047 101.174
10.0296 380.865
10.2088 372.345
10.388 106.299
10.5672 524.506
10.7465 87.0947
10.9257 78.3276
11.105 72.0595
11.2844 69.6381
11.4637 65.2441
11.6431 63.7075
11.8225 63.0622
12.002 64.8189
12.1814 156.342
12.3609 68.4047
12.5405 65.029
12.72 68.9416
12.8996 71.4691
13.0792 80.9062
13.2589 250.64
13.4386 121.599
13.6183 257.206
13.7981 96.6677
13.9779 76.4307
14.1577 72.4145
14.3376 71.4289
14.5175 69.2728
14.6974 71.0501
14.8774 116.002
15.0574 144.614
15.2374 70.5819
15.4175 66.7575
15.5976 66.6311
15.7778 99.0743
15.958 151.596
16.1382 62.1631
16.3185 58.5686
16.4988 55.7956
16.6792 54.8097
16.8596 55.4217
17.04 56.5974
17.2205 67.8918
17.401 71.0443
17.5815 59.6342
17.7622 61.9231
17.9428 75.7327
18.1237 141.486
18.3044 92.0059
18.4852 76.8065
18.666 60.7684
18.8469 58.5506
19.0278 57.0651
19.2088 60.2011
19.3898 76.4472
19.5709 54.4644
19.752 53.7305
19.9332 57.0892
20.1144 70.5757
20.2957 64.15
20.477 53.5315
20.6586 50.192
20.84 49.0756
21.0215 49.1222
21.203 51.0898
21.3846 49.33
21.5662 49.1921
21.7479 53.5231
21.9297 65.1063
22.1115 56.3536
22.2933 50.1558
22.4753 49.0683
22.6572 49.4661
22.8393 52.7552
23.0214 57.6869
23.2037 49.1426
23.3859 50.4043
23.5682 57.3784
23.7505 48.4469
23.9329 45.6736
24.1154 44.4165
24.2979 43.6023
24.4805 43.1357
24.6631 43.0566
24.8458 42.5454
25.0286 43.285
25.2114 44.9257
25.3943 44.8517
25.5773 41.1007
25.7605 40.7673
25.9436 41.2552
26.1268 42.0419
26.31 40.4007
26.4933 41.0458
26.6767 42.4696
26.8601 40.7217
27.0437 39.201
27.2272 38.8675
27.4109 38.6487
27.5946 38.6357
27.7784 38.1531
27.9623 38.7964
28.1462 38.949
28.3304 37.474
28.5145 36.2449
28.6987 35.8763
28.8829 35.5289
29.0673 34.8292
29.2517 34.6542
29.4361 34.3387
29.6207 33.2987
29.8053 33.1571
29.99 32.8963
30.1748 32.7035
30.3597 32.4524
30.5447 32.3964
30.7297 32.4172
30.915 31.7993
31.1002 31.4011
31.2855 31.0313
31.4708 31.0082
31.6563 30.5247
31.8418 30.3737
32.0275 30.1489
32.2132 29.5683
32.399 29.174
32.5848 28.7375
32.7708 28.3315
32.9569 28.1638
33.143 28.0111
33.3293 27.4974
33.5158 27.2469
33.7022 26.7943
33.8887 26.4776
34.0753 26.145
34.262 25.8313
34.4488 25.4185
34.6357 25.2128
34.8227 24.7797
35.0098 24.678
35.1969 24.362
35.3842 24.126
35.5716 23.9456
35.759 23.6723
35.9468 23.3092
36.1345 23.026
36.3222 22.784
36.5101 22.6043
36.6981 22.1948
36.8861 21.9402
37.0743 21.58
37.2626 21.4244
37.451 21.1091
37.6395 20.954
37.8281 20.5918
38.0168 20.2566
38.2056 20.0387
38.3945 19.8335
38.5837 19.5512
38.7728 19.3273
38.9621 19.101
39.1514 18.8366
39.3409 18.6075
39.5304 18.3596
39.7201 18.2199
39.9099 17.891
40.0999 17.7366
40.2899 17.4758
40.48 17.219
40.6703 17.0136
40.8607 16.8512
41.0512 16.629
41.242 16.3492
41.4327 16.2075
41.6236 15.913
41.8146 15.7449
42.0057 15.5145
42.1969 15.3179
42.3882 15.1496
42.5797 14.9215
42.7713 14.7285
42.963 14.5212
43.1549 14.3046
43.3468 14.0721
43.5389 13.9431
43.7312 13.7215
43.9237 13.5079
44.1162 13.3502
44.3088 13.1781
44.5016 12.9611
44.6945 12.8407
44.8875 12.6248
45.0806 12.456
45.2739 12.2774
45.4673 12.1035
45.6609 11.9017
45.8546 11.7697
46.0484 11.5929
46.2424 11.4801
46.4365 11.2955
46.631 11.0881
46.8254 10.908
47.0199 10.7774
47.2146 10.6012
47.4095 10.4537
47.6044 10.3083
47.7996 10.1297
47.9948 10.0019
48.1902 9.85335
48.3858 9.67147
48.5815 9.57233
48.7774 9.45261
48.9734 9.29629
49.1696 9.17394
49.3661 9.00703
49.5626 8.84645
49.7592 8.72237
49.956 8.64897
50.153 8.53248
50.3501 8.33352
50.5474 8.22673
50.7448 8.10701
50.9424 7.94779
51.1402 7.86168
51.3381 7.706
51.5362 7.57431
51.7344 7.49206
51.9328 7.3585
52.1316 7.18327
52.3304 7.11808
52.5293 6.987
52.7284 6.88025
52.9276 6.7704
53.1271 6.67584
53.3267 6.48876
53.5265 6.43341
53.7264 6.31103
53.9266 6.22265
54.1269 6.13388
54.3274 5.95826
54.528 5.82715
54.7289 5.72427
54.9301 5.53194
55.1314 5.41009
55.3328 5.18118
55.5344 5.00976
55.7361 4.87666