File: XRD/Ni3Fe_FD1041.xy
TT I
1.27165 7.1433
1.45013 5.94311
1.62863 4.98721
1.80712 4.70174
1.98562 3.98425
2.16411 4.8168
2.34263 4.75268
2.52115 7.40189
2.69965 8.64706
2.87818 8.9038
3.05672 10.9253
3.23527 14.8197
3.4138 18.2909
3.59237 21.3138
3.77094 24.4261
3.9495 28.1167
4.12809 32.3618
4.30669 56.1051
4.4853 45.913
4.6639 52.5451
4.84253 63.9635
5.02118 82.513
5.19981 230.472
5.37848 215.475
5.55716 97.2846
5.73586 87.5966
5.91455 88.3208
6.09328 4582.9
6.27201 75.6293
6.45075 63.7399
6.62952 57.9555
6.8083 54.4752
6.98711 52.6644
7.16591 51.2515
7.34475 55.974
7.5236 59.6106
7.70247 53.0326
7.88135 54.9494
8.06026 59.0553
8.23919 65.5207
8.41812 77.4741
8.59709 1078.16
8.77609 94.469
8.9551 82.1879
9.13412 78.8373
9.31318 89.9762
9.49226 81.1685
9.67134 86.2025
9.85047 93.7911
10.0296 344.01
10.2088 439.26
10.388 97.6232
10.5672 504.126
10.7465 86.4995
10.9257 73.2405
11.105 68.4185
11.2844 64.7315
11.4637 61.9467
11.6431 60.4709
11.8225 59.6122
12.002 67.0773
12.1814 146.318
12.3609 64.458
12.5405 61.4005
12.72 63.757
12.8996 67.8331
13.0792 76.5494
13.2589 225.973
13.4386 127.374
13.6183 235.959
13.7981 100.115
13.9779 73.4414
14.1577 75.9447
14.3376 67.2489
14.5175 66.3646
14.6974 67.3144
14.8774 109.283
15.0574 161.061
15.2374 66.5917
15.4175 64.0521
15.5976 63.42
15.7778 93.4751
15.958 168.021
16.1382 59.8044
16.3185 55.3579
16.4988 53.3808
16.6792 52.3481
16.8596 52.7232
17.04 53.7108
17.2205 64.4783
17.401 71.5479
17.5815 57.194
17.7622 59.9147
17.9428 73.0225
18.1237 142.111
18.3044 88.6315
18.4852 79.4386
18.666 58.9845
18.8469 56.2969
19.0278 54.8096
19.2088 57.8498
19.3898 76.1028
19.5709 52.8849
19.752 51.7049
19.9332 55.0263
20.1144 70.329
20.2957 63.278
20.477 52.6983
20.6586 48.1501
20.84 47.8708
21.0215 47.2392
21.203 49.3426
21.3846 47.753
21.5662 47.5188
21.7479 51.5575
21.9297 65.0012
22.1115 55.8467
22.2933 48.9886
22.4753 47.4119
22.6572 47.5537
22.8393 51.1855
23.0214 57.339
23.2037 47.8296
23.3859 49.2068
23.5682 57.1568
23.7505 48.2053
23.9329 44.1364
24.1154 43.0848
24.2979 42.3269
24.4805 41.8761
24.6631 42.0571
24.8458 41.2491
25.0286 41.9361
25.2114 44.1483
25.3943 44.3075
25.5773 40.2137
25.7605 39.5798
25.9436 40.0693
26.1268 41.1567
26.31 39.3576
26.4933 40.0369
26.6767 41.8459
26.8601 39.9988
27.0437 38.3338
27.2272 37.8104
27.4109 37.6367
27.5946 37.8351
27.7784 37.2199
27.9623 37.8643
28.1462 38.5518
28.3304 36.7958
28.5145 35.3241
28.6987 34.9534
28.8829 34.7746
29.0673 34.0352
29.2517 33.6796
29.4361 33.582
29.6207 32.6391
29.8053 32.1659
29.99 31.8818
30.1748 31.7647
30.3597 31.6381
30.5447 31.6534
30.7297 31.816
30.915 31.1706
31.1002 30.5899
31.2855 30.3796
31.4708 30.3352
31.6563 29.9168
31.8418 29.6872
32.0275 29.5098
32.2132 28.865
32.399 28.3979
32.5848 28.001
32.7708 27.5792
32.9569 27.5289
33.143 27.3457
33.3293 26.9979
33.5158 26.6193
33.7022 26.0613
33.8887 25.8407
34.0753 25.5577
34.262 25.1678
34.4488 24.8688
34.6357 24.4389
34.8227 24.2514
35.0098 24.0138
35.1969 23.7918
35.3842 23.5638
35.5716 23.3911
35.759 23.0865
35.9468 22.6367
36.1345 22.5015
36.3222 22.2785
36.5101 22.0792
36.6981 21.7628
36.8861 21.3932
37.0743 21.1825
37.2626 20.901
37.451 20.6578
37.6395 20.4767
37.8281 20.1231
38.0168 19.8922
38.2056 19.5458
38.3945 19.3781
38.5837 19.0659
38.7728 18.8804
38.9621 18.5986
39.1514 18.3467
39.3409 18.1175
39.5304 17.8976
39.7201 17.7504
39.9099 17.5099
40.0999 17.2807
40.2899 17.018
40.48 16.8401
40.6703 16.6828
40.8607 16.4959
41.0512 16.2418
41.242 15.9784
41.4327 15.8146
41.6236 15.5002
41.8146 15.4206
42.0057 15.1643
42.1969 14.9521
42.3882 14.8175
42.5797 14.4892
42.7713 14.3568
42.963 14.155
43.1549 14.0139
43.3468 13.7469
43.5389 13.6014
43.7312 13.3746
43.9237 13.2557
44.1162 13.0904
44.3088 12.8335
44.5016 12.6592
44.6945 12.5585
44.8875 12.3589
45.0806 12.1169
45.2739 12.0305
45.4673 11.8415
45.6609 11.6812
45.8546 11.5095
46.0484 11.3148
46.2424 11.1694
46.4365 11.0402
46.631 10.8494
46.8254 10.668
47.0199 10.5487
47.2146 10.3696
47.4095 10.2029
47.6044 10.1022
47.7996 9.88895
47.9948 9.75784
48.1902 9.60394
48.3858 9.48293
48.5815 9.34158
48.7774 9.21655
48.9734 9.06898
49.1696 8.94929
49.3661 8.82898
49.5626 8.67082
49.7592 8.54975
49.956 8.43639
50.153 8.28919
50.3501 8.10892
50.5474 8.03633
50.7448 7.91106
50.9424 7.79631
51.1402 7.68725
51.3381 7.53357
51.5362 7.44796
51.7344 7.32533
51.9328 7.15913
52.1316 7.04748
52.3304 6.94897
52.5293 6.83099
52.7284 6.72259
52.9276 6.59254
53.1271 6.55076
53.3267 6.359
53.5265 6.25675
53.7264 6.1237
53.9266 6.04655
54.1269 5.95768
54.3274 5.7916
54.528 5.72921
54.7289 5.57879
54.9301 5.39785
55.1314 5.24555
55.3328 5.10002
55.5344 4.88168
55.7361 4.7895