File: XRD/Ni3Fe_FD0989.xy
TT I
1.27165 7.26939
1.45013 5.99766
1.62863 5.14982
1.80712 4.92519
1.98562 4.98115
2.16411 4.81419
2.34263 5.7877
2.52115 7.45051
2.69965 9.1
2.87818 8.93366
3.05672 11.1359
3.23527 15.6536
3.4138 19.1252
3.59237 24.0907
3.77094 26.3208
3.9495 29.8485
4.12809 34.9726
4.30669 243.362
4.4853 67.5868
4.6639 54.627
4.84253 66.0787
5.02118 83.8422
5.19981 269.765
5.37848 172.625
5.55716 98.9948
5.73586 89.4995
5.91455 90.1904
6.09328 4553.53
6.27201 81.1289
6.45075 66.1109
6.62952 62.0679
6.8083 57.3881
6.98711 55.1618
7.16591 54.8889
7.34475 96.5071
7.5236 53.9563
7.70247 55.2112
7.88135 56.908
8.06026 61.1353
8.23919 68.0678
8.41812 83.0583
8.59709 1115.77
8.77609 96.4636
8.9551 90.8836
9.13412 80.3972
9.31318 80.894
9.49226 82.8791
9.67134 97.4586
9.85047 97.3128
10.0296 287.934
10.2088 372.722
10.388 101.93
10.5672 533.818
10.7465 84.4836
10.9257 76.9195
11.105 70.706
11.2844 69.4374
11.4637 63.6986
11.6431 62.5182
11.8225 61.0245
12.002 61.9479
12.1814 150.559
12.3609 69.7101
12.5405 63.1235
12.72 69.2737
12.8996 69.2526
13.0792 76.7561
13.2589 225.305
13.4386 121.158
13.6183 240.419
13.7981 94.6448
13.9779 74.0034
14.1577 71.103
14.3376 70.4453
14.5175 67.4604
14.6974 68.8088
14.8774 103.38
15.0574 149.136
15.2374 69.5407
15.4175 64.9863
15.5976 64.2578
15.7778 88.9579
15.958 152.901
16.1382 61.6548
16.3185 57.5134
16.4988 54.4595
16.6792 53.4857
16.8596 54.1805
17.04 54.4002
17.2205 64.5919
17.401 68.8191
17.5815 57.8035
17.7622 59.7473
17.9428 69.9442
18.1237 138.022
18.3044 88.0924
18.4852 75.673
18.666 59.3098
18.8469 56.8013
19.0278 55.7213
19.2088 57.7961
19.3898 75.318
19.5709 53.1093
19.752 52.1344
19.9332 54.6415
20.1144 68.8709
20.2957 62.8712
20.477 52.3498
20.6586 48.5677
20.84 47.8497
21.0215 47.5714
21.203 49.8871
21.3846 47.7313
21.5662 47.8065
21.7479 51.3228
21.9297 63.5278
22.1115 55.1647
22.2933 48.9452
22.4753 47.9284
22.6572 47.7271
22.8393 50.6108
23.0214 56.4495
23.2037 47.7906
23.3859 48.3584
23.5682 56.3237
23.7505 47.3845
23.9329 44.3161
24.1154 43.362
24.2979 42.5744
24.4805 42.024
24.6631 41.9947
24.8458 41.3324
25.0286 41.9326
25.2114 43.6357
25.3943 43.7795
25.5773 40.0941
25.7605 39.5531
25.9436 39.9201
26.1268 40.9438
26.31 39.1585
26.4933 39.8075
26.6767 41.3275
26.8601 39.5247
27.0437 38.1415
27.2272 37.6911
27.4109 37.7134
27.5946 37.6374
27.7784 37.0875
27.9623 37.6444
28.1462 38.0544
28.3304 36.427
28.5145 35.2978
28.6987 34.7924
28.8829 34.802
29.0673 33.9532
29.2517 33.65
29.4361 33.4115
29.6207 32.5278
29.8053 32.2638
29.99 32.0148
30.1748 31.8482
30.3597 31.636
30.5447 31.6031
30.7297 31.6637
30.915 30.9447
31.1002 30.5706
31.2855 30.2939
31.4708 30.1307
31.6563 29.7461
31.8418 29.6466
32.0275 29.2404
32.2132 28.7799
32.399 28.4187
32.5848 27.8891
32.7708 27.5961
32.9569 27.4231
33.143 27.2176
33.3293 26.9189
33.5158 26.5336
33.7022 26.0766
33.8887 25.8231
34.0753 25.4855
34.262 25.0995
34.4488 24.8156
34.6357 24.5301
34.8227 24.2201
35.0098 24.043
35.1969 23.6945
35.3842 23.5297
35.5716 23.349
35.759 23.0041
35.9468 22.7557
36.1345 22.3965
36.3222 22.2095
36.5101 22.0642
36.6981 21.6793
36.8861 21.429
37.0743 21.1327
37.2626 20.853
37.451 20.5283
37.6395 20.4201
37.8281 20.1029
38.0168 19.8323
38.2056 19.5441
38.3945 19.2545
38.5837 19.1127
38.7728 18.8005
38.9621 18.5821
39.1514 18.4353
39.3409 18.1421
39.5304 17.9277
39.7201 17.7213
39.9099 17.5197
40.0999 17.2825
40.2899 17.013
40.48 16.7708
40.6703 16.6408
40.8607 16.4023
41.0512 16.187
41.242 15.9961
41.4327 15.7996
41.6236 15.4968
41.8146 15.41
42.0057 15.174
42.1969 14.9099
42.3882 14.7981
42.5797 14.5556
42.7713 14.3601
42.963 14.1986
43.1549 13.9472
43.3468 13.724
43.5389 13.5735
43.7312 13.3784
43.9237 13.2114
44.1162 13.0218
44.3088 12.8734
44.5016 12.6456
44.6945 12.5097
44.8875 12.3279
45.0806 12.1386
45.2739 11.9484
45.4673 11.8083
45.6609 11.6235
45.8546 11.5243
46.0484 11.2828
46.2424 11.1451
46.4365 11.0413
46.631 10.8008
46.8254 10.677
47.0199 10.5113
47.2146 10.3806
47.4095 10.1705
47.6044 10.0502
47.7996 9.89288
47.9948 9.71577
48.1902 9.62499
48.3858 9.45597
48.5815 9.3428
48.7774 9.22399
48.9734 9.10308
49.1696 8.94731
49.3661 8.7856
49.5626 8.65794
49.7592 8.5598
49.956 8.40919
50.153 8.25254
50.3501 8.15898
50.5474 8.01818
50.7448 7.86947
50.9424 7.77489
51.1402 7.70301
51.3381 7.49458
51.5362 7.43522
51.7344 7.32494
51.9328 7.16012
52.1316 7.04384
52.3304 6.96673
52.5293 6.85192
52.7284 6.73788
52.9276 6.59129
53.1271 6.50751
53.3267 6.34341
53.5265 6.27127
53.7264 6.15504
53.9266 6.08601
54.1269 5.93245
54.3274 5.84348
54.528 5.72782
54.7289 5.61007
54.9301 5.4149
55.1314 5.22647
55.3328 5.07207
55.5344 4.8911
55.7361 4.74496