File: XRD/Ni3Fe_FD0521.xy
TT I
1.27165 7.74896
1.45013 6.12172
1.62863 5.51413
1.80712 4.83229
1.98562 4.8098
2.16411 4.7483
2.34263 5.46632
2.52115 6.42688
2.69965 8.46641
2.87818 8.61433
3.05672 11.3238
3.23527 15.2087
3.4138 19.1967
3.59237 24.6795
3.77094 26.5447
3.9495 30.4057
4.12809 35.6819
4.30669 250.772
4.4853 70.1327
4.6639 55.8693
4.84253 68.0527
5.02118 88.1151
5.19981 380.756
5.37848 205.664
5.55716 103.487
5.73586 93.314
5.91455 95.2542
6.09328 4144.19
6.27201 85.7065
6.45075 68.0598
6.62952 64.0003
6.8083 59.6364
6.98711 56.8926
7.16591 56.4605
7.34475 100.339
7.5236 55.869
7.70247 57.064
7.88135 58.2885
8.06026 63.1673
8.23919 70.2345
8.41812 86.8323
8.59709 1132.46
8.77609 102.187
8.9551 94.018
9.13412 82.8106
9.31318 83.2511
9.49226 85.4324
9.67134 101.174
9.85047 101.144
10.0296 342.712
10.2088 450.086
10.388 106.208
10.5672 492.319
10.7465 88.081
10.9257 79.794
11.105 72.8151
11.2844 71.9371
11.4637 65.9012
11.6431 64.5706
11.8225 63.3517
12.002 64.1382
12.1814 149.885
12.3609 73.0152
12.5405 65.2258
12.72 71.5708
12.8996 71.877
13.0792 79.6939
13.2589 230.183
13.4386 132.201
13.6183 237.983
13.7981 103.268
13.9779 76.5796
14.1577 73.5478
14.3376 72.9481
14.5175 69.5384
14.6974 71.4031
14.8774 109.631
15.0574 156.175
15.2374 72.4209
15.4175 67.161
15.5976 66.506
15.7778 94.5699
15.958 163.222
16.1382 64.0713
16.3185 59.838
16.4988 56.3548
16.6792 55.1198
16.8596 56.1058
17.04 56.2881
17.2205 66.8638
17.401 72.7323
17.5815 60.0863
17.7622 61.9728
17.9428 74.2994
18.1237 137.495
18.3044 90.2179
18.4852 80.5002
18.666 61.2001
18.8469 58.7801
19.0278 57.5989
19.2088 60.2491
19.3898 76.8093
19.5709 54.7938
19.752 53.8869
19.9332 56.7566
20.1144 70.4296
20.2957 64.019
20.477 54.7338
20.6586 50.4572
20.84 49.4119
21.0215 49.1592
21.203 51.3597
21.3846 49.7854
21.5662 49.3258
21.7479 53.0093
21.9297 64.9862
22.1115 56.5224
22.2933 50.6995
22.4753 49.5159
22.6572 49.4004
22.8393 52.2677
23.0214 58.3788
23.2037 49.4048
23.3859 50.3144
23.5682 57.0923
23.7505 49.1073
23.9329 45.9629
24.1154 44.6204
24.2979 43.9958
24.4805 43.2686
24.6631 43.3381
24.8458 42.718
25.0286 43.3852
25.2114 45.033
25.3943 45.233
25.5773 41.384
25.7605 40.927
25.9436 41.3299
26.1268 42.2281
26.31 40.6027
26.4933 41.2743
26.6767 42.5305
26.8601 40.9651
27.0437 39.3832
27.2272 38.9456
27.4109 38.7552
27.5946 38.9401
27.7784 38.2229
27.9623 38.703
28.1462 39.2913
28.3304 37.5445
28.5145 36.5075
28.6987 36.1945
28.8829 35.9044
29.0673 35.1246
29.2517 34.7641
29.4361 34.5256
29.6207 33.5978
29.8053 33.3294
29.99 32.9545
30.1748 32.91
30.3597 32.6717
30.5447 32.5836
30.7297 32.6382
30.915 31.9797
31.1002 31.5081
31.2855 31.336
31.4708 31.1753
31.6563 30.7025
31.8418 30.4831
32.0275 30.3368
32.2132 29.7769
32.399 29.3305
32.5848 28.8303
32.7708 28.5392
32.9569 28.2855
33.143 28.1145
33.3293 27.7667
33.5158 27.3473
33.7022 26.9725
33.8887 26.5991
34.0753 26.2949
34.262 25.9437
34.4488 25.6768
34.6357 25.2908
34.8227 25.0161
35.0098 24.8138
35.1969 24.504
35.3842 24.2737
35.5716 24.0767
35.759 23.6955
35.9468 23.3448
36.1345 23.1605
36.3222 22.8623
36.5101 22.6907
36.6981 22.3554
36.8861 22.0396
37.0743 21.7284
37.2626 21.5156
37.451 21.2499
37.6395 21.0469
37.8281 20.7523
38.0168 20.4514
38.2056 20.1971
38.3945 19.891
38.5837 19.6792
38.7728 19.5035
38.9621 19.1769
39.1514 18.9942
39.3409 18.697
39.5304 18.5045
39.7201 18.2929
39.9099 18.0652
40.0999 17.8379
40.2899 17.5903
40.48 17.3167
40.6703 17.1355
40.8607 17.007
41.0512 16.7187
41.242 16.4824
41.4327 16.2713
41.6236 16.0597
41.8146 15.841
42.0057 15.625
42.1969 15.3913
42.3882 15.2892
42.5797 15.0436
42.7713 14.8013
42.963 14.6357
43.1549 14.4141
43.3468 14.1756
43.5389 13.9969
43.7312 13.8094
43.9237 13.6472
44.1162 13.4769
44.3088 13.2529
44.5016 13.0768
44.6945 12.8941
44.8875 12.6619
45.0806 12.4724
45.2739 12.335
45.4673 12.1928
45.6609 11.9856
45.8546 11.8775
46.0484 11.6716
46.2424 11.4841
46.4365 11.3594
46.631 11.1581
46.8254 10.9935
47.0199 10.8253
47.2146 10.7226
47.4095 10.5281
47.6044 10.34
47.7996 10.213
47.9948 10.0537
48.1902 9.91544
48.3858 9.77346
48.5815 9.64996
48.7774 9.54964
48.9734 9.37868
49.1696 9.23078
49.3661 9.10737
49.5626 8.93138
49.7592 8.79785
49.956 8.68094
50.153 8.55776
50.3501 8.41761
50.5474 8.30507
50.7448 8.15136
50.9424 8.05593
51.1402 7.89983
51.3381 7.79113
51.5362 7.64629
51.7344 7.53915
51.9328 7.38062
52.1316 7.25764
52.3304 7.15484
52.5293 7.00621
52.7284 6.92759
52.9276 6.83532
53.1271 6.71335
53.3267 6.59059
53.5265 6.44109
53.7264 6.36983
53.9266 6.2588
54.1269 6.12895
54.3274 6.0497
54.528 5.85086
54.7289 5.761
54.9301 5.51718
55.1314 5.42573
55.3328 5.23367
55.5344 5.02777
55.7361 4.90046