File: XRD/Ni3Fe_FD0616.xy
TT I
1.27165 7.93208
1.45013 6.28381
1.62863 5.57895
1.80712 4.35962
1.98562 5.11237
2.16411 4.83934
2.34263 5.68728
2.52115 6.99135
2.69965 7.91089
2.87818 8.79366
3.05672 10.6775
3.23527 14.9378
3.4138 18.7611
3.59237 24.2513
3.77094 26.3721
3.9495 29.8627
4.12809 34.9295
4.30669 201.512
4.4853 64.5599
4.6639 55.1821
4.84253 67.7139
5.02118 87.4659
5.19981 354.96
5.37848 195.372
5.55716 102.786
5.73586 93.3747
5.91455 94.9991
6.09328 4353.31
6.27201 83.6635
6.45075 67.3168
6.62952 62.9996
6.8083 58.9004
6.98711 55.7053
7.16591 55.3846
7.34475 89.2793
7.5236 55.2423
7.70247 56.3811
7.88135 57.8329
8.06026 62.4794
8.23919 70.0583
8.41812 85.2907
8.59709 1194.5
8.77609 100.519
8.9551 91.5884
9.13412 82.2251
9.31318 82.8073
9.49226 84.8531
9.67134 98.3853
9.85047 100.535
10.0296 342.383
10.2088 419.176
10.388 105.04
10.5672 504.707
10.7465 86.9861
10.9257 78.742
11.105 72.224
11.2844 70.4815
11.4637 65.264
11.6431 63.8264
11.8225 62.7105
12.002 63.7402
12.1814 153.016
12.3609 70.7465
12.5405 64.8006
12.72 69.9637
12.8996 71.564
13.0792 79.1843
13.2589 240.912
13.4386 128.771
13.6183 248.665
13.7981 100.132
13.9779 76.0111
14.1577 72.8031
14.3376 71.8253
14.5175 69.2732
14.6974 70.9194
14.8774 111.926
15.0574 152.734
15.2374 71.2779
15.4175 66.7835
15.5976 65.9957
15.7778 95.9765
15.958 155.634
16.1382 63.0617
16.3185 58.8853
16.4988 55.8954
16.6792 54.8347
16.8596 55.4116
17.04 55.9587
17.2205 67.3452
17.401 72.7767
17.5815 59.5742
17.7622 61.8214
17.9428 74.2744
18.1237 139.168
18.3044 91.2836
18.4852 78.5909
18.666 60.9661
18.8469 58.3704
19.0278 57.12
19.2088 60.0625
19.3898 76.4213
19.5709 54.4181
19.752 53.6256
19.9332 56.5304
20.1144 69.7816
20.2957 64.0218
20.477 54.1847
20.6586 49.933
20.84 48.9439
21.0215 48.8385
21.203 51.0015
21.3846 49.1699
21.5662 49.1453
21.7479 52.8662
21.9297 64.5008
22.1115 56.266
22.2933 50.2548
22.4753 49.0741
22.6572 49.1193
22.8393 52.145
23.0214 57.6113
23.2037 49.0767
23.3859 50.0671
23.5682 56.9871
23.7505 48.7202
23.9329 45.3836
24.1154 44.2963
24.2979 43.5682
24.4805 43.1425
24.6631 43.0812
24.8458 42.4999
25.0286 43.1135
25.2114 44.8577
25.3943 44.749
25.5773 41.2177
25.7605 40.6827
25.9436 40.9984
26.1268 41.9252
26.31 40.3828
26.4933 41.0401
26.6767 42.3703
26.8601 40.6483
27.0437 39.2065
27.2272 38.834
27.4109 38.6111
27.5946 38.5948
27.7784 38.0436
27.9623 38.6917
28.1462 38.9836
28.3304 37.4042
28.5145 36.0561
28.6987 35.8376
28.8829 35.7802
29.0673 34.8368
29.2517 34.541
29.4361 34.2688
29.6207 33.3127
29.8053 33.1445
29.99 32.6768
30.1748 32.5235
30.3597 32.3269
30.5447 32.2697
30.7297 32.4692
30.915 31.7939
31.1002 31.4004
31.2855 30.9989
31.4708 31.021
31.6563 30.6019
31.8418 30.3667
32.0275 30.1099
32.2132 29.6137
32.399 29.1576
32.5848 28.6666
32.7708 28.372
32.9569 28.1868
33.143 27.9647
33.3293 27.6168
33.5158 27.2278
33.7022 26.7848
33.8887 26.5235
34.0753 26.2044
34.262 25.8213
34.4488 25.4713
34.6357 25.096
34.8227 24.8706
35.0098 24.6481
35.1969 24.2831
35.3842 24.2224
35.5716 23.9516
35.759 23.6533
35.9468 23.257
36.1345 23.0232
36.3222 22.7328
36.5101 22.5294
36.6981 22.2229
36.8861 21.9888
37.0743 21.6328
37.2626 21.3704
37.451 21.0615
37.6395 20.9811
37.8281 20.59
38.0168 20.297
38.2056 20.0882
38.3945 19.8544
38.5837 19.5219
38.7728 19.3621
38.9621 19.097
39.1514 18.8544
39.3409 18.5509
39.5304 18.3543
39.7201 18.1778
39.9099 17.9071
40.0999 17.6858
40.2899 17.4375
40.48 17.2508
40.6703 17.0053
40.8607 16.8566
41.0512 16.589
41.242 16.349
41.4327 16.1184
41.6236 15.9875
41.8146 15.7246
42.0057 15.5015
42.1969 15.2923
42.3882 15.1312
42.5797 14.9104
42.7713 14.7266
42.963 14.5245
43.1549 14.3378
43.3468 14.0684
43.5389 13.915
43.7312 13.6918
43.9237 13.5615
44.1162 13.369
44.3088 13.1912
44.5016 13.0016
44.6945 12.7867
44.8875 12.6682
45.0806 12.438
45.2739 12.3116
45.4673 12.1412
45.6609 11.9009
45.8546 11.7381
46.0484 11.599
46.2424 11.4148
46.4365 11.2581
46.631 11.1054
46.8254 10.9443
47.0199 10.8138
47.2146 10.6389
47.4095 10.4545
47.6044 10.3225
47.7996 10.173
47.9948 10.0407
48.1902 9.84841
48.3858 9.73584
48.5815 9.58603
48.7774 9.48377
48.9734 9.25294
49.1696 9.14911
49.3661 9.00154
49.5626 8.87706
49.7592 8.75314
49.956 8.61322
50.153 8.47388
50.3501 8.3478
50.5474 8.20531
50.7448 8.11676
50.9424 7.96268
51.1402 7.83945
51.3381 7.72457
51.5362 7.58324
51.7344 7.46602
51.9328 7.37428
52.1316 7.21538
52.3304 7.12283
52.5293 6.98425
52.7284 6.87313
52.9276 6.76217
53.1271 6.67498
53.3267 6.5384
53.5265 6.41226
53.7264 6.29162
53.9266 6.1768
54.1269 6.13207
54.3274 5.98868
54.528 5.77397
54.7289 5.66646
54.9301 5.50564
55.1314 5.35906
55.3328 5.17964
55.5344 4.98871
55.7361 4.86855