File: XRD/Ni3Fe_FD0013.xy
TT I
1.27165 36.1885
1.45013 32.9086
1.62863 28.4016
1.80712 26.6754
1.98562 25.6979
2.16411 25.5877
2.34263 26.4533
2.52115 26.0766
2.69965 30.2174
2.87818 39.7369
3.05672 66.4358
3.23527 80.0352
3.4138 44.5015
3.59237 39.4545
3.77094 41.7454
3.9495 43.3455
4.12809 54.8745
4.30669 78.2659
4.4853 68.1387
4.6639 54.2364
4.84253 59.5848
5.02118 91.6865
5.19981 255.399
5.37848 4027.76
5.55716 162.708
5.73586 100.438
5.91455 108.029
6.09328 414.594
6.27201 354.06
6.45075 73.6921
6.62952 55.0242
6.8083 52.3604
6.98711 48.4058
7.16591 51.5743
7.34475 69.5688
7.5236 63.9134
7.70247 51.2816
7.88135 39.5017
8.06026 40.1547
8.23919 44.7815
8.41812 55.5721
8.59709 145.06
8.77609 738.98
8.9551 80.2959
9.13412 59.3073
9.31318 245.36
9.49226 52.1507
9.67134 50.6683
9.85047 56.5943
10.0296 89.8729
10.2088 396.308
10.388 149.26
10.5672 89.1566
10.7465 295.076
10.9257 49.4824
11.105 42.0024
11.2844 40.6329
11.4637 38.7765
11.6431 37.7312
11.8225 37.2205
12.002 66.6918
12.1814 46.5287
12.3609 88.3896
12.5405 46.2097
12.72 39.6281
12.8996 39.5603
13.0792 41.6398
13.2589 62.0349
13.4386 124.727
13.6183 100.002
13.7981 133.76
13.9779 68.6936
14.1577 45.7487
14.3376 51.6369
14.5175 36.9209
14.6974 36.5143
14.8774 40.9332
15.0574 55.9912
15.2374 109.796
15.4175 41.3256
15.5976 37.5391
15.7778 39.8399
15.958 50.9961
16.1382 132.399
16.3185 40.8097
16.4988 32.9734
16.6792 31.2053
16.8596 31.1706
17.04 38.8142
17.2205 32.6676
17.401 35.0369
17.5815 51.1838
17.7622 34.4403
17.9428 41.031
18.1237 42.5071
18.3044 79.9706
18.4852 59.3667
18.666 73.6686
18.8469 36.1676
19.0278 32.6351
19.2088 32.4632
19.3898 37.8304
19.5709 45.438
19.752 37.359
19.9332 31.2964
20.1144 31.7791
20.2957 39.9666
20.477 39.9531
20.6586 42.5231
20.84 31.0839
21.0215 29.8559
21.203 27.9621
21.3846 28.3011
21.5662 32.4843
21.7479 29.0044
21.9297 30.4892
22.1115 38.5559
22.2933 46.342
22.4753 37.7236
22.6572 29.7005
22.8393 29.6275
23.0214 31.1782
23.2037 36.7454
23.3859 35.9434
23.5682 34.5375
23.7505 33.0937
23.9329 45.8965
24.1154 29.5072
24.2979 27.2817
24.4805 25.8971
24.6631 25.8201
24.8458 27.8178
25.0286 25.7579
25.2114 25.7163
25.3943 28.2315
25.5773 30.5586
25.7605 30.6267
25.9436 26.5159
26.1268 25.3494
26.31 25.9579
26.4933 28.7574
26.6767 25.6196
26.8601 26.8165
27.0437 31.7272
27.2272 27.9244
27.4109 24.4561
27.5946 24.2354
27.7784 24.6192
27.9623 25.5361
28.1462 25.5899
28.3304 26.5157
28.5145 28.517
28.6987 25.8516
28.8829 22.9879
29.0673 22.3617
29.2517 23.2017
29.4361 22.1243
29.6207 21.6961
29.8053 22.9538
29.99 21.3409
30.1748 21.1165
30.3597 20.984
30.5447 21.169
30.7297 21.1928
30.915 21.0904
31.1002 23.2076
31.2855 22.4349
31.4708 20.567
31.6563 20.4541
31.8418 21.392
32.0275 20.8243
32.2132 20.4569
32.399 21.2662
32.5848 19.9774
32.7708 18.9239
32.9569 18.6233
33.143 18.921
33.3293 18.3688
33.5158 18.7603
33.7022 19.2843
33.8887 18.1616
34.0753 17.7312
34.262 17.5529
34.4488 17.3838
34.6357 16.997
34.8227 17.0832
35.0098 16.5345
35.1969 16.2701
35.3842 16.2781
35.5716 16.27
35.759 16.455
35.9468 16.9901
36.1345 16.3131
36.3222 15.7217
36.5101 15.545
36.6981 15.6348
36.8861 15.233
37.0743 15.4124
37.2626 14.9575
37.451 14.6423
37.6395 14.4332
37.8281 14.2419
38.0168 14.0507
38.2056 14.1573
38.3945 13.6911
38.5837 13.4912
38.7728 13.5268
38.9621 13.2818
39.1514 13.2654
39.3409 12.974
39.5304 12.732
39.7201 12.6456
39.9099 12.457
40.0999 12.2984
40.2899 12.355
40.48 12.1918
40.6703 11.9372
40.8607 11.9409
41.0512 11.6874
41.242 11.6341
41.4327 11.5131
41.6236 11.2569
41.8146 11.1125
42.0057 11.0144
42.1969 10.9256
42.3882 10.8585
42.5797 10.5633
42.7713 10.3734
42.963 10.2876
43.1549 10.1292
43.3468 9.95438
43.5389 9.84056
43.7312 9.72939
43.9237 9.6304
44.1162 9.48724
44.3088 9.43377
44.5016 9.23842
44.6945 9.1072
44.8875 9.02308
45.0806 8.92015
45.2739 8.80086
45.4673 8.65394
45.6609 8.5407
45.8546 8.42928
46.0484 8.34917
46.2424 8.1931
46.4365 8.09546
46.631 7.98349
46.8254 7.8958
47.0199 7.77269
47.2146 7.61684
47.4095 7.52902
47.6044 7.42884
47.7996 7.34411
47.9948 7.17693
48.1902 7.08488
48.3858 6.98255
48.5815 6.92249
48.7774 6.85368
48.9734 6.72588
49.1696 6.63863
49.3661 6.49737
49.5626 6.42226
49.7592 6.3695
49.956 6.2826
50.153 6.18537
50.3501 6.11541
50.5474 6.03852
50.7448 5.91039
50.9424 5.83817
51.1402 5.75471
51.3381 5.64317
51.5362 5.57368
51.7344 5.45631
51.9328 5.4122
52.1316 5.31095
52.3304 5.2668
52.5293 5.12856
52.7284 5.05816
52.9276 4.99578
53.1271 4.92919
53.3267 4.82177
53.5265 4.75035
53.7264 4.65734
53.9266 4.55004
54.1269 4.48299
54.3274 4.41193
54.528 4.26167
54.7289 4.11496
54.9301 4.02342
55.1314 3.89688
55.3328 3.72913
55.5344 3.56481
55.7361 3.54879