File: XRD/Ni3Fe_FD0931.xy
TT I
1.27165 7.34155
1.45013 6.21429
1.62863 5.53946
1.80712 4.39414
1.98562 4.53862
2.16411 4.82576
2.34263 5.04822
2.52115 6.94184
2.69965 8.69561
2.87818 9.23656
3.05672 11.242
3.23527 15.0734
3.4138 18.3075
3.59237 23.1976
3.77094 25.5639
3.9495 29.3837
4.12809 33.5179
4.30669 94.9286
4.4853 52.8143
4.6639 54.4895
4.84253 67.7318
5.02118 86.3105
5.19981 370.935
5.37848 194.38
5.55716 101.476
5.73586 91.8005
5.91455 93.5552
6.09328 4662.26
6.27201 78.875
6.45075 69.6965
6.62952 62.5474
6.8083 59.1865
6.98711 54.6652
7.16591 55.8012
7.34475 65.1993
7.5236 53.6057
7.70247 56.5984
7.88135 56.6568
8.06026 61.8613
8.23919 68.5628
8.41812 82.3531
8.59709 1207.52
8.77609 95.9865
8.9551 88.7574
9.13412 81.9111
9.31318 84.1927
9.49226 83.7915
9.67134 94.5767
9.85047 101.063
10.0296 328.801
10.2088 324.637
10.388 103.354
10.5672 542.3
10.7465 84.6598
10.9257 77.1835
11.105 70.2835
11.2844 67.2143
11.4637 63.6665
11.6431 62.277
11.8225 61.7391
12.002 63.4755
12.1814 159.596
12.3609 65.2964
12.5405 64.0042
12.72 66.6534
12.8996 70.6281
13.0792 79.1216
13.2589 246.501
13.4386 113.994
13.6183 258.873
13.7981 91.5737
13.9779 74.4791
14.1577 70.7669
14.3376 69.2191
14.5175 67.801
14.6974 69.5567
14.8774 110.601
15.0574 136.731
15.2374 68.3206
15.4175 65.2455
15.5976 64.5282
15.7778 93.9996
15.958 145.344
16.1382 60.3842
16.3185 56.8661
16.4988 54.4468
16.6792 53.5448
16.8596 53.832
17.04 54.9423
17.2205 66.1507
17.401 67.6127
17.5815 58.1194
17.7622 60.355
17.9428 72.4146
18.1237 140.637
18.3044 90.6843
18.4852 72.6594
18.666 59.0974
18.8469 57.1153
19.0278 55.7929
19.2088 58.0926
19.3898 75.116
19.5709 52.9299
19.752 52.2547
19.9332 55.1123
20.1144 69.4644
20.2957 64.0087
20.477 51.7532
20.6586 48.7784
20.84 48.061
21.0215 47.6135
21.203 50.034
21.3846 47.9083
21.5662 48.1743
21.7479 51.7008
21.9297 64.1029
22.1115 55.4861
22.2933 48.7845
22.4753 47.8717
22.6572 48.2161
22.8393 51.3306
23.0214 56.0716
23.2037 47.7753
23.3859 48.9804
23.5682 56.9758
23.7505 46.8754
23.9329 44.4045
24.1154 43.3794
24.2979 42.7902
24.4805 42.2178
24.6631 42.0086
24.8458 41.4838
25.0286 42.2331
25.2114 44.063
25.3943 43.8427
25.5773 40.0504
25.7605 39.654
25.9436 40.2112
26.1268 41.1316
26.31 39.4925
26.4933 40.0764
26.6767 41.6209
26.8601 39.7317
27.0437 38.2586
27.2272 37.8174
27.4109 37.8351
27.5946 37.6514
27.7784 37.2216
27.9623 37.8329
28.1462 38.1761
28.3304 36.4282
28.5145 35.2557
28.6987 34.879
28.8829 34.8008
29.0673 34.0748
29.2517 33.8307
29.4361 33.4878
29.6207 32.5052
29.8053 32.3643
29.99 32.059
30.1748 31.8656
30.3597 31.6995
30.5447 31.6194
30.7297 31.6237
30.915 31.1634
31.1002 30.5569
31.2855 30.2251
31.4708 30.4219
31.6563 29.7518
31.8418 29.6614
32.0275 29.3861
32.2132 28.8582
32.399 28.3951
32.5848 28.0219
32.7708 27.6472
32.9569 27.4936
33.143 27.3887
33.3293 26.9172
33.5158 26.5259
33.7022 26.1045
33.8887 25.9193
34.0753 25.5387
34.262 25.1836
34.4488 24.8272
34.6357 24.5753
34.8227 24.2009
35.0098 24.0866
35.1969 23.7555
35.3842 23.577
35.5716 23.4078
35.759 23.0636
35.9468 22.7773
36.1345 22.5003
36.3222 22.2251
36.5101 22.0802
36.6981 21.6944
36.8861 21.3735
37.0743 21.0821
37.2626 20.9037
37.451 20.6532
37.6395 20.4315
37.8281 20.1585
38.0168 19.8882
38.2056 19.6132
38.3945 19.3271
38.5837 19.1605
38.7728 18.8952
38.9621 18.6107
39.1514 18.401
39.3409 18.1463
39.5304 17.9144
39.7201 17.7675
39.9099 17.4939
40.0999 17.3125
40.2899 17.085
40.48 16.7931
40.6703 16.65
40.8607 16.4835
41.0512 16.203
41.242 15.9814
41.4327 15.7637
41.6236 15.5642
41.8146 15.369
42.0057 15.1322
42.1969 14.9852
42.3882 14.8012
42.5797 14.5045
42.7713 14.4275
42.963 14.1646
43.1549 14.0158
43.3468 13.7522
43.5389 13.5871
43.7312 13.374
43.9237 13.1963
44.1162 13.002
44.3088 12.845
44.5016 12.637
44.6945 12.5169
44.8875 12.3078
45.0806 12.1551
45.2739 11.9672
45.4673 11.8288
45.6609 11.6324
45.8546 11.4945
46.0484 11.2692
46.2424 11.1518
46.4365 10.9801
46.631 10.7858
46.8254 10.636
47.0199 10.5463
47.2146 10.3807
47.4095 10.1891
47.6044 10.0481
47.7996 9.91128
47.9948 9.76907
48.1902 9.60888
48.3858 9.50103
48.5815 9.35614
48.7774 9.23073
48.9734 9.13071
49.1696 8.93332
49.3661 8.79943
49.5626 8.6284
49.7592 8.55668
49.956 8.4325
50.153 8.28846
50.3501 8.13693
50.5474 8.02363
50.7448 7.90293
50.9424 7.8017
51.1402 7.64585
51.3381 7.51181
51.5362 7.40581
51.7344 7.3015
51.9328 7.16524
52.1316 7.03178
52.3304 6.94905
52.5293 6.81213
52.7284 6.72037
52.9276 6.61623
53.1271 6.52101
53.3267 6.39177
53.5265 6.27777
53.7264 6.16689
53.9266 6.06036
54.1269 5.93407
54.3274 5.85479
54.528 5.70384
54.7289 5.56691
54.9301 5.33889
55.1314 5.31957
55.3328 5.04596
55.5344 4.87128
55.7361 4.75226