File: XRD/Ni3Fe_FD0723.xy
TT I
1.27165 7.72323
1.45013 5.90759
1.62863 4.88186
1.80712 4.69537
1.98562 4.65653
2.16411 4.95741
2.34263 5.18032
2.52115 6.94427
2.69965 7.74593
2.87818 8.44411
3.05672 10.9133
3.23527 14.8851
3.4138 19.0036
3.59237 23.5497
3.77094 25.6873
3.9495 29.7602
4.12809 34.6972
4.30669 172.718
4.4853 60.9605
4.6639 55.0305
4.84253 67.0043
5.02118 87.0188
5.19981 346.258
5.37848 187.337
5.55716 101.793
5.73586 92.2544
5.91455 93.7051
6.09328 4418.06
6.27201 81.3911
6.45075 67.563
6.62952 62.3563
6.8083 58.3105
6.98711 55.7008
7.16591 55.3597
7.34475 81.8472
7.5236 54.3492
7.70247 55.7397
7.88135 57.6098
8.06026 62.1914
8.23919 69.3613
8.41812 84.4747
8.59709 1220.79
8.77609 98.76
8.9551 90.0526
9.13412 82.1868
9.31318 82.5532
9.49226 84.2656
9.67134 96.6171
9.85047 99.9012
10.0296 344.636
10.2088 405.952
10.388 104.096
10.5672 505.209
10.7465 85.8923
10.9257 77.8548
11.105 71.5145
11.2844 69.2918
11.4637 64.6755
11.6431 63.5309
11.8225 62.3647
12.002 63.3186
12.1814 153.513
12.3609 69.3826
12.5405 64.2689
12.72 68.7205
12.8996 70.7374
13.0792 78.7823
13.2589 243.716
13.4386 126.427
13.6183 255.449
13.7981 97.3586
13.9779 75.6268
14.1577 72.2121
14.3376 70.8496
14.5175 68.6046
14.6974 70.458
14.8774 111.767
15.0574 147.406
15.2374 70.169
15.4175 66.1318
15.5976 65.4573
15.7778 95.4658
15.958 153.892
16.1382 62.2196
16.3185 58.3048
16.4988 55.3172
16.6792 54.3367
16.8596 54.9737
17.04 55.6716
17.2205 66.7632
17.401 70.7008
17.5815 59.1852
17.7622 61.1839
17.9428 73.2566
18.1237 137.968
18.3044 91.2166
18.4852 77.2778
18.666 60.2836
18.8469 57.9564
19.0278 56.6528
19.2088 59.6513
19.3898 75.6709
19.5709 54.1843
19.752 52.9356
19.9332 56.0915
20.1144 69.352
20.2957 64.0135
20.477 53.6332
20.6586 49.5273
20.84 48.7549
21.0215 48.344
21.203 50.792
21.3846 48.806
21.5662 48.5899
21.7479 52.5569
21.9297 64.3279
22.1115 55.8312
22.2933 49.7369
22.4753 48.577
22.6572 48.7432
22.8393 52.0031
23.0214 57.0974
23.2037 48.6226
23.3859 49.6015
23.5682 56.8593
23.7505 48.396
23.9329 45.0443
24.1154 44.1278
24.2979 43.3796
24.4805 42.8469
24.6631 42.6906
24.8458 42.0588
25.0286 42.7195
25.2114 44.5693
25.3943 44.4186
25.5773 40.8693
25.7605 40.3187
25.9436 40.8182
26.1268 41.5138
26.31 39.9631
26.4933 40.6845
26.6767 41.9765
26.8601 40.3719
27.0437 38.9053
27.2272 38.5249
27.4109 38.2408
27.5946 38.2298
27.7784 37.7285
27.9623 38.3606
28.1462 38.7987
28.3304 37.091
28.5145 35.8576
28.6987 35.6085
28.8829 35.3434
29.0673 34.601
29.2517 34.3159
29.4361 34.0912
29.6207 33.128
29.8053 32.8032
29.99 32.5196
30.1748 32.3186
30.3597 32.2154
30.5447 32.1618
30.7297 32.187
30.915 31.5434
31.1002 31.0714
31.2855 30.851
31.4708 30.7737
31.6563 30.2009
31.8418 30.0508
32.0275 29.7732
32.2132 29.2952
32.399 28.886
32.5848 28.3921
32.7708 28.1316
32.9569 27.9017
33.143 27.7846
33.3293 27.2973
33.5158 26.9904
33.7022 26.4995
33.8887 26.3219
34.0753 25.9204
34.262 25.6102
34.4488 25.1878
34.6357 24.8742
34.8227 24.6004
35.0098 24.4319
35.1969 24.1474
35.3842 23.9661
35.5716 23.7566
35.759 23.4127
35.9468 23.0415
36.1345 22.8162
36.3222 22.5592
36.5101 22.3705
36.6981 22.069
36.8861 21.7738
37.0743 21.4034
37.2626 21.1446
37.451 20.9236
37.6395 20.8008
37.8281 20.4544
38.0168 20.1398
38.2056 19.8983
38.3945 19.6965
38.5837 19.4396
38.7728 19.2336
38.9621 18.9402
39.1514 18.6777
39.3409 18.4118
39.5304 18.2413
39.7201 17.9896
39.9099 17.7321
40.0999 17.5172
40.2899 17.3284
40.48 17.0519
40.6703 16.891
40.8607 16.7414
41.0512 16.4583
41.242 16.2332
41.4327 16.024
41.6236 15.8121
41.8146 15.6357
42.0057 15.4097
42.1969 15.1279
42.3882 15.0348
42.5797 14.7809
42.7713 14.5629
42.963 14.4074
43.1549 14.2082
43.3468 13.9957
43.5389 13.7744
43.7312 13.6053
43.9237 13.4043
44.1162 13.2913
44.3088 13.0574
44.5016 12.8393
44.6945 12.7266
44.8875 12.5553
45.0806 12.3601
45.2739 12.2091
45.4673 12.0131
45.6609 11.8224
45.8546 11.7052
46.0484 11.5192
46.2424 11.3458
46.4365 11.2015
46.631 11.0145
46.8254 10.8378
47.0199 10.6814
47.2146 10.564
47.4095 10.3887
47.6044 10.2172
47.7996 10.0604
47.9948 9.94272
48.1902 9.7769
48.3858 9.58797
48.5815 9.49806
48.7774 9.37654
48.9734 9.24873
49.1696 9.09453
49.3661 8.96539
49.5626 8.7991
49.7592 8.70047
49.956 8.55361
50.153 8.45313
50.3501 8.28016
50.5474 8.14698
50.7448 8.06978
50.9424 7.90154
51.1402 7.77717
51.3381 7.67083
51.5362 7.52218
51.7344 7.36727
51.9328 7.29349
52.1316 7.14261
52.3304 7.06632
52.5293 6.9326
52.7284 6.84402
52.9276 6.73614
53.1271 6.61747
53.3267 6.48697
53.5265 6.37871
53.7264 6.24544
53.9266 6.16549
54.1269 6.06913
54.3274 5.99783
54.528 5.78201
54.7289 5.6491
54.9301 5.47643
55.1314 5.29581
55.3328 5.18093
55.5344 4.95642
55.7361 4.805