File: XRD/Ni3Fe_FD0410.xy
TT I
1.27165 8.01962
1.45013 5.27671
1.62863 5.31486
1.80712 4.78005
1.98562 4.50603
2.16411 4.62631
2.34263 4.94879
2.52115 6.14477
2.69965 7.26769
2.87818 9.06313
3.05672 11.3871
3.23527 15.1171
3.4138 19.1622
3.59237 24.7141
3.77094 26.4161
3.9495 30.3457
4.12809 35.486
4.30669 272.691
4.4853 72.2673
4.6639 56.4386
4.84253 68.1022
5.02118 88.6392
5.19981 426.549
5.37848 224.134
5.55716 104.958
5.73586 93.9263
5.91455 97.1505
6.09328 3888.74
6.27201 87.0525
6.45075 69.2042
6.62952 64.4221
6.8083 60.8627
6.98711 57.5157
7.16591 56.932
7.34475 104.356
7.5236 56.3196
7.70247 57.6097
7.88135 59.1101
8.06026 63.2787
8.23919 70.9544
8.41812 88.0318
8.59709 1072.04
8.77609 104.312
8.9551 95.2219
9.13412 83.2205
9.31318 84.4657
9.49226 86.22
9.67134 103.334
9.85047 102.018
10.0296 361.892
10.2088 508.148
10.388 108.247
10.5672 472.248
10.7465 89.092
10.9257 80.9257
11.105 73.5897
11.2844 72.8057
11.4637 66.1578
11.6431 64.9627
11.8225 63.8043
12.002 65.0626
12.1814 143.392
12.3609 74.6949
12.5405 66.3413
12.72 72.5199
12.8996 72.2432
13.0792 80.4625
13.2589 224.984
13.4386 138.246
13.6183 229.077
13.7981 106.165
13.9779 77.5747
14.1577 74.3015
14.3376 73.9691
14.5175 70.4772
14.6974 72.2955
14.8774 110.038
15.0574 164.776
15.2374 73.5479
15.4175 68.0462
15.5976 67.3449
15.7778 95.4821
15.958 170.547
16.1382 65.0838
16.3185 60.4376
16.4988 57.0058
16.6792 55.8929
16.8596 56.7615
17.04 57.1863
17.2205 67.0812
17.401 74.4877
17.5815 60.5394
17.7622 62.3704
17.9428 75.6423
18.1237 137.565
18.3044 89.6047
18.4852 82.5784
18.666 61.9229
18.8469 59.6201
19.0278 58.4739
19.2088 61.0356
19.3898 77.548
19.5709 55.7483
19.752 54.4641
19.9332 57.4173
20.1144 70.8018
20.2957 64.1961
20.477 55.8248
20.6586 50.9285
20.84 49.8821
21.0215 49.741
21.203 51.7922
21.3846 50.3177
21.5662 49.9489
21.7479 53.6302
21.9297 65.6918
22.1115 57.0073
22.2933 51.3504
22.4753 50.1255
22.6572 49.9209
22.8393 52.6064
23.0214 59.0411
23.2037 50.0191
23.3859 50.7013
23.5682 57.1661
23.7505 50.0654
23.9329 46.4336
24.1154 45.178
24.2979 44.5641
24.4805 43.813
24.6631 43.8388
24.8458 43.2557
25.0286 43.7841
25.2114 45.4797
25.3943 45.7095
25.5773 41.9813
25.7605 41.4109
25.9436 41.7245
26.1268 42.6475
26.31 41.0921
26.4933 41.5707
26.6767 43.011
26.8601 41.373
27.0437 39.7446
27.2272 39.4537
27.4109 39.1875
27.5946 39.1249
27.7784 38.6489
27.9623 39.1008
28.1462 39.5629
28.3304 38.1213
28.5145 36.8316
28.6987 36.4595
28.8829 36.1833
29.0673 35.5126
29.2517 34.9792
29.4361 34.9146
29.6207 33.9402
29.8053 33.6655
29.99 33.3553
30.1748 33.2473
30.3597 33.0951
30.5447 32.8205
30.7297 32.921
30.915 32.4102
31.1002 31.8747
31.2855 31.5427
31.4708 31.5022
31.6563 31.0742
31.8418 30.7322
32.0275 30.6579
32.2132 30.0287
32.399 29.5491
32.5848 29.1292
32.7708 28.8068
32.9569 28.6422
33.143 28.3531
33.3293 28.1147
33.5158 27.634
33.7022 27.2132
33.8887 26.9293
34.0753 26.6569
34.262 26.2644
34.4488 25.9124
34.6357 25.6507
34.8227 25.207
35.0098 25.0715
35.1969 24.754
35.3842 24.4903
35.5716 24.3493
35.759 24.0027
35.9468 23.644
36.1345 23.4477
36.3222 23.1838
36.5101 22.8803
36.6981 22.6282
36.8861 22.3042
37.0743 21.9897
37.2626 21.713
37.451 21.4737
37.6395 21.3213
37.8281 20.9906
38.0168 20.7058
38.2056 20.4273
38.3945 20.1421
38.5837 19.8691
38.7728 19.6837
38.9621 19.4703
39.1514 19.1218
39.3409 18.926
39.5304 18.7173
39.7201 18.5421
39.9099 18.2716
40.0999 18.0595
40.2899 17.7537
40.48 17.5476
40.6703 17.326
40.8607 17.1657
41.0512 16.9005
41.242 16.6462
41.4327 16.397
41.6236 16.2053
41.8146 16.0236
42.0057 15.8027
42.1969 15.5588
42.3882 15.3529
42.5797 15.1575
42.7713 14.9531
42.963 14.737
43.1549 14.5502
43.3468 14.2926
43.5389 14.1971
43.7312 13.9078
43.9237 13.7354
44.1162 13.6024
44.3088 13.3974
44.5016 13.2157
44.6945 13.0069
44.8875 12.8408
45.0806 12.627
45.2739 12.5142
45.4673 12.3401
45.6609 12.1517
45.8546 11.9658
46.0484 11.794
46.2424 11.6402
46.4365 11.4707
46.631 11.2446
46.8254 11.118
47.0199 10.9782
47.2146 10.7961
47.4095 10.6461
47.6044 10.4576
47.7996 10.3319
47.9948 10.132
48.1902 10.0489
48.3858 9.86743
48.5815 9.78751
48.7774 9.64223
48.9734 9.47617
49.1696 9.32416
49.3661 9.14738
49.5626 9.00221
49.7592 8.91421
49.956 8.75623
50.153 8.64893
50.3501 8.4819
50.5474 8.35106
50.7448 8.2524
50.9424 8.12326
51.1402 7.9966
51.3381 7.84561
51.5362 7.71263
51.7344 7.60394
51.9328 7.47932
52.1316 7.35313
52.3304 7.21695
52.5293 7.12368
52.7284 7.05269
52.9276 6.84714
53.1271 6.75086
53.3267 6.69999
53.5265 6.58136
53.7264 6.46237
53.9266 6.31973
54.1269 6.19037
54.3274 6.077
54.528 5.95352
54.7289 5.77734
54.9301 5.63464
55.1314 5.45985
55.3328 5.31253
55.5344 5.08128
55.7361 4.90153