File: XRD/Ni3Fe_FD0780.xy
TT I
1.27165 7.1262
1.45013 6.54255
1.62863 4.92807
1.80712 5.0971
1.98562 4.70518
2.16411 5.38014
2.34263 5.89161
2.52115 7.64194
2.69965 8.32753
2.87818 9.02414
3.05672 10.98
3.23527 15.5265
3.4138 18.9524
3.59237 23.8123
3.77094 25.9863
3.9495 29.3507
4.12809 34.8195
4.30669 185.099
4.4853 62.526
4.6639 55.2455
4.84253 66.6063
5.02118 86.303
5.19981 327.827
5.37848 176.584
5.55716 100.554
5.73586 91.0453
5.91455 92.915
6.09328 4456.42
6.27201 81.3227
6.45075 66.4859
6.62952 61.7451
6.8083 57.8024
6.98711 55.0239
7.16591 54.8037
7.34475 84.1989
7.5236 54.3655
7.70247 55.7023
7.88135 57.2994
8.06026 61.6928
8.23919 68.6174
8.41812 84.2531
8.59709 1205.98
8.77609 96.9595
8.9551 89.5964
9.13412 81.5137
9.31318 81.8925
9.49226 83.7795
9.67134 96.1156
9.85047 98.8854
10.0296 331.63
10.2088 344.514
10.388 103.072
10.5672 538.475
10.7465 85.141
10.9257 77.2633
11.105 70.8448
11.2844 69.5498
11.4637 63.992
11.6431 63.1655
11.8225 61.7739
12.002 63.1867
12.1814 159.031
12.3609 68.3425
12.5405 63.5299
12.72 68.73
12.8996 70.1665
13.0792 78.4421
13.2589 241.44
13.4386 117.419
13.6183 252.387
13.7981 92.6804
13.9779 74.9719
14.1577 71.5591
14.3376 70.5173
14.5175 68.0615
14.6974 69.6837
14.8774 109.382
15.0574 144.969
15.2374 70.0081
15.4175 65.5744
15.5976 65.1758
15.7778 93.4931
15.958 149.836
16.1382 61.5508
16.3185 57.8892
16.4988 54.7961
16.6792 54.0896
16.8596 54.6496
17.04 55.2822
17.2205 66.3407
17.401 68.8866
17.5815 58.542
17.7622 60.6002
17.9428 72.7133
18.1237 141.825
18.3044 90.6029
18.4852 74.5143
18.666 59.5879
18.8469 57.3854
19.0278 56.111
19.2088 58.9178
19.3898 76.3551
19.5709 53.7071
19.752 52.8018
19.9332 55.778
20.1144 69.5359
20.2957 63.9589
20.477 52.5603
20.6586 49.2384
20.84 48.2593
21.0215 47.9951
21.203 50.6448
21.3846 48.4398
21.5662 48.2953
21.7479 52.0598
21.9297 64.0387
22.1115 55.6552
22.2933 49.3054
22.4753 48.336
22.6572 48.3329
22.8393 51.5436
23.0214 56.7666
23.2037 48.1771
23.3859 49.3198
23.5682 57.0108
23.7505 47.4366
23.9329 44.6664
24.1154 43.5893
24.2979 43.0795
24.4805 42.5452
24.6631 42.278
24.8458 41.8361
25.0286 42.33
25.2114 44.1904
25.3943 44.1851
25.5773 40.4344
25.7605 40.052
25.9436 40.3957
26.1268 41.3641
26.31 39.6614
26.4933 40.325
26.6767 41.7342
26.8601 40.0244
27.0437 38.5318
27.2272 38.1259
27.4109 38.0884
27.5946 37.9289
27.7784 37.4493
27.9623 38.1704
28.1462 38.3809
28.3304 36.7176
28.5145 35.5511
28.6987 35.2663
28.8829 35.1659
29.0673 34.296
29.2517 33.9105
29.4361 33.8719
29.6207 32.7779
29.8053 32.6024
29.99 32.1465
30.1748 32.0906
30.3597 31.8314
30.5447 31.8814
30.7297 31.9658
30.915 31.25
31.1002 30.8366
31.2855 30.5454
31.4708 30.5667
31.6563 29.9669
31.8418 29.7109
32.0275 29.5583
32.2132 29.0572
32.399 28.6189
32.5848 28.17
32.7708 27.8951
32.9569 27.7844
33.143 27.4144
33.3293 27.1132
33.5158 26.744
33.7022 26.3034
33.8887 26.028
34.0753 25.6773
34.262 25.3402
34.4488 25.0277
34.6357 24.7256
34.8227 24.4785
35.0098 24.2428
35.1969 23.9671
35.3842 23.691
35.5716 23.5486
35.759 23.2541
35.9468 22.9672
36.1345 22.6756
36.3222 22.5077
36.5101 22.2188
36.6981 21.8967
36.8861 21.6284
37.0743 21.2682
37.2626 21.069
37.451 20.8353
37.6395 20.6417
37.8281 20.281
38.0168 20.0206
38.2056 19.7037
38.3945 19.4402
38.5837 19.2857
38.7728 19.0398
38.9621 18.7847
39.1514 18.5464
39.3409 18.2345
39.5304 18.0635
39.7201 17.9283
39.9099 17.6857
40.0999 17.4517
40.2899 17.1922
40.48 16.914
40.6703 16.7274
40.8607 16.5991
41.0512 16.3682
41.242 16.1477
41.4327 15.9579
41.6236 15.6785
41.8146 15.5477
42.0057 15.2489
42.1969 15.0551
42.3882 14.8927
42.5797 14.7142
42.7713 14.5054
42.963 14.3161
43.1549 14.1401
43.3468 13.8808
43.5389 13.7268
43.7312 13.4834
43.9237 13.3249
44.1162 13.1202
44.3088 12.9375
44.5016 12.7767
44.6945 12.604
44.8875 12.4292
45.0806 12.2506
45.2739 12.0562
45.4673 11.9436
45.6609 11.7379
45.8546 11.5985
46.0484 11.4105
46.2424 11.2509
46.4365 11.1054
46.631 10.9589
46.8254 10.7601
47.0199 10.6136
47.2146 10.4895
47.4095 10.3378
47.6044 10.1562
47.7996 10.0012
47.9948 9.84812
48.1902 9.70904
48.3858 9.55671
48.5815 9.41977
48.7774 9.32172
48.9734 9.18028
49.1696 9.04696
49.3661 8.90277
49.5626 8.71025
49.7592 8.63453
49.956 8.49599
50.153 8.3883
50.3501 8.21695
50.5474 8.11548
50.7448 7.99935
50.9424 7.85366
51.1402 7.71868
51.3381 7.59486
51.5362 7.46893
51.7344 7.38847
51.9328 7.20687
52.1316 7.10323
52.3304 7.02673
52.5293 6.88875
52.7284 6.79556
52.9276 6.64211
53.1271 6.58304
53.3267 6.48567
53.5265 6.3741
53.7264 6.21623
53.9266 6.08598
54.1269 6.03388
54.3274 5.86498
54.528 5.76881
54.7289 5.55551
54.9301 5.4632
55.1314 5.29595
55.3328 5.07916
55.5344 4.90757
55.7361 4.74055