File: XRD/Ni3Fe_FD0913.xy
TT I
1.27165 7.39907
1.45013 5.75689
1.62863 5.452
1.80712 5.11726
1.98562 4.40544
2.16411 4.6156
2.34263 5.59596
2.52115 7.6343
2.69965 7.97647
2.87818 9.10657
3.05672 11.2661
3.23527 15.4701
3.4138 18.6364
3.59237 23.2047
3.77094 25.8944
3.9495 28.9773
4.12809 33.9399
4.30669 123.562
4.4853 55.5316
4.6639 54.828
4.84253 67.1434
5.02118 86.0784
5.19981 352.83
5.37848 182.818
5.55716 100.67
5.73586 90.8268
5.91455 93.1519
6.09328 4605.45
6.27201 78.722
6.45075 67.793
6.62952 61.765
6.8083 58.2153
6.98711 54.9119
7.16591 55.0185
7.34475 71.4573
7.5236 53.5322
7.70247 55.8336
7.88135 56.9754
8.06026 61.8248
8.23919 68.5704
8.41812 83.0453
8.59709 1194.61
8.77609 95.495
8.9551 88.5578
9.13412 81.1542
9.31318 82.8996
9.49226 83.7649
9.67134 94.7355
9.85047 98.9905
10.0296 328.967
10.2088 325.157
10.388 102.818
10.5672 540.673
10.7465 84.6752
10.9257 76.6254
11.105 70.2738
11.2844 67.4628
11.4637 63.734
11.6431 62.2671
11.8225 61.5098
12.002 62.9301
12.1814 157.266
12.3609 66.2285
12.5405 63.6987
12.72 67.3363
12.8996 70.0578
13.0792 78.4946
13.2589 243.812
13.4386 113.791
13.6183 257.281
13.7981 91.5663
13.9779 74.4366
14.1577 70.6988
14.3376 69.5759
14.5175 67.5778
14.6974 69.3464
14.8774 109.447
15.0574 138.136
15.2374 68.7406
15.4175 65.2517
15.5976 64.7752
15.7778 93.1973
15.958 145.889
16.1382 60.6977
16.3185 56.9415
16.4988 54.465
16.6792 53.4706
16.8596 54.14
17.04 54.9612
17.2205 65.8596
17.401 67.4413
17.5815 58.1981
17.7622 60.2376
17.9428 72.0254
18.1237 139.635
18.3044 90.4439
18.4852 73.2731
18.666 59.2729
18.8469 57.0347
19.0278 55.9412
19.2088 58.3164
19.3898 74.981
19.5709 53.1108
19.752 52.1513
19.9332 55.1953
20.1144 69.4714
20.2957 64.0194
20.477 51.8913
20.6586 48.6544
20.84 48.0353
21.0215 47.7191
21.203 50.2531
21.3846 47.9699
21.5662 48.0994
21.7479 51.7342
21.9297 64.2533
22.1115 55.4088
22.2933 48.7891
22.4753 47.9066
22.6572 48.0704
22.8393 51.1311
23.0214 56.0451
23.2037 47.9484
23.3859 48.9857
23.5682 56.9408
23.7505 46.824
23.9329 44.4223
24.1154 43.3868
24.2979 42.6816
24.4805 42.1848
24.6631 41.9228
24.8458 41.5226
25.0286 42.2856
25.2114 44.0185
25.3943 43.7629
25.5773 40.2147
25.7605 39.7609
25.9436 40.1758
26.1268 41.014
26.31 39.4288
26.4933 40.1603
26.6767 41.5039
26.8601 39.7596
27.0437 38.109
27.2272 37.817
27.4109 37.731
27.5946 37.7668
27.7784 37.2732
27.9623 37.9419
28.1462 38.0807
28.3304 36.4596
28.5145 35.2912
28.6987 34.9446
28.8829 34.9027
29.0673 33.9555
29.2517 33.7314
29.4361 33.5077
29.6207 32.6146
29.8053 32.2845
29.99 32.0552
30.1748 31.971
30.3597 31.6691
30.5447 31.5914
30.7297 31.7324
30.915 30.9126
31.1002 30.6465
31.2855 30.3612
31.4708 30.3333
31.6563 29.7882
31.8418 29.6231
32.0275 29.444
32.2132 28.9124
32.399 28.4324
32.5848 28.1304
32.7708 27.6412
32.9569 27.5361
33.143 27.3014
33.3293 26.9967
33.5158 26.5936
33.7022 26.1228
33.8887 25.8588
34.0753 25.4985
34.262 25.2699
34.4488 24.7722
34.6357 24.5362
34.8227 24.2519
35.0098 24.1454
35.1969 23.7754
35.3842 23.6366
35.5716 23.3265
35.759 23.1471
35.9468 22.7769
36.1345 22.5538
36.3222 22.262
36.5101 22.049
36.6981 21.7549
36.8861 21.3945
37.0743 21.1719
37.2626 20.896
37.451 20.6678
37.6395 20.4701
37.8281 20.1662
38.0168 19.8519
38.2056 19.5694
38.3945 19.335
38.5837 19.144
38.7728 18.8772
38.9621 18.6873
39.1514 18.392
39.3409 18.129
39.5304 17.9689
39.7201 17.8027
39.9099 17.5196
40.0999 17.332
40.2899 17.0942
40.48 16.8292
40.6703 16.6466
40.8607 16.4687
41.0512 16.1641
41.242 15.9794
41.4327 15.8152
41.6236 15.5491
41.8146 15.3796
42.0057 15.1418
42.1969 14.9608
42.3882 14.8252
42.5797 14.5632
42.7713 14.3414
42.963 14.2028
43.1549 13.9601
43.3468 13.7555
43.5389 13.5651
43.7312 13.4228
43.9237 13.2065
44.1162 13.0663
44.3088 12.8774
44.5016 12.7009
44.6945 12.5046
44.8875 12.3809
45.0806 12.1636
45.2739 11.9554
45.4673 11.808
45.6609 11.6254
45.8546 11.4938
46.0484 11.3136
46.2424 11.148
46.4365 11.0378
46.631 10.816
46.8254 10.6261
47.0199 10.5359
47.2146 10.3607
47.4095 10.2506
47.6044 10.0859
47.7996 9.91609
47.9948 9.75028
48.1902 9.64653
48.3858 9.50922
48.5815 9.36034
48.7774 9.18891
48.9734 9.09093
49.1696 8.93711
49.3661 8.77846
49.5626 8.65648
49.7592 8.57752
49.956 8.4274
50.153 8.31962
50.3501 8.17028
50.5474 8.06572
50.7448 7.93708
50.9424 7.76708
51.1402 7.67539
51.3381 7.54736
51.5362 7.42734
51.7344 7.29351
51.9328 7.18671
52.1316 7.0662
52.3304 6.96748
52.5293 6.84021
52.7284 6.72606
52.9276 6.5894
53.1271 6.49754
53.3267 6.36299
53.5265 6.26489
53.7264 6.19284
53.9266 6.07792
54.1269 5.95431
54.3274 5.85909
54.528 5.70701
54.7289 5.56841
54.9301 5.42035
55.1314 5.29475
55.3328 5.06955
55.5344 4.94451
55.7361 4.70842