File: XRD/Ni3Fe_FD0159.xy
TT I
1.27165 7.86272
1.45013 6.17587
1.62863 5.57223
1.80712 5.14662
1.98562 5.1943
2.16411 4.95223
2.34263 4.73596
2.52115 4.10712
2.69965 6.21748
2.87818 8.44531
3.05672 11.6336
3.23527 15.1696
3.4138 18.7215
3.59237 21.7106
3.77094 24.8941
3.9495 28.6289
4.12809 32.8665
4.30669 38.0059
4.4853 44.8073
4.6639 54.1413
4.84253 66.1665
5.02118 91.1116
5.19981 538.407
5.37848 438.423
5.55716 107.554
5.73586 95.522
5.91455 105.035
6.09328 2778.26
6.27201 88.6884
6.45075 66.793
6.62952 59.7153
6.8083 55.5833
6.98711 53.4094
7.16591 52.352
7.34475 52.4448
7.5236 56.2821
7.70247 54.1976
7.88135 56.1023
8.06026 60.4868
8.23919 67.9502
8.41812 83.8983
8.59709 896.766
8.77609 116.024
8.9551 85.5347
9.13412 81.6223
9.31318 86.3082
9.49226 83.3643
9.67134 88.51
9.85047 98.5758
10.0296 541.864
10.2088 970.919
10.388 104.568
10.5672 336.357
10.7465 90.6867
10.9257 75.7787
11.105 70.2664
11.2844 66.4055
11.4637 63.6846
11.6431 62.0837
11.8225 60.9343
12.002 65.065
12.1814 118.737
12.3609 74.401
12.5405 63.2067
12.72 65.3135
12.8996 69.6581
13.0792 78.9581
13.2589 206.648
13.4386 207.861
13.6183 193.608
13.7981 152.236
13.9779 76.0034
14.1577 74.1986
14.3376 68.9963
14.5175 68.4678
14.6974 69.7162
14.8774 121.002
15.0574 205.304
15.2374 68.9741
15.4175 66.358
15.5976 65.7313
15.7778 107.614
15.958 186.144
16.1382 61.7768
16.3185 57.4371
16.4988 55.0
16.6792 53.8762
16.8596 54.1843
17.04 55.37
17.2205 65.3877
17.401 80.8344
17.5815 59.0774
17.7622 61.3027
17.9428 83.8346
18.1237 115.897
18.3044 88.7714
18.4852 94.705
18.666 60.8931
18.8469 58.3805
19.0278 56.7573
19.2088 61.8671
19.3898 69.2838
19.5709 56.3885
19.752 53.3546
19.9332 58.338
20.1144 67.1014
20.2957 61.3362
20.477 59.1983
20.6586 49.7597
20.84 49.3144
21.0215 48.9273
21.203 49.9103
21.3846 50.5171
21.5662 49.1449
21.7479 54.2331
21.9297 62.2065
22.1115 56.3769
22.2933 52.456
22.4753 48.8872
22.6572 49.1376
22.8393 52.4046
23.0214 57.4294
23.2037 49.8884
23.3859 51.8078
23.5682 53.8248
23.7505 53.2892
23.9329 45.7534
24.1154 44.4072
24.2979 43.567
24.4805 43.0027
24.6631 43.1776
24.8458 42.4732
25.0286 42.9063
25.2114 44.7852
25.3943 45.0657
25.5773 41.8181
25.7605 40.8481
25.9436 41.1458
26.1268 41.7344
26.31 41.0022
26.4933 41.1121
26.6767 42.1879
26.8601 41.3723
27.0437 39.4873
27.2272 39.0334
27.4109 38.7128
27.5946 38.9598
27.7784 38.649
27.9623 38.7067
28.1462 39.5168
28.3304 38.0065
28.5145 36.2878
28.6987 35.9686
28.8829 35.5639
29.0673 35.2592
29.2517 34.5929
29.4361 34.4136
29.6207 33.7832
29.8053 33.1942
29.99 32.8042
30.1748 32.7481
30.3597 32.7559
30.5447 32.5247
30.7297 32.4555
30.915 32.1852
31.1002 31.6156
31.2855 31.2781
31.4708 31.0062
31.6563 30.8764
31.8418 30.4844
32.0275 30.3376
32.2132 29.8177
32.399 29.324
32.5848 28.6853
32.7708 28.4603
32.9569 28.3175
33.143 28.0914
33.3293 27.7237
33.5158 27.3798
33.7022 26.8843
33.8887 26.5277
34.0753 26.3431
34.262 25.9046
34.4488 25.5558
34.6357 25.1961
34.8227 24.9346
35.0098 24.6933
35.1969 24.4474
35.3842 24.1807
35.5716 24.0568
35.759 23.7016
35.9468 23.3643
36.1345 23.0838
36.3222 22.8844
36.5101 22.6607
36.6981 22.3414
36.8861 22.0967
37.0743 21.7401
37.2626 21.4949
37.451 21.2106
37.6395 21.0018
37.8281 20.7044
38.0168 20.4049
38.2056 20.1617
38.3945 19.8418
38.5837 19.7048
38.7728 19.3789
38.9621 19.1259
39.1514 18.8513
39.3409 18.6398
39.5304 18.3743
39.7201 18.2265
39.9099 18.0499
40.0999 17.7744
40.2899 17.5526
40.48 17.2948
40.6703 17.0443
40.8607 16.9079
41.0512 16.7083
41.242 16.4277
41.4327 16.2362
41.6236 16.014
41.8146 15.8233
42.0057 15.5777
42.1969 15.3668
42.3882 15.184
42.5797 14.9712
42.7713 14.8095
42.963 14.5657
43.1549 14.3295
43.3468 14.1103
43.5389 13.9263
43.7312 13.778
43.9237 13.596
44.1162 13.346
44.3088 13.2157
44.5016 13.058
44.6945 12.8811
44.8875 12.6775
45.0806 12.5128
45.2739 12.2833
45.4673 12.1628
45.6609 11.9579
45.8546 11.8093
46.0484 11.585
46.2424 11.4548
46.4365 11.3057
46.631 11.142
46.8254 10.94
47.0199 10.7878
47.2146 10.673
47.4095 10.4409
47.6044 10.288
47.7996 10.1939
47.9948 10.0534
48.1902 9.92195
48.3858 9.75448
48.5815 9.62124
48.7774 9.44423
48.9734 9.33932
49.1696 9.21028
49.3661 9.06052
49.5626 8.89921
49.7592 8.75312
49.956 8.669
50.153 8.54765
50.3501 8.38513
50.5474 8.23393
50.7448 8.1358
50.9424 8.01605
51.1402 7.87377
51.3381 7.74396
51.5362 7.60908
51.7344 7.47741
51.9328 7.36013
52.1316 7.22732
52.3304 7.11503
52.5293 7.0034
52.7284 6.92921
52.9276 6.79988
53.1271 6.69309
53.3267 6.59926
53.5265 6.41434
53.7264 6.31304
53.9266 6.21375
54.1269 6.05707
54.3274 5.99456
54.528 5.83678
54.7289 5.61283
54.9301 5.43745
55.1314 5.33895
55.3328 5.1176
55.5344 4.94626
55.7361 4.78144