File: XRD/Ni3Fe_FD1054.xy
TT I
1.27165 6.8927
1.45013 5.56722
1.62863 4.89362
1.80712 4.923
1.98562 4.41231
2.16411 4.7796
2.34263 4.61921
2.52115 6.45535
2.69965 8.74497
2.87818 8.59934
3.05672 10.785
3.23527 14.7183
3.4138 18.0645
3.59237 21.2622
3.77094 24.6195
3.9495 28.297
4.12809 32.42
4.30669 57.2098
4.4853 46.3172
4.6639 52.5224
4.84253 63.8527
5.02118 82.5201
5.19981 233.124
5.37848 211.672
5.55716 97.3673
5.73586 87.6041
5.91455 88.6024
6.09328 4550.39
6.27201 75.5292
6.45075 63.779
6.62952 58.1317
6.8083 54.4303
6.98711 52.1664
7.16591 51.3359
7.34475 55.4239
7.5236 58.6998
7.70247 53.301
7.88135 54.8119
8.06026 58.9441
8.23919 65.697
8.41812 77.7379
8.59709 1087.28
8.77609 94.6799
8.9551 82.387
9.13412 78.765
9.31318 88.9706
9.49226 81.1826
9.67134 86.8339
9.85047 94.0217
10.0296 350.171
10.2088 438.6
10.388 97.7494
10.5672 508.264
10.7465 86.0142
10.9257 73.4769
11.105 68.4704
11.2844 64.8542
11.4637 61.7684
11.6431 60.8075
11.8225 59.723
12.002 66.5572
12.1814 146.074
12.3609 64.6699
12.5405 61.553
12.72 64.1619
12.8996 67.8367
13.0792 76.3868
13.2589 228.715
13.4386 127.555
13.6183 237.031
13.7981 100.338
13.9779 73.6355
14.1577 75.0035
14.3376 67.338
14.5175 66.5759
14.6974 67.2963
14.8774 110.159
15.0574 160.83
15.2374 66.5019
15.4175 64.0595
15.5976 63.4828
15.7778 94.7207
15.958 168.363
16.1382 59.9386
16.3185 55.4778
16.4988 53.3409
16.6792 52.2488
16.8596 52.9863
17.04 53.9437
17.2205 64.853
17.401 72.0105
17.5815 57.3036
17.7622 59.9994
17.9428 73.3419
18.1237 142.114
18.3044 88.9798
18.4852 79.2176
18.666 58.9573
18.8469 56.3446
19.0278 55.1165
19.2088 58.1556
19.3898 76.0904
19.5709 53.2253
19.752 51.6679
19.9332 55.058
20.1144 70.6348
20.2957 63.5621
20.477 52.8432
20.6586 48.2285
20.84 47.7324
21.0215 47.4744
21.203 49.5258
21.3846 47.8293
21.5662 47.4986
21.7479 51.7747
21.9297 65.4077
22.1115 55.9898
22.2933 49.0954
22.4753 47.3607
22.6572 47.6562
22.8393 51.2242
23.0214 57.4228
23.2037 47.9037
23.3859 49.3239
23.5682 57.223
23.7505 48.2682
23.9329 44.4349
24.1154 43.049
24.2979 42.4587
24.4805 41.9212
24.6631 42.1028
24.8458 41.1995
25.0286 41.9973
25.2114 44.2492
25.3943 44.3972
25.5773 40.2317
25.7605 39.6452
25.9436 40.1014
26.1268 41.2615
26.31 39.3129
26.4933 39.945
26.6767 41.9412
26.8601 40.0698
27.0437 38.2176
27.2272 37.9912
27.4109 37.8607
27.5946 37.8158
27.7784 37.2097
27.9623 37.9974
28.1462 38.6841
28.3304 36.7864
28.5145 35.3822
28.6987 35.0524
28.8829 34.9073
29.0673 34.0703
29.2517 33.7634
29.4361 33.6692
29.6207 32.5514
29.8053 32.2623
29.99 31.9339
30.1748 31.9333
30.3597 31.7049
30.5447 31.6851
30.7297 31.7646
30.915 31.2456
31.1002 30.7564
31.2855 30.4693
31.4708 30.369
31.6563 30.0159
31.8418 29.7376
32.0275 29.5107
32.2132 28.929
32.399 28.4525
32.5848 28.0487
32.7708 27.7457
32.9569 27.5784
33.143 27.4183
33.3293 26.9488
33.5158 26.6416
33.7022 26.1894
33.8887 25.9636
34.0753 25.6086
34.262 25.2549
34.4488 24.9341
34.6357 24.5878
34.8227 24.4181
35.0098 24.1308
35.1969 23.8255
35.3842 23.7005
35.5716 23.3989
35.759 23.166
35.9468 22.7319
36.1345 22.5058
36.3222 22.3717
36.5101 22.0722
36.6981 21.8239
36.8861 21.5199
37.0743 21.2012
37.2626 20.9525
37.451 20.6561
37.6395 20.4796
37.8281 20.1857
38.0168 19.9501
38.2056 19.6882
38.3945 19.4101
38.5837 19.1489
38.7728 18.9725
38.9621 18.6441
39.1514 18.3868
39.3409 18.1785
39.5304 17.9265
39.7201 17.7812
39.9099 17.5699
40.0999 17.3195
40.2899 17.0622
40.48 16.8314
40.6703 16.7307
40.8607 16.4646
41.0512 16.239
41.242 15.9622
41.4327 15.847
41.6236 15.618
41.8146 15.4069
42.0057 15.14
42.1969 15.015
42.3882 14.8191
42.5797 14.6099
42.7713 14.46
42.963 14.2127
43.1549 13.9672
43.3468 13.7927
43.5389 13.6245
43.7312 13.4546
43.9237 13.2742
44.1162 13.0494
44.3088 12.8863
44.5016 12.6871
44.6945 12.5193
44.8875 12.4067
45.0806 12.1898
45.2739 12.0032
45.4673 11.8736
45.6609 11.6538
45.8546 11.5054
46.0484 11.3286
46.2424 11.1579
46.4365 11.0223
46.631 10.8395
46.8254 10.6986
47.0199 10.5412
47.2146 10.4046
47.4095 10.2408
47.6044 10.0607
47.7996 9.93659
47.9948 9.77056
48.1902 9.65729
48.3858 9.51957
48.5815 9.39412
48.7774 9.20958
48.9734 9.10468
49.1696 8.96604
49.3661 8.78584
49.5626 8.67927
49.7592 8.55152
49.956 8.44193
50.153 8.29963
50.3501 8.20557
50.5474 8.06461
50.7448 7.94588
50.9424 7.82527
51.1402 7.66892
51.3381 7.5464
51.5362 7.4487
51.7344 7.34485
51.9328 7.18511
52.1316 7.01139
52.3304 6.95688
52.5293 6.85977
52.7284 6.7572
52.9276 6.62214
53.1271 6.54875
53.3267 6.37465
53.5265 6.30434
53.7264 6.16171
53.9266 6.08757
54.1269 5.92509
54.3274 5.82855
54.528 5.75398
54.7289 5.57123
54.9301 5.36361
55.1314 5.34657
55.3328 5.07716
55.5344 4.9395
55.7361 4.75056