File: XRD/Ni3Fe_FD0001.xy
TT I
1.27165 36.1315
1.45013 31.3632
1.62863 28.5764
1.80712 25.8972
1.98562 25.5467
2.16411 25.9063
2.34263 25.861
2.52115 26.209
2.69965 29.9521
2.87818 39.2593
3.05672 64.9435
3.23527 82.766
3.4138 46.2593
3.59237 39.7136
3.77094 41.8922
3.9495 43.9061
4.12809 54.2527
4.30669 77.1847
4.4853 68.9847
4.6639 55.0882
4.84253 59.7779
5.02118 88.6728
5.19981 242.451
5.37848 4214.46
5.55716 166.581
5.73586 98.2895
5.91455 104.169
6.09328 383.457
6.27201 406.362
6.45075 73.7427
6.62952 53.4318
6.8083 51.0144
6.98711 46.971
7.16591 50.9043
7.34475 68.8581
7.5236 62.8655
7.70247 54.1864
7.88135 38.295
8.06026 38.4159
8.23919 42.9329
8.41812 52.7324
8.59709 132.455
8.77609 808.047
8.9551 82.3967
9.13412 57.4146
9.31318 220.04
9.49226 50.1801
9.67134 47.5108
9.85047 52.9926
10.0296 82.4136
10.2088 332.881
10.388 175.483
10.5672 86.0496
10.7465 308.141
10.9257 48.2701
11.105 39.8869
11.2844 38.526
11.4637 37.0487
11.6431 36.3653
11.8225 35.7678
12.002 57.1697
12.1814 44.8746
12.3609 81.0201
12.5405 47.0532
12.72 38.1753
12.8996 37.7032
13.0792 39.22
13.2589 60.612
13.4386 108.151
13.6183 113.962
13.7981 115.806
13.9779 79.8568
14.1577 42.676
14.3376 59.8111
14.5175 34.7243
14.6974 34.42
14.8774 38.096
15.0574 52.1972
15.2374 130.868
15.4175 40.6661
15.5976 35.7478
15.7778 37.5333
15.958 48.8921
16.1382 142.562
16.3185 42.1879
16.4988 31.7158
16.6792 29.7631
16.8596 29.5892
17.04 36.2437
17.2205 31.1135
17.401 33.165
17.5815 53.6288
17.7622 33.2903
17.9428 41.6052
18.1237 41.0314
18.3044 71.0618
18.4852 67.4451
18.666 82.3896
18.8469 35.9504
19.0278 31.1826
19.2088 30.9079
19.3898 35.3267
19.5709 46.0626
19.752 40.5808
19.9332 30.3229
20.1144 30.7788
20.2957 37.3745
20.477 42.9501
20.6586 46.7008
20.84 29.9967
21.0215 30.5324
21.203 26.7624
21.3846 26.935
21.5662 32.3446
21.7479 28.0924
21.9297 29.5895
22.1115 36.5188
22.2933 52.6593
22.4753 40.6553
22.6572 29.1325
22.8393 28.3455
23.0214 31.088
23.2037 34.5536
23.3859 40.4828
23.5682 34.1543
23.7505 32.2877
23.9329 50.0792
24.1154 30.0477
24.2979 26.8264
24.4805 24.9728
24.6631 24.8267
24.8458 27.4441
25.0286 25.1147
25.2114 24.9595
25.3943 27.2148
25.5773 31.4025
25.7605 33.6925
25.9436 26.1204
26.1268 25.0323
26.31 25.1345
26.4933 29.9517
26.6767 25.5789
26.8601 26.0502
27.0437 33.4263
27.2272 29.5462
27.4109 24.0377
27.5946 23.4495
27.7784 23.8998
27.9623 25.9514
28.1462 24.9727
28.3304 26.4921
28.5145 30.9876
28.6987 27.3908
28.8829 22.7939
29.0673 21.694
29.2517 22.8019
29.4361 22.1649
29.6207 21.3257
29.8053 23.0977
29.99 21.1973
30.1748 20.6753
30.3597 21.046
30.5447 20.6465
30.7297 21.3208
30.915 20.7248
31.1002 23.3077
31.2855 23.4385
31.4708 20.5983
31.6563 20.0903
31.8418 21.2788
32.0275 21.7895
32.2132 20.4863
32.399 21.8577
32.5848 20.5779
32.7708 18.7978
32.9569 18.3257
33.143 18.7281
33.3293 18.0812
33.5158 18.4931
33.7022 19.692
33.8887 18.7582
34.0753 17.5911
34.262 17.3922
34.4488 17.5451
34.6357 16.8154
34.8227 17.0833
35.0098 16.4953
35.1969 15.9782
35.3842 16.1031
35.5716 16.1686
35.759 16.39
35.9468 17.489
36.1345 16.8692
36.3222 15.7507
36.5101 15.5606
36.6981 15.9637
36.8861 15.2698
37.0743 15.5232
37.2626 15.2612
37.451 14.6574
37.6395 14.356
37.8281 14.2315
38.0168 13.9605
38.2056 14.0892
38.3945 13.8099
38.5837 13.4018
38.7728 13.5374
38.9621 13.3525
39.1514 13.2252
39.3409 13.2054
39.5304 12.729
39.7201 12.5227
39.9099 12.5032
40.0999 12.2742
40.2899 12.2955
40.48 12.2934
40.6703 12.0325
40.8607 11.9014
41.0512 11.7148
41.242 11.7482
41.4327 11.662
41.6236 11.2639
41.8146 11.1531
42.0057 10.9955
42.1969 10.9947
42.3882 10.983
42.5797 10.6445
42.7713 10.3927
42.963 10.2863
43.1549 10.1164
43.3468 9.98941
43.5389 9.82848
43.7312 9.67735
43.9237 9.5675
44.1162 9.51165
44.3088 9.46928
44.5016 9.24223
44.6945 9.15823
44.8875 9.05881
45.0806 8.965
45.2739 8.90346
45.4673 8.68933
45.6609 8.53996
45.8546 8.44733
46.0484 8.40326
46.2424 8.2953
46.4365 8.12896
46.631 8.03702
46.8254 7.87576
47.0199 7.79405
47.2146 7.71566
47.4095 7.52601
47.6044 7.4438
47.7996 7.3454
47.9948 7.26764
48.1902 7.13121
48.3858 7.01606
48.5815 6.91467
48.7774 6.86275
48.9734 6.75722
49.1696 6.60971
49.3661 6.55708
49.5626 6.42987
49.7592 6.41478
49.956 6.28012
50.153 6.23125
50.3501 6.12821
50.5474 6.06049
50.7448 5.92527
50.9424 5.84955
51.1402 5.76831
51.3381 5.69795
51.5362 5.60829
51.7344 5.51972
51.9328 5.45273
52.1316 5.34351
52.3304 5.23339
52.5293 5.17069
52.7284 5.09272
52.9276 4.98426
53.1271 4.92073
53.3267 4.85429
53.5265 4.75584
53.7264 4.69585
53.9266 4.55777
54.1269 4.49399
54.3274 4.37517
54.528 4.25392
54.7289 4.122
54.9301 4.00425
55.1314 3.91686
55.3328 3.74208
55.5344 3.6089
55.7361 3.55315