File: XRD/Ni3Fe_FD0576.xy
TT I
1.27165 7.61167
1.45013 6.16736
1.62863 5.38839
1.80712 5.05985
1.98562 4.62106
2.16411 4.52004
2.34263 5.00426
2.52115 6.74918
2.69965 7.96367
2.87818 8.86212
3.05672 11.0723
3.23527 14.9716
3.4138 18.7571
3.59237 22.7755
3.77094 25.7901
3.9495 29.9706
4.12809 34.6761
4.30669 128.944
4.4853 57.0284
4.6639 55.5501
4.84253 68.0616
5.02118 88.2453
5.19981 460.595
5.37848 197.341
5.55716 103.091
5.73586 93.3977
5.91455 96.7087
6.09328 4431.77
6.27201 82.1958
6.45075 68.3258
6.62952 62.4363
6.8083 58.7037
6.98711 55.443
7.16591 55.667
7.34475 73.8776
7.5236 54.7177
7.70247 56.6182
7.88135 57.9085
8.06026 62.4923
8.23919 69.9732
8.41812 85.3211
8.59709 1253.84
8.77609 99.8086
8.9551 89.7372
9.13412 82.7404
9.31318 84.162
9.49226 85.1785
9.67134 96.0025
9.85047 101.275
10.0296 379.455
10.2088 374.108
10.388 106.663
10.5672 523.45
10.7465 87.1099
10.9257 78.1383
11.105 71.932
11.2844 69.3131
11.4637 64.8918
11.6431 64.0053
11.8225 62.9809
12.002 64.6063
12.1814 155.435
12.3609 68.1472
12.5405 64.5926
12.72 68.829
12.8996 71.7557
13.0792 80.6874
13.2589 251.483
13.4386 122.013
13.6183 254.114
13.7981 96.3541
13.9779 76.2166
14.1577 72.5533
14.3376 71.1871
14.5175 69.4966
14.6974 71.0118
14.8774 115.878
15.0574 144.22
15.2374 70.2926
15.4175 66.8488
15.5976 66.2856
15.7778 98.8376
15.958 151.781
16.1382 62.2566
16.3185 58.3661
16.4988 55.8463
16.6792 54.6556
16.8596 55.1876
17.04 56.3071
17.2205 67.7114
17.401 71.0319
17.5815 59.7152
17.7622 61.8142
17.9428 75.7238
18.1237 141.084
18.3044 91.9721
18.4852 76.8892
18.666 60.7459
18.8469 58.4954
19.0278 57.12
19.2088 60.1084
19.3898 76.0325
19.5709 54.4868
19.752 53.7155
19.9332 56.8936
20.1144 70.1746
20.2957 64.2812
20.477 53.6659
20.6586 49.816
20.84 49.0752
21.0215 48.9489
21.203 51.3133
21.3846 49.3501
21.5662 49.5593
21.7479 53.4592
21.9297 65.1209
22.1115 56.3183
22.2933 49.8745
22.4753 49.0811
22.6572 49.4513
22.8393 52.4801
23.0214 57.5764
23.2037 49.1796
23.3859 50.4294
23.5682 57.452
23.7505 48.3997
23.9329 45.5472
24.1154 44.303
24.2979 43.7416
24.4805 43.1791
24.6631 43.0786
24.8458 42.5881
25.0286 43.342
25.2114 45.0183
25.3943 44.8167
25.5773 41.2208
25.7605 40.9112
25.9436 41.1594
26.1268 41.8972
26.31 40.3355
26.4933 41.0446
26.6767 42.5519
26.8601 40.6914
27.0437 39.1132
27.2272 38.7037
27.4109 38.7095
27.5946 38.6823
27.7784 38.1924
27.9623 38.7556
28.1462 39.0701
28.3304 37.4121
28.5145 36.2138
28.6987 35.9018
28.8829 35.6905
29.0673 34.8768
29.2517 34.6827
29.4361 34.3421
29.6207 33.351
29.8053 33.1407
29.99 32.8184
30.1748 32.6382
30.3597 32.5351
30.5447 32.424
30.7297 32.4228
30.915 31.8954
31.1002 31.3512
31.2855 31.0824
31.4708 31.1251
31.6563 30.5422
31.8418 30.2963
32.0275 30.1165
32.2132 29.5594
32.399 29.1576
32.5848 28.7248
32.7708 28.312
32.9569 28.2171
33.143 28.0151
33.3293 27.556
33.5158 27.2286
33.7022 26.7718
33.8887 26.5069
34.0753 26.1354
34.262 25.8631
34.4488 25.5237
34.6357 25.0711
34.8227 24.829
35.0098 24.7087
35.1969 24.3422
35.3842 24.1654
35.5716 23.8252
35.759 23.6419
35.9468 23.269
36.1345 22.9562
36.3222 22.775
36.5101 22.55
36.6981 22.2655
36.8861 21.9908
37.0743 21.7032
37.2626 21.3722
37.451 21.1268
37.6395 20.9625
37.8281 20.6347
38.0168 20.3297
38.2056 20.0628
38.3945 19.7816
38.5837 19.4877
38.7728 19.3602
38.9621 19.0136
39.1514 18.8739
39.3409 18.5369
39.5304 18.3193
39.7201 18.1082
39.9099 17.8862
40.0999 17.7351
40.2899 17.4467
40.48 17.2224
40.6703 17.0246
40.8607 16.8088
41.0512 16.6134
41.242 16.3783
41.4327 16.1471
41.6236 15.9139
41.8146 15.7581
42.0057 15.5202
42.1969 15.3294
42.3882 15.1548
42.5797 14.9494
42.7713 14.7208
42.963 14.4986
43.1549 14.3182
43.3468 14.0606
43.5389 13.9342
43.7312 13.7258
43.9237 13.5307
44.1162 13.3386
44.3088 13.2015
44.5016 12.9522
44.6945 12.8171
44.8875 12.6121
45.0806 12.4382
45.2739 12.2712
45.4673 12.123
45.6609 11.9244
45.8546 11.773
46.0484 11.6124
46.2424 11.4638
46.4365 11.2575
46.631 11.065
46.8254 10.9487
47.0199 10.7792
47.2146 10.6255
47.4095 10.4457
47.6044 10.3247
47.7996 10.1581
47.9948 10.0086
48.1902 9.85896
48.3858 9.71513
48.5815 9.56444
48.7774 9.47064
48.9734 9.27847
49.1696 9.16548
49.3661 8.99935
49.5626 8.8439
49.7592 8.74375
49.956 8.61794
50.153 8.44456
50.3501 8.32483
50.5474 8.22579
50.7448 8.1114
50.9424 7.97932
51.1402 7.86358
51.3381 7.6952
51.5362 7.58188
51.7344 7.44124
51.9328 7.34207
52.1316 7.18375
52.3304 7.11578
52.5293 6.94428
52.7284 6.8621
52.9276 6.75025
53.1271 6.65873
53.3267 6.53302
53.5265 6.40626
53.7264 6.31118
53.9266 6.21111
54.1269 6.07294
54.3274 5.98361
54.528 5.80126
54.7289 5.64575
54.9301 5.48998
55.1314 5.39237
55.3328 5.12392
55.5344 4.98203
55.7361 4.83658