File: XRD/Ni3Fe_FD0810.xy
TT I
1.27165 7.41081
1.45013 5.98803
1.62863 5.39669
1.80712 4.65993
1.98562 4.40208
2.16411 5.21826
2.34263 5.21462
2.52115 6.83574
2.69965 8.72955
2.87818 8.24653
3.05672 11.1273
3.23527 15.2701
3.4138 18.9829
3.59237 23.1024
3.77094 25.5348
3.9495 29.377
4.12809 33.9968
4.30669 113.208
4.4853 54.5651
4.6639 55.3612
4.84253 68.0713
5.02118 86.7524
5.19981 397.431
5.37848 188.54
5.55716 101.824
5.73586 92.4235
5.91455 94.1655
6.09328 4596.62
6.27201 80.147
6.45075 69.1047
6.62952 62.4353
6.8083 58.6803
6.98711 55.4312
7.16591 55.3791
7.34475 69.7693
7.5236 53.7593
7.70247 56.1168
7.88135 57.1133
8.06026 62.186
8.23919 68.9919
8.41812 83.6075
8.59709 1222.99
8.77609 96.9224
8.9551 89.0713
9.13412 81.8628
9.31318 84.4865
9.49226 84.5688
9.67134 95.2369
9.85047 100.492
10.0296 344.59
10.2088 347.029
10.388 103.888
10.5672 538.651
10.7465 85.1884
10.9257 77.3798
11.105 70.7516
11.2844 67.7707
11.4637 64.2
11.6431 62.7279
11.8225 62.0515
12.002 63.869
12.1814 160.451
12.3609 66.3595
12.5405 63.9921
12.72 67.6169
12.8996 70.64
13.0792 79.5879
13.2589 248.433
13.4386 118.14
13.6183 258.044
13.7981 92.9468
13.9779 74.7697
14.1577 71.1665
14.3376 69.7108
14.5175 68.0807
14.6974 69.8993
14.8774 111.745
15.0574 140.53
15.2374 69.137
15.4175 65.8378
15.5976 65.19
15.7778 95.2711
15.958 146.783
16.1382 60.9347
16.3185 57.233
16.4988 54.5675
16.6792 53.8869
16.8596 54.3107
17.04 55.5921
17.2205 66.8882
17.401 68.7497
17.5815 58.5095
17.7622 60.725
17.9428 73.2184
18.1237 141.485
18.3044 91.1981
18.4852 74.3866
18.666 59.6815
18.8469 57.3406
19.0278 56.2925
19.2088 58.7238
19.3898 75.5451
19.5709 53.4612
19.752 52.6433
19.9332 55.7987
20.1144 69.4435
20.2957 64.1486
20.477 52.2154
20.6586 49.1553
20.84 48.2227
21.0215 48.2213
21.203 50.4234
21.3846 48.2594
21.5662 48.4754
21.7479 52.4944
21.9297 64.2782
22.1115 55.7634
22.2933 49.2009
22.4753 48.1269
22.6572 48.3828
22.8393 51.5745
23.0214 56.3791
23.2037 48.1034
23.3859 49.2642
23.5682 56.9913
23.7505 47.292
23.9329 44.7026
24.1154 43.7618
24.2979 43.0745
24.4805 42.4062
24.6631 42.3321
24.8458 41.7392
25.0286 42.3708
25.2114 44.0681
25.3943 44.0906
25.5773 40.4665
25.7605 40.1008
25.9436 40.4176
26.1268 41.3535
26.31 39.6925
26.4933 40.3684
26.6767 41.4881
26.8601 39.9587
27.0437 38.4749
27.2272 37.977
27.4109 37.9453
27.5946 37.9599
27.7784 37.5057
27.9623 38.0781
28.1462 38.3792
28.3304 36.5906
28.5145 35.5548
28.6987 35.2906
28.8829 34.9715
29.0673 34.1989
29.2517 33.8496
29.4361 33.6903
29.6207 32.6959
29.8053 32.4722
29.99 32.1414
30.1748 32.0599
30.3597 31.9697
30.5447 31.8766
30.7297 31.8953
30.915 31.221
31.1002 30.8438
31.2855 30.6115
31.4708 30.5205
31.6563 29.9082
31.8418 29.8322
32.0275 29.605
32.2132 29.0808
32.399 28.6252
32.5848 28.181
32.7708 27.846
32.9569 27.7686
33.143 27.4804
33.3293 27.0424
33.5158 26.7551
33.7022 26.3006
33.8887 25.9475
34.0753 25.6758
34.262 25.436
34.4488 25.0642
34.6357 24.6539
34.8227 24.4099
35.0098 24.1743
35.1969 23.902
35.3842 23.69
35.5716 23.5573
35.759 23.1531
35.9468 22.8807
36.1345 22.66
36.3222 22.3618
36.5101 22.1933
36.6981 21.8917
36.8861 21.583
37.0743 21.2683
37.2626 21.0758
37.451 20.7624
37.6395 20.6327
37.8281 20.1615
38.0168 19.9655
38.2056 19.7789
38.3945 19.4186
38.5837 19.1839
38.7728 19.0091
38.9621 18.7219
39.1514 18.4457
39.3409 18.2109
39.5304 18.0716
39.7201 17.8583
39.9099 17.715
40.0999 17.3926
40.2899 17.1573
40.48 16.9543
40.6703 16.7416
40.8607 16.5079
41.0512 16.3497
41.242 16.0902
41.4327 15.8484
41.6236 15.655
41.8146 15.5092
42.0057 15.2263
42.1969 15.013
42.3882 14.8736
42.5797 14.6572
42.7713 14.422
42.963 14.198
43.1549 14.023
43.3468 13.8801
43.5389 13.7015
43.7312 13.5066
43.9237 13.3565
44.1162 13.1475
44.3088 12.9584
44.5016 12.7395
44.6945 12.594
44.8875 12.3967
45.0806 12.2045
45.2739 12.0773
45.4673 11.9045
45.6609 11.7125
45.8546 11.6118
46.0484 11.4188
46.2424 11.1836
46.4365 11.0505
46.631 10.8816
46.8254 10.7568
47.0199 10.5682
47.2146 10.4487
47.4095 10.2599
47.6044 10.1161
47.7996 9.97578
47.9948 9.83189
48.1902 9.68221
48.3858 9.55041
48.5815 9.41553
48.7774 9.25202
48.9734 9.14212
49.1696 8.99004
49.3661 8.82063
49.5626 8.65119
49.7592 8.6029
49.956 8.48106
50.153 8.32029
50.3501 8.19042
50.5474 8.0752
50.7448 7.99563
50.9424 7.85502
51.1402 7.72368
51.3381 7.57907
51.5362 7.45203
51.7344 7.33616
51.9328 7.22848
52.1316 7.07643
52.3304 7.00827
52.5293 6.88962
52.7284 6.74029
52.9276 6.61702
53.1271 6.59336
53.3267 6.41681
53.5265 6.312
53.7264 6.20158
53.9266 6.1281
54.1269 5.94167
54.3274 5.86032
54.528 5.7727
54.7289 5.58062
54.9301 5.43076
55.1314 5.26875
55.3328 5.06532
55.5344 4.84817
55.7361 4.81691