File: XRD/Ni3Fe_FD0368.xy
TT I
1.27165 7.71774
1.45013 5.90327
1.62863 5.58068
1.80712 4.55836
1.98562 4.63978
2.16411 4.56889
2.34263 4.8476
2.52115 6.49564
2.69965 7.45332
2.87818 8.79663
3.05672 11.1227
3.23527 14.6572
3.4138 18.8085
3.59237 23.4655
3.77094 25.6923
3.9495 30.1348
4.12809 35.0898
4.30669 105.371
4.4853 55.3285
4.6639 57.0768
4.84253 69.7763
5.02118 91.628
5.19981 626.2
5.37848 222.567
5.55716 106.811
5.73586 96.5902
5.91455 102.246
6.09328 4057.74
6.27201 84.9637
6.45075 69.5745
6.62952 63.5558
6.8083 59.7196
6.98711 56.4791
7.16591 56.5697
7.34475 69.1145
7.5236 55.2785
7.70247 57.3139
7.88135 59.2975
8.06026 64.0233
8.23919 71.4664
8.41812 87.8789
8.59709 1201.26
8.77609 104.261
8.9551 90.8362
9.13412 84.7403
9.31318 85.9254
9.49226 87.1818
9.67134 96.6326
9.85047 103.915
10.0296 448.846
10.2088 451.1
10.388 110.601
10.5672 481.857
10.7465 89.2388
10.9257 79.4388
11.105 73.2129
11.2844 70.4628
11.4637 66.3572
11.6431 65.2329
11.8225 64.2651
12.002 66.647
12.1814 151.74
12.3609 69.3118
12.5405 66.164
12.72 69.7624
12.8996 73.1453
13.0792 83.2769
13.2589 249.067
13.4386 131.686
13.6183 245.836
13.7981 102.188
13.9779 78.0876
14.1577 73.7905
14.3376 72.353
14.5175 70.9949
14.6974 72.8927
14.8774 121.027
15.0574 152.854
15.2374 71.521
15.4175 68.1199
15.5976 68.1558
15.7778 103.949
15.958 160.96
16.1382 63.1181
16.3185 59.3905
16.4988 57.0885
16.6792 56.0114
16.8596 56.4113
17.04 57.9416
17.2205 69.2568
17.401 73.2433
17.5815 60.8536
17.7622 63.3228
17.9428 78.9885
18.1237 138.953
18.3044 92.0555
18.4852 78.7847
18.666 62.0908
18.8469 59.6581
19.0278 58.6096
19.2088 61.9676
19.3898 76.7157
19.5709 55.6282
19.752 54.8856
19.9332 58.4404
20.1144 71.5596
20.2957 64.5951
20.477 54.9711
20.6586 51.1268
20.84 50.2007
21.0215 50.114
21.203 51.8117
21.3846 50.3447
21.5662 50.6445
21.7479 54.7495
21.9297 65.9665
22.1115 57.0205
22.2933 51.1926
22.4753 50.112
22.6572 50.7466
22.8393 53.785
23.0214 58.7291
23.2037 50.3428
23.3859 51.6444
23.5682 57.5823
23.7505 49.775
23.9329 46.4756
24.1154 45.2438
24.2979 44.6236
24.4805 44.2274
24.6631 43.9707
24.8458 43.4164
25.0286 44.2458
25.2114 45.8077
25.3943 45.9197
25.5773 42.0844
25.7605 41.5511
25.9436 42.0382
26.1268 42.8136
26.31 41.2398
26.4933 41.9051
26.6767 43.4211
26.8601 41.4726
27.0437 39.9981
27.2272 39.6984
27.4109 39.557
27.5946 39.5032
27.7784 39.0352
27.9623 39.4307
28.1462 39.9413
28.3304 38.2251
28.5145 36.9032
28.6987 36.6354
28.8829 36.3617
29.0673 35.588
29.2517 35.3302
29.4361 35.0383
29.6207 34.0375
29.8053 33.7033
29.99 33.4518
30.1748 33.255
30.3597 33.2057
30.5447 33.2033
30.7297 33.0093
30.915 32.4647
31.1002 32.0099
31.2855 31.7404
31.4708 31.7134
31.6563 31.1028
31.8418 31.0778
32.0275 30.6952
32.2132 30.1494
32.399 29.7202
32.5848 29.2351
32.7708 28.9122
32.9569 28.8199
33.143 28.497
33.3293 28.1604
33.5158 27.8463
33.7022 27.2726
33.8887 27.0365
34.0753 26.7027
34.262 26.35
34.4488 25.9631
34.6357 25.7407
34.8227 25.3284
35.0098 25.1637
35.1969 24.8776
35.3842 24.6268
35.5716 24.4315
35.759 24.0849
35.9468 23.747
36.1345 23.4131
36.3222 23.2661
36.5101 22.9814
36.6981 22.7175
36.8861 22.3943
37.0743 22.0355
37.2626 21.8186
37.451 21.4899
37.6395 21.3566
37.8281 20.9706
38.0168 20.7366
38.2056 20.4869
38.3945 20.2609
38.5837 20.0121
38.7728 19.7342
38.9621 19.4331
39.1514 19.1424
39.3409 18.9607
39.5304 18.7087
39.7201 18.4947
39.9099 18.3179
40.0999 18.0328
40.2899 17.7713
40.48 17.5728
40.6703 17.2585
40.8607 17.1912
41.0512 16.9755
41.242 16.6683
41.4327 16.5084
41.6236 16.2102
41.8146 16.0508
42.0057 15.869
42.1969 15.5894
42.3882 15.385
42.5797 15.208
42.7713 14.953
42.963 14.8096
43.1549 14.5549
43.3468 14.3861
43.5389 14.1742
43.7312 13.9996
43.9237 13.7866
44.1162 13.6059
44.3088 13.3934
44.5016 13.1842
44.6945 13.0126
44.8875 12.8622
45.0806 12.6934
45.2739 12.5185
45.4673 12.3211
45.6609 12.1469
45.8546 12.0105
46.0484 11.8289
46.2424 11.6843
46.4365 11.4939
46.631 11.3249
46.8254 11.108
47.0199 10.9775
47.2146 10.822
47.4095 10.6366
47.6044 10.5037
47.7996 10.3123
47.9948 10.1699
48.1902 10.039
48.3858 9.89987
48.5815 9.76032
48.7774 9.63406
48.9734 9.46602
49.1696 9.35289
49.3661 9.14837
49.5626 9.05001
49.7592 8.92662
49.956 8.78059
50.153 8.62926
50.3501 8.53241
50.5474 8.37811
50.7448 8.28243
50.9424 8.13417
51.1402 8.00698
51.3381 7.87043
51.5362 7.73859
51.7344 7.6083
51.9328 7.48317
52.1316 7.33238
52.3304 7.20206
52.5293 7.11068
52.7284 6.96792
52.9276 6.88569
53.1271 6.7949
53.3267 6.66334
53.5265 6.49903
53.7264 6.40789
53.9266 6.30083
54.1269 6.21766
54.3274 6.08295
54.528 5.94462
54.7289 5.77725
54.9301 5.63674
55.1314 5.46031
55.3328 5.26571
55.5344 5.07618
55.7361 4.92437