File: XRD/Ni3Fe_FD0342.xy
TT I
1.27165 8.06915
1.45013 5.99645
1.62863 5.83423
1.80712 4.89396
1.98562 5.0319
2.16411 4.26653
2.34263 5.14559
2.52115 6.52437
2.69965 7.065
2.87818 8.37266
3.05672 11.0219
3.23527 15.334
3.4138 19.1524
3.59237 23.5507
3.77094 26.6539
3.9495 30.2741
4.12809 34.9332
4.30669 145.501
4.4853 59.0052
4.6639 57.2249
4.84253 69.6063
5.02118 91.8128
5.19981 587.03
5.37848 226.362
5.55716 106.626
5.73586 95.949
5.91455 101.563
6.09328 4036.39
6.27201 86.2325
6.45075 69.2864
6.62952 63.8845
6.8083 59.622
6.98711 56.9587
7.16591 56.9271
7.34475 77.8748
7.5236 56.0282
7.70247 57.648
7.88135 59.3038
8.06026 63.9615
8.23919 71.4201
8.41812 88.4407
8.59709 1170.55
8.77609 104.682
8.9551 91.9808
9.13412 84.6878
9.31318 85.4859
9.49226 87.2677
9.67134 98.5294
9.85047 103.486
10.0296 435.916
10.2088 481.048
10.388 109.779
10.5672 486.956
10.7465 89.5801
10.9257 80.0368
11.105 73.4531
11.2844 71.0978
11.4637 66.5133
11.6431 65.2192
11.8225 64.1839
12.002 66.3635
12.1814 149.587
12.3609 70.9246
12.5405 66.4685
12.72 70.7116
12.8996 73.3177
13.0792 82.8647
13.2589 245.847
13.4386 132.946
13.6183 243.086
13.7981 102.392
13.9779 78.2487
14.1577 74.4295
14.3376 72.7208
14.5175 70.7782
14.6974 72.8644
14.8774 119.354
15.0574 155.277
15.2374 72.1384
15.4175 68.3058
15.5976 68.2494
15.7778 102.645
15.958 163.917
16.1382 63.7366
16.3185 59.9913
16.4988 57.1345
16.6792 56.0619
16.8596 56.4882
17.04 57.7443
17.2205 69.0884
17.401 73.9405
17.5815 61.0358
17.7622 63.2281
17.9428 78.8872
18.1237 140.039
18.3044 91.7154
18.4852 80.3993
18.666 62.2451
18.8469 59.795
19.0278 58.5041
19.2088 61.9908
19.3898 76.945
19.5709 55.7735
19.752 55.0649
19.9332 58.4367
20.1144 71.346
20.2957 64.3643
20.477 55.3386
20.6586 51.2448
20.84 50.3223
21.0215 50.0442
21.203 51.9226
21.3846 50.5638
21.5662 50.8099
21.7479 54.7062
21.9297 66.3345
22.1115 57.1993
22.2933 51.4328
22.4753 50.0875
22.6572 50.6682
22.8393 53.7776
23.0214 59.0094
23.2037 50.3943
23.3859 51.6015
23.5682 57.6147
23.7505 49.8977
23.9329 46.574
24.1154 45.3498
24.2979 44.672
24.4805 44.1831
24.6631 44.1674
24.8458 43.5626
25.0286 44.2705
25.2114 45.9077
25.3943 46.0236
25.5773 42.1188
25.7605 41.6806
25.9436 42.0792
26.1268 42.7497
26.31 41.3642
26.4933 42.0314
26.6767 43.3601
26.8601 41.7531
27.0437 40.136
27.2272 39.6872
27.4109 39.5008
27.5946 39.4476
27.7784 39.0062
27.9623 39.4046
28.1462 39.9259
28.3304 38.2603
28.5145 37.0082
28.6987 36.6084
28.8829 36.4383
29.0673 35.7538
29.2517 35.2851
29.4361 35.0588
29.6207 34.0325
29.8053 33.8421
29.99 33.5297
30.1748 33.4299
30.3597 33.285
30.5447 33.0887
30.7297 33.1183
30.915 32.4868
31.1002 32.0738
31.2855 31.8629
31.4708 31.7251
31.6563 31.2088
31.8418 30.9052
32.0275 30.8025
32.2132 30.2538
32.399 29.7264
32.5848 29.4073
32.7708 29.0087
32.9569 28.7536
33.143 28.5211
33.3293 28.2395
33.5158 27.8536
33.7022 27.322
33.8887 27.1068
34.0753 26.7395
34.262 26.4165
34.4488 26.0352
34.6357 25.6805
34.8227 25.4627
35.0098 25.1917
35.1969 24.8822
35.3842 24.6608
35.5716 24.4944
35.759 24.0984
35.9468 23.723
36.1345 23.5091
36.3222 23.2646
36.5101 23.1203
36.6981 22.7077
36.8861 22.3857
37.0743 22.1241
37.2626 21.8494
37.451 21.5382
37.6395 21.4667
37.8281 21.0313
38.0168 20.7072
38.2056 20.5318
38.3945 20.1881
38.5837 19.9978
38.7728 19.7657
38.9621 19.4571
39.1514 19.2149
39.3409 18.9979
39.5304 18.7454
39.7201 18.5351
39.9099 18.3653
40.0999 18.1278
40.2899 17.8586
40.48 17.6002
40.6703 17.3933
40.8607 17.2175
41.0512 16.9673
41.242 16.7521
41.4327 16.5455
41.6236 16.2842
41.8146 16.1439
42.0057 15.865
42.1969 15.61
42.3882 15.459
42.5797 15.2166
42.7713 15.0507
42.963 14.8744
43.1549 14.59
43.3468 14.3803
43.5389 14.2062
43.7312 14.0141
43.9237 13.7742
44.1162 13.6134
44.3088 13.4179
44.5016 13.2086
44.6945 13.0728
44.8875 12.9373
45.0806 12.659
45.2739 12.5366
45.4673 12.3722
45.6609 12.1553
45.8546 11.9954
46.0484 11.8209
46.2424 11.6653
46.4365 11.5419
46.631 11.304
46.8254 11.0977
47.0199 11.0191
47.2146 10.8228
47.4095 10.6891
47.6044 10.4796
47.7996 10.352
47.9948 10.2288
48.1902 10.0629
48.3858 9.88725
48.5815 9.82001
48.7774 9.63691
48.9734 9.51241
49.1696 9.34094
49.3661 9.17786
49.5626 9.0538
49.7592 8.9359
49.956 8.81069
50.153 8.65763
50.3501 8.51609
50.5474 8.40318
50.7448 8.28824
50.9424 8.14449
51.1402 8.04806
51.3381 7.86582
51.5362 7.75348
51.7344 7.61182
51.9328 7.50596
52.1316 7.38069
52.3304 7.28119
52.5293 7.12209
52.7284 7.06409
52.9276 6.9009
53.1271 6.78254
53.3267 6.67716
53.5265 6.5559
53.7264 6.43718
53.9266 6.30652
54.1269 6.24575
54.3274 6.07638
54.528 5.91958
54.7289 5.77505
54.9301 5.62658
55.1314 5.53297
55.3328 5.25834
55.5344 5.09802
55.7361 4.90956