File: XRD/Ni3Fe_FD0330.xy
TT I
1.27165 7.88444
1.45013 5.87525
1.62863 5.29835
1.80712 4.70557
1.98562 4.89226
2.16411 5.1495
2.34263 5.04387
2.52115 6.09367
2.69965 7.65783
2.87818 8.52569
3.05672 11.7471
3.23527 14.9888
3.4138 18.9759
3.59237 24.2842
3.77094 26.6497
3.9495 30.4242
4.12809 35.4069
4.30669 175.197
4.4853 62.2611
4.6639 57.0478
4.84253 70.0089
5.02118 92.0791
5.19981 553.683
5.37848 228.661
5.55716 106.859
5.73586 96.5576
5.91455 101.431
6.09328 4038.13
6.27201 86.6186
6.45075 69.4051
6.62952 64.4224
6.8083 60.1867
6.98711 57.3515
7.16591 56.5504
7.34475 84.2358
7.5236 56.0742
7.70247 57.5695
7.88135 59.3426
8.06026 63.8232
8.23919 71.6138
8.41812 88.8333
8.59709 1156.52
8.77609 105.325
8.9551 93.0839
9.13412 84.0753
9.31318 85.3071
9.49226 87.1942
9.67134 99.7767
9.85047 103.438
10.0296 420.287
10.2088 496.735
10.388 109.285
10.5672 481.993
10.7465 89.6715
10.9257 80.2332
11.105 73.8045
11.2844 71.8273
11.4637 66.6301
11.6431 65.235
11.8225 64.3846
12.002 66.0058
12.1814 148.467
12.3609 71.8515
12.5405 66.5078
12.72 71.2648
12.8996 73.3362
13.0792 82.3084
13.2589 242.004
13.4386 134.302
13.6183 239.853
13.7981 103.294
13.9779 78.2064
14.1577 74.4011
14.3376 73.358
14.5175 70.8408
14.6974 72.6523
14.8774 118.006
15.0574 157.434
15.2374 72.519
15.4175 68.4276
15.5976 68.0253
15.7778 101.298
15.958 166.644
16.1382 64.3177
16.3185 60.1002
16.4988 57.0895
16.6792 56.1718
16.8596 56.5598
17.04 57.9131
17.2205 68.8442
17.401 74.4056
17.5815 61.0553
17.7622 63.2039
17.9428 78.6626
18.1237 139.988
18.3044 91.5907
18.4852 80.9105
18.666 62.3429
18.8469 59.8413
19.0278 58.509
19.2088 61.9941
19.3898 77.456
19.5709 55.8622
19.752 55.0824
19.9332 58.5115
20.1144 71.5144
20.2957 64.6804
20.477 55.5111
20.6586 51.1623
20.84 50.3579
21.0215 50.4121
21.203 52.2162
21.3846 50.6874
21.5662 50.5195
21.7479 54.5431
21.9297 66.3855
22.1115 57.2877
22.2933 51.4495
22.4753 50.4289
22.6572 50.5251
22.8393 53.7218
23.0214 59.2413
23.2037 50.4421
23.3859 51.6583
23.5682 57.7908
23.7505 50.0194
23.9329 46.6044
24.1154 45.4254
24.2979 44.7798
24.4805 44.2586
24.6631 44.1007
24.8458 43.5443
25.0286 44.244
25.2114 45.9729
25.3943 46.1804
25.5773 42.144
25.7605 41.8215
25.9436 42.1676
26.1268 42.8502
26.31 41.4887
26.4933 41.9574
26.6767 43.4094
26.8601 41.5838
27.0437 40.1809
27.2272 39.6841
27.4109 39.5817
27.5946 39.5706
27.7784 39.0249
27.9623 39.5436
28.1462 40.0127
28.3304 38.3172
28.5145 37.0209
28.6987 36.6928
28.8829 36.4529
29.0673 35.7295
29.2517 35.3344
29.4361 35.2065
29.6207 34.1127
29.8053 33.9209
29.99 33.6117
30.1748 33.4687
30.3597 33.2557
30.5447 33.1878
30.7297 33.1093
30.915 32.6852
31.1002 32.0929
31.2855 31.761
31.4708 31.6952
31.6563 31.2693
31.8418 30.947
32.0275 30.8086
32.2132 30.2773
32.399 29.8605
32.5848 29.4464
32.7708 29.0086
32.9569 28.8418
33.143 28.5924
33.3293 28.2314
33.5158 27.861
33.7022 27.4132
33.8887 27.1336
34.0753 26.8591
34.262 26.4509
34.4488 26.0741
34.6357 25.7414
34.8227 25.5377
35.0098 25.2291
35.1969 25.0179
35.3842 24.6459
35.5716 24.5765
35.759 24.2472
35.9468 23.8094
36.1345 23.5456
36.3222 23.3436
36.5101 23.0868
36.6981 22.773
36.8861 22.3909
37.0743 22.1659
37.2626 21.9034
37.451 21.6263
37.6395 21.4745
37.8281 21.0848
38.0168 20.7523
38.2056 20.572
38.3945 20.2566
38.5837 20.0368
38.7728 19.6942
38.9621 19.5153
39.1514 19.2299
39.3409 18.9722
39.5304 18.7367
39.7201 18.6053
39.9099 18.321
40.0999 18.0762
40.2899 17.8965
40.48 17.5739
40.6703 17.3773
40.8607 17.2466
41.0512 16.9939
41.242 16.7186
41.4327 16.5024
41.6236 16.288
41.8146 16.161
42.0057 15.8422
42.1969 15.652
42.3882 15.4247
42.5797 15.272
42.7713 15.0438
42.963 14.8353
43.1549 14.625
43.3468 14.4265
43.5389 14.2002
43.7312 14.0367
43.9237 13.8695
44.1162 13.6264
44.3088 13.464
44.5016 13.2409
44.6945 13.0904
44.8875 12.9426
45.0806 12.7487
45.2739 12.6193
45.4673 12.392
45.6609 12.2078
45.8546 12.0714
46.0484 11.8532
46.2424 11.6789
46.4365 11.5497
46.631 11.3792
46.8254 11.1467
47.0199 11.0264
47.2146 10.8522
47.4095 10.6944
47.6044 10.5351
47.7996 10.3713
47.9948 10.2357
48.1902 10.061
48.3858 9.98751
48.5815 9.77634
48.7774 9.68776
48.9734 9.49213
49.1696 9.38822
49.3661 9.23186
49.5626 9.09762
49.7592 8.97686
49.956 8.80765
50.153 8.69774
50.3501 8.55036
50.5474 8.43035
50.7448 8.29677
50.9424 8.17497
51.1402 8.02139
51.3381 7.85956
51.5362 7.75378
51.7344 7.65439
51.9328 7.49174
52.1316 7.3678
52.3304 7.23828
52.5293 7.12518
52.7284 6.98651
52.9276 6.91993
53.1271 6.78262
53.3267 6.69502
53.5265 6.54573
53.7264 6.46455
53.9266 6.33937
54.1269 6.24299
54.3274 6.12046
54.528 5.95295
54.7289 5.77618
54.9301 5.6078
55.1314 5.47699
55.3328 5.27246
55.5344 5.09759
55.7361 4.9734