File: XRD/Ni3Fe_FD0952.xy
TT I
1.27165 7.47705
1.45013 6.08231
1.62863 5.26264
1.80712 5.15771
1.98562 4.20368
2.16411 5.10754
2.34263 5.78407
2.52115 7.56331
2.69965 9.01014
2.87818 8.19731
3.05672 11.0416
3.23527 15.1431
3.4138 18.8217
3.59237 23.1971
3.77094 26.2615
3.9495 29.9048
4.12809 34.3606
4.30669 140.182
4.4853 57.232
4.6639 54.8578
4.84253 67.0496
5.02118 85.9655
5.19981 305.52
5.37848 182.676
5.55716 100.671
5.73586 90.8924
5.91455 92.4674
6.09328 4519.46
6.27201 79.7387
6.45075 67.8077
6.62952 62.0497
6.8083 58.6811
6.98711 55.0267
7.16591 55.4638
7.34475 74.4243
7.5236 53.8128
7.70247 55.6473
7.88135 56.7791
8.06026 61.8183
8.23919 68.688
8.41812 82.9362
8.59709 1173.67
8.77609 96.3801
8.9551 88.9894
9.13412 81.5263
9.31318 82.5876
9.49226 83.5191
9.67134 94.6502
9.85047 99.0422
10.0296 321.022
10.2088 368.875
10.388 102.057
10.5672 529.789
10.7465 84.8568
10.9257 76.7724
11.105 70.4402
11.2844 68.2678
11.4637 63.8283
11.6431 62.5867
11.8225 61.6211
12.002 62.4987
12.1814 156.841
12.3609 67.232
12.5405 63.9614
12.72 67.2351
12.8996 69.9554
13.0792 77.6781
13.2589 241.676
13.4386 118.998
13.6183 256.188
13.7981 94.7863
13.9779 74.76
14.1577 70.9359
14.3376 69.5075
14.5175 67.5709
14.6974 69.2553
14.8774 109.497
15.0574 144.478
15.2374 68.9885
15.4175 65.3065
15.5976 64.7744
15.7778 93.3554
15.958 149.92
16.1382 60.8244
16.3185 57.2016
16.4988 54.6216
16.6792 53.3857
16.8596 54.1675
17.04 54.8411
17.2205 65.983
17.401 68.7377
17.5815 58.0908
17.7622 60.0973
17.9428 71.9535
18.1237 136.666
18.3044 90.2946
18.4852 75.0871
18.666 59.3579
18.8469 57.1049
19.0278 55.6771
19.2088 58.3143
19.3898 74.1943
19.5709 53.2548
19.752 52.3209
19.9332 55.1569
20.1144 68.7731
20.2957 63.5326
20.477 52.5483
20.6586 48.9696
20.84 48.1132
21.0215 47.8831
21.203 50.0324
21.3846 48.2156
21.5662 47.9903
21.7479 51.8919
21.9297 63.7569
22.1115 55.3325
22.2933 48.7833
22.4753 47.9908
22.6572 47.7867
22.8393 51.1437
23.0214 55.9631
23.2037 47.8576
23.3859 48.8981
23.5682 56.4927
23.7505 47.451
23.9329 44.5599
24.1154 43.5013
24.2979 42.5466
24.4805 42.1967
24.6631 42.0664
24.8458 41.5328
25.0286 42.1606
25.2114 43.9096
25.3943 43.7193
25.5773 40.3266
25.7605 39.7186
25.9436 40.1991
26.1268 41.0901
26.31 39.3306
26.4933 39.9957
26.6767 41.4632
26.8601 39.7411
27.0437 38.1569
27.2272 37.9782
27.4109 37.7042
27.5946 37.778
27.7784 37.2877
27.9623 37.8159
28.1462 38.2785
28.3304 36.5657
28.5145 35.406
28.6987 34.9902
28.8829 34.7906
29.0673 34.0247
29.2517 33.7934
29.4361 33.6819
29.6207 32.5503
29.8053 32.2124
29.99 31.9819
30.1748 31.836
30.3597 31.751
30.5447 31.5664
30.7297 31.6468
30.915 31.115
31.1002 30.6143
31.2855 30.3289
31.4708 30.3325
31.6563 29.8847
31.8418 29.6965
32.0275 29.3719
32.2132 28.8857
32.399 28.4957
32.5848 27.9816
32.7708 27.624
32.9569 27.5492
33.143 27.3451
33.3293 26.9819
33.5158 26.5395
33.7022 26.1264
33.8887 25.8878
34.0753 25.5265
34.262 25.2779
34.4488 24.9135
34.6357 24.5494
34.8227 24.3575
35.0098 24.1493
35.1969 23.7512
35.3842 23.5523
35.5716 23.4068
35.759 23.1156
35.9468 22.6856
36.1345 22.6131
36.3222 22.3674
36.5101 22.0277
36.6981 21.8137
36.8861 21.4675
37.0743 21.0891
37.2626 20.8825
37.451 20.6236
37.6395 20.5194
37.8281 20.1326
38.0168 19.86
38.2056 19.5888
38.3945 19.3716
38.5837 19.1237
38.7728 18.8866
38.9621 18.6837
39.1514 18.4077
39.3409 18.158
39.5304 17.9606
39.7201 17.8141
39.9099 17.5831
40.0999 17.3134
40.2899 17.0844
40.48 16.8354
40.6703 16.65
40.8607 16.4917
41.0512 16.2153
41.242 15.9718
41.4327 15.8456
41.6236 15.6128
41.8146 15.3942
42.0057 15.1989
42.1969 14.9801
42.3882 14.8226
42.5797 14.6648
42.7713 14.3733
42.963 14.2484
43.1549 13.9648
43.3468 13.8296
43.5389 13.6041
43.7312 13.4276
43.9237 13.2329
44.1162 13.0632
44.3088 12.8648
44.5016 12.6591
44.6945 12.5308
44.8875 12.352
45.0806 12.1966
45.2739 12.0163
45.4673 11.8507
45.6609 11.6496
45.8546 11.5692
46.0484 11.372
46.2424 11.1519
46.4365 11.0305
46.631 10.8306
46.8254 10.6939
47.0199 10.5512
47.2146 10.3862
47.4095 10.2264
47.6044 10.0655
47.7996 9.95779
47.9948 9.78611
48.1902 9.6483
48.3858 9.51538
48.5815 9.38243
48.7774 9.25806
48.9734 9.08532
49.1696 8.95903
49.3661 8.84724
49.5626 8.68118
49.7592 8.57657
49.956 8.40516
50.153 8.29834
50.3501 8.19475
50.5474 8.02958
50.7448 7.8966
50.9424 7.79825
51.1402 7.71207
51.3381 7.53479
51.5362 7.43746
51.7344 7.32409
51.9328 7.17803
52.1316 7.05966
52.3304 6.97477
52.5293 6.82173
52.7284 6.74278
52.9276 6.57751
53.1271 6.53799
53.3267 6.43342
53.5265 6.32625
53.7264 6.19889
53.9266 6.09031
54.1269 5.95308
54.3274 5.84824
54.528 5.7554
54.7289 5.556
54.9301 5.39806
55.1314 5.26606
55.3328 5.056
55.5344 4.90439
55.7361 4.78825