File: XRD/Ni3Fe_FD0482.xy
TT I
1.27165 7.42848
1.45013 6.59703
1.62863 5.23002
1.80712 4.66414
1.98562 5.25395
2.16411 4.85765
2.34263 5.51225
2.52115 6.59424
2.69965 7.79571
2.87818 8.86867
3.05672 10.9347
3.23527 14.943
3.4138 18.7849
3.59237 23.338
3.77094 25.8769
3.9495 29.8928
4.12809 34.8714
4.30669 107.909
4.4853 54.8161
4.6639 56.5127
4.84253 69.3981
5.02118 90.2658
5.19981 540.627
5.37848 207.358
5.55716 104.984
5.73586 95.0455
5.91455 99.5747
6.09328 4232.59
6.27201 82.9059
6.45075 69.8975
6.62952 63.334
6.8083 59.7744
6.98711 56.3429
7.16591 56.2322
7.34475 69.4773
7.5236 55.1705
7.70247 57.4257
7.88135 58.8343
8.06026 63.5315
8.23919 70.9952
8.41812 86.8208
8.59709 1245.43
8.77609 101.703
8.9551 90.368
9.13412 84.075
9.31318 85.7076
9.49226 86.3408
9.67134 96.2622
9.85047 102.915
10.0296 414.403
10.2088 399.748
10.388 108.619
10.5672 501.36
10.7465 87.7751
10.9257 78.9624
11.105 72.5424
11.2844 69.7072
11.4637 66.0911
11.6431 64.5826
11.8225 63.6118
12.002 65.9042
12.1814 156.474
12.3609 68.3359
12.5405 65.7664
12.72 69.1932
12.8996 72.4167
13.0792 82.5799
13.2589 253.252
13.4386 125.45
13.6183 255.592
13.7981 97.6871
13.9779 77.0263
14.1577 73.0215
14.3376 71.6161
14.5175 70.3406
14.6974 71.865
14.8774 118.761
15.0574 148.709
15.2374 70.6444
15.4175 67.7279
15.5976 67.4992
15.7778 101.744
15.958 154.388
16.1382 62.4411
16.3185 58.7856
16.4988 56.3025
16.6792 55.2054
16.8596 55.8434
17.04 57.3106
17.2205 68.7338
17.401 71.774
17.5815 60.3367
17.7622 62.4736
17.9428 77.41
18.1237 140.453
18.3044 92.3979
18.4852 77.7906
18.666 61.2149
18.8469 58.9838
19.0278 57.8364
19.2088 60.8523
19.3898 76.5519
19.5709 55.1127
19.752 54.1327
19.9332 57.6882
20.1144 70.5181
20.2957 64.4345
20.477 54.1507
20.6586 50.3688
20.84 49.5391
21.0215 49.4896
21.203 51.6505
21.3846 49.7566
21.5662 49.9615
21.7479 53.9372
21.9297 65.422
22.1115 56.3176
22.2933 50.4618
22.4753 49.6249
22.6572 49.8228
22.8393 53.0675
23.0214 57.9357
23.2037 49.6073
23.3859 50.9804
23.5682 57.403
23.7505 48.917
23.9329 45.8823
24.1154 44.7581
24.2979 44.0507
24.4805 43.6857
24.6631 43.578
24.8458 42.9348
25.0286 43.611
25.2114 45.4314
25.3943 45.2188
25.5773 41.5256
25.7605 41.0779
25.9436 41.6204
26.1268 42.3422
26.31 40.6625
26.4933 41.3581
26.6767 42.7796
26.8601 40.9767
27.0437 39.5493
27.2272 39.0726
27.4109 39.1146
27.5946 38.9658
27.7784 38.532
27.9623 38.9615
28.1462 39.4017
28.3304 37.711
28.5145 36.4989
28.6987 36.1035
28.8829 35.9544
29.0673 35.1658
29.2517 34.8908
29.4361 34.639
29.6207 33.6311
29.8053 33.3671
29.99 32.9994
30.1748 32.934
30.3597 32.6634
30.5447 32.6979
30.7297 32.7138
30.915 32.0253
31.1002 31.6291
31.2855 31.3968
31.4708 31.3348
31.6563 30.8062
31.8418 30.5698
32.0275 30.2785
32.2132 29.9009
32.399 29.4021
32.5848 28.9545
32.7708 28.5259
32.9569 28.4474
33.143 28.2012
33.3293 27.7354
33.5158 27.4736
33.7022 27.0051
33.8887 26.6252
34.0753 26.3075
34.262 25.9865
34.4488 25.6525
34.6357 25.3385
34.8227 25.0407
35.0098 24.7933
35.1969 24.5426
35.3842 24.3549
35.5716 24.139
35.759 23.7261
35.9468 23.4062
36.1345 23.1986
36.3222 22.9504
36.5101 22.753
36.6981 22.4748
36.8861 22.1086
37.0743 21.8446
37.2626 21.5301
37.451 21.2644
37.6395 21.147
37.8281 20.7649
38.0168 20.4613
38.2056 20.2676
38.3945 19.9966
38.5837 19.7498
38.7728 19.5098
38.9621 19.254
39.1514 18.957
39.3409 18.7188
39.5304 18.4631
39.7201 18.3263
39.9099 18.0906
40.0999 17.8267
40.2899 17.6362
40.48 17.3443
40.6703 17.1575
40.8607 16.9594
41.0512 16.7631
41.242 16.4865
41.4327 16.2287
41.6236 16.0828
41.8146 15.9204
42.0057 15.6943
42.1969 15.4156
42.3882 15.2364
42.5797 15.0424
42.7713 14.8364
42.963 14.584
43.1549 14.4228
43.3468 14.2046
43.5389 13.9938
43.7312 13.8241
43.9237 13.6257
44.1162 13.4507
44.3088 13.2666
44.5016 13.0218
44.6945 12.8613
44.8875 12.6912
45.0806 12.516
45.2739 12.3473
45.4673 12.2023
45.6609 11.9741
45.8546 11.8667
46.0484 11.6535
46.2424 11.4726
46.4365 11.3613
46.631 11.1734
46.8254 11.0018
47.0199 10.8516
47.2146 10.741
47.4095 10.5132
47.6044 10.3705
47.7996 10.2212
47.9948 10.049
48.1902 9.90693
48.3858 9.76008
48.5815 9.67275
48.7774 9.5521
48.9734 9.3744
49.1696 9.20119
49.3661 9.07856
49.5626 8.94489
49.7592 8.79208
49.956 8.67807
50.153 8.55825
50.3501 8.41518
50.5474 8.29589
50.7448 8.14799
50.9424 8.03005
51.1402 7.92629
51.3381 7.77404
51.5362 7.66988
51.7344 7.52912
51.9328 7.42277
52.1316 7.2808
52.3304 7.15086
52.5293 7.01613
52.7284 6.93697
52.9276 6.81044
53.1271 6.71222
53.3267 6.58039
53.5265 6.47958
53.7264 6.33842
53.9266 6.22754
54.1269 6.13799
54.3274 5.99461
54.528 5.90075
54.7289 5.75088
54.9301 5.59684
55.1314 5.47394
55.3328 5.18764
55.5344 5.03289
55.7361 4.91057