File: XRD/Ni3Fe_FD0498.xy
TT I
1.27165 7.74171
1.45013 5.95393
1.62863 5.49976
1.80712 5.01622
1.98562 4.49027
2.16411 4.9586
2.34263 5.92722
2.52115 6.0262
2.69965 7.30754
2.87818 8.15371
3.05672 11.5276
3.23527 15.0688
3.4138 18.9755
3.59237 23.6953
3.77094 26.4867
3.9495 30.1346
4.12809 35.0349
4.30669 195.323
4.4853 64.239
4.6639 56.0997
4.84253 68.4168
5.02118 88.3157
5.19981 403.995
5.37848 204.407
5.55716 104.024
5.73586 93.8667
5.91455 96.8634
6.09328 4251.72
6.27201 84.8574
6.45075 68.2298
6.62952 63.4762
6.8083 59.6359
6.98711 56.6284
7.16591 56.1766
7.34475 88.0488
7.5236 55.5353
7.70247 56.7621
7.88135 58.4705
8.06026 63.1679
8.23919 70.3731
8.41812 86.4891
8.59709 1201.17
8.77609 102.125
8.9551 92.2189
9.13412 83.3924
9.31318 83.8765
9.49226 85.7047
9.67134 99.021
9.85047 101.27
10.0296 367.486
10.2088 454.677
10.388 106.334
10.5672 507.92
10.7465 88.0665
10.9257 79.4682
11.105 72.8744
11.2844 71.3114
11.4637 65.7061
11.6431 64.577
11.8225 63.4884
12.002 64.468
12.1814 154.337
12.3609 71.5964
12.5405 65.5165
12.72 70.6611
12.8996 71.979
13.0792 80.0961
13.2589 242.144
13.4386 132.574
13.6183 246.786
13.7981 102.885
13.9779 76.92
14.1577 73.5595
14.3376 72.4403
14.5175 69.9019
14.6974 71.324
14.8774 113.605
15.0574 157.591
15.2374 71.8522
15.4175 67.3482
15.5976 66.6765
15.7778 97.5795
15.958 159.505
16.1382 63.4991
16.3185 59.4669
16.4988 56.459
16.6792 55.3902
16.8596 55.9105
17.04 56.6104
17.2205 67.78
17.401 72.5853
17.5815 60.0882
17.7622 61.9566
17.9428 75.631
18.1237 136.705
18.3044 91.7887
18.4852 80.6243
18.666 61.3775
18.8469 58.8598
19.0278 57.5377
19.2088 60.5381
19.3898 76.0924
19.5709 55.0501
19.752 54.2285
19.9332 57.2356
20.1144 69.9929
20.2957 64.2458
20.477 54.7712
20.6586 50.4157
20.84 49.4446
21.0215 49.328
21.203 51.5139
21.3846 49.6036
21.5662 49.4152
21.7479 53.2752
21.9297 64.8594
22.1115 56.5338
22.2933 50.8374
22.4753 49.6795
22.6572 49.4598
22.8393 52.6767
23.0214 57.9767
23.2037 49.4935
23.3859 50.4818
23.5682 57.0208
23.7505 49.3759
23.9329 45.7806
24.1154 44.7726
24.2979 44.0254
24.4805 43.4594
24.6631 43.5184
24.8458 42.8022
25.0286 43.5669
25.2114 45.1732
25.3943 45.2142
25.5773 41.4785
25.7605 40.9927
25.9436 41.4216
26.1268 42.2453
26.31 40.8236
26.4933 41.2409
26.6767 42.652
26.8601 41.0859
27.0437 39.4323
27.2272 39.1596
27.4109 38.8802
27.5946 38.8906
27.7784 38.3997
27.9623 38.8761
28.1462 39.3235
28.3304 37.6658
28.5145 36.4694
28.6987 36.2109
28.8829 35.8836
29.0673 35.1888
29.2517 34.7269
29.4361 34.6175
29.6207 33.6927
29.8053 33.4328
29.99 33.0284
30.1748 32.9315
30.3597 32.733
30.5447 32.5834
30.7297 32.5769
30.915 32.0548
31.1002 31.5789
31.2855 31.2093
31.4708 31.266
31.6563 30.8388
31.8418 30.5874
32.0275 30.403
32.2132 29.7024
32.399 29.422
32.5848 28.9523
32.7708 28.4826
32.9569 28.3249
33.143 28.2161
33.3293 27.8228
33.5158 27.3815
33.7022 26.9619
33.8887 26.7124
34.0753 26.3188
34.262 25.9385
34.4488 25.7108
34.6357 25.3068
34.8227 25.0747
35.0098 24.8672
35.1969 24.527
35.3842 24.3503
35.5716 24.1136
35.759 23.8581
35.9468 23.4569
36.1345 23.178
36.3222 22.9754
36.5101 22.7625
36.6981 22.4358
36.8861 22.0809
37.0743 21.7949
37.2626 21.5113
37.451 21.2564
37.6395 21.1193
37.8281 20.7558
38.0168 20.4608
38.2056 20.2118
38.3945 19.9596
38.5837 19.6934
38.7728 19.4806
38.9621 19.2202
39.1514 18.9392
39.3409 18.717
39.5304 18.4954
39.7201 18.3131
39.9099 18.1411
40.0999 17.8267
40.2899 17.6369
40.48 17.3485
40.6703 17.1015
40.8607 16.9995
41.0512 16.7437
41.242 16.4467
41.4327 16.3183
41.6236 16.0825
41.8146 15.8812
42.0057 15.6345
42.1969 15.444
42.3882 15.2558
42.5797 15.0283
42.7713 14.8345
42.963 14.5753
43.1549 14.4004
43.3468 14.2554
43.5389 14.0244
43.7312 13.7773
43.9237 13.6852
44.1162 13.4211
44.3088 13.2806
44.5016 13.0625
44.6945 12.9101
44.8875 12.7015
45.0806 12.5682
45.2739 12.4092
45.4673 12.1773
45.6609 11.9885
45.8546 11.8692
46.0484 11.6783
46.2424 11.5468
46.4365 11.3503
46.631 11.1939
46.8254 11.0226
47.0199 10.8763
47.2146 10.7452
47.4095 10.515
47.6044 10.3525
47.7996 10.1925
47.9948 10.047
48.1902 9.9155
48.3858 9.79558
48.5815 9.64495
48.7774 9.53498
48.9734 9.36302
49.1696 9.22881
49.3661 9.03603
49.5626 8.93222
49.7592 8.82937
49.956 8.68386
50.153 8.56903
50.3501 8.43147
50.5474 8.24442
50.7448 8.1926
50.9424 8.02111
51.1402 7.9205
51.3381 7.77984
51.5362 7.64754
51.7344 7.49439
51.9328 7.39518
52.1316 7.25191
52.3304 7.16307
52.5293 7.06777
52.7284 6.93715
52.9276 6.83185
53.1271 6.7336
53.3267 6.56342
53.5265 6.41873
53.7264 6.3434
53.9266 6.26303
54.1269 6.11154
54.3274 6.0042
54.528 5.87668
54.7289 5.70926
54.9301 5.57746
55.1314 5.41412
55.3328 5.2174
55.5344 5.0178
55.7361 4.90932