File: XRD/Ni3Fe_FD0554.xy
TT I
1.27165 7.26493
1.45013 5.98888
1.62863 5.0626
1.80712 5.24905
1.98562 5.10893
2.16411 4.80538
2.34263 5.54469
2.52115 6.12411
2.69965 7.77172
2.87818 8.50031
3.05672 11.1824
3.23527 15.0639
3.4138 18.7883
3.59237 23.3034
3.77094 25.9757
3.9495 29.8791
4.12809 34.4912
4.30669 172.45
4.4853 61.1237
4.6639 55.6618
4.84253 68.1855
5.02118 88.4477
5.19981 409.384
5.37848 195.982
5.55716 103.071
5.73586 93.1106
5.91455 96.4478
6.09328 4375.31
6.27201 83.4005
6.45075 67.6287
6.62952 62.7264
6.8083 58.6519
6.98711 55.9845
7.16591 55.3854
7.34475 83.3292
7.5236 54.8643
7.70247 56.3806
7.88135 58.4447
8.06026 62.8145
8.23919 70.1086
8.41812 86.1014
8.59709 1221.9
8.77609 99.8968
8.9551 91.0374
9.13412 82.5662
9.31318 83.2063
9.49226 85.3426
9.67134 97.4982
9.85047 100.861
10.0296 371.396
10.2088 384.056
10.388 105.704
10.5672 517.757
10.7465 87.4282
10.9257 78.5006
11.105 72.3465
11.2844 70.2511
11.4637 65.24
11.6431 63.9166
11.8225 62.8721
12.002 64.3632
12.1814 154.546
12.3609 69.4628
12.5405 64.9493
12.72 69.6143
12.8996 71.5241
13.0792 80.1209
13.2589 246.241
13.4386 121.958
13.6183 254.257
13.7981 96.6157
13.9779 76.1005
14.1577 72.7797
14.3376 71.8008
14.5175 69.4473
14.6974 71.1615
14.8774 114.243
15.0574 145.609
15.2374 71.3107
15.4175 66.8186
15.5976 66.4998
15.7778 97.8773
15.958 153.863
16.1382 62.5504
16.3185 58.7661
16.4988 55.6484
16.6792 54.7816
16.8596 55.479
17.04 56.289
17.2205 67.8236
17.401 71.05
17.5815 59.5672
17.7622 62.0038
17.9428 75.1405
18.1237 141.73
18.3044 91.6591
18.4852 77.1374
18.666 60.71
18.8469 58.4579
19.0278 57.3258
19.2088 60.1732
19.3898 76.7303
19.5709 54.6726
19.752 53.6775
19.9332 56.8134
20.1144 70.3893
20.2957 64.6038
20.477 53.6327
20.6586 50.1024
20.84 49.3427
21.0215 49.0661
21.203 51.3349
21.3846 49.1564
21.5662 49.2219
21.7479 53.2438
21.9297 65.0304
22.1115 56.3181
22.2933 50.1771
22.4753 49.2591
22.6572 49.3448
22.8393 52.6078
23.0214 57.6986
23.2037 49.0133
23.3859 50.3415
23.5682 57.2675
23.7505 48.4634
23.9329 45.5112
24.1154 44.3843
24.2979 43.7612
24.4805 43.1909
24.6631 43.0913
24.8458 42.558
25.0286 43.1663
25.2114 44.9698
25.3943 44.8893
25.5773 41.2483
25.7605 40.6901
25.9436 41.1752
26.1268 41.9893
26.31 40.3683
26.4933 41.0647
26.6767 42.5543
26.8601 40.6691
27.0437 39.2915
27.2272 38.8179
27.4109 38.5663
27.5946 38.6946
27.7784 38.1037
27.9623 38.7198
28.1462 39.1766
28.3304 37.3649
28.5145 36.3003
28.6987 35.8175
28.8829 35.6976
29.0673 34.9341
29.2517 34.5686
29.4361 34.4214
29.6207 33.4448
29.8053 33.15
29.99 32.7624
30.1748 32.68
30.3597 32.5254
30.5447 32.3362
30.7297 32.4374
30.915 31.8882
31.1002 31.2722
31.2855 30.9892
31.4708 31.0273
31.6563 30.5644
31.8418 30.3646
32.0275 30.1128
32.2132 29.5769
32.399 29.1468
32.5848 28.6842
32.7708 28.3151
32.9569 28.2328
33.143 28.0155
33.3293 27.6301
33.5158 27.1481
33.7022 26.8019
33.8887 26.5557
34.0753 26.1319
34.262 25.8262
34.4488 25.5356
34.6357 25.1643
34.8227 24.8791
35.0098 24.6457
35.1969 24.3923
35.3842 24.1121
35.5716 23.846
35.759 23.5667
35.9468 23.275
36.1345 23.0766
36.3222 22.8083
36.5101 22.5392
36.6981 22.2717
36.8861 21.945
37.0743 21.6419
37.2626 21.4604
37.451 21.0952
37.6395 21.0136
37.8281 20.6417
38.0168 20.3653
38.2056 20.1101
38.3945 19.8729
38.5837 19.5508
38.7728 19.3831
38.9621 19.0148
39.1514 18.8217
39.3409 18.5642
39.5304 18.3849
39.7201 18.1541
39.9099 17.9679
40.0999 17.7198
40.2899 17.4235
40.48 17.1874
40.6703 17.0207
40.8607 16.8248
41.0512 16.6402
41.242 16.365
41.4327 16.1178
41.6236 15.9895
41.8146 15.7873
42.0057 15.5329
42.1969 15.3433
42.3882 15.1524
42.5797 14.9423
42.7713 14.7416
42.963 14.4856
43.1549 14.3549
43.3468 14.1264
43.5389 13.9684
43.7312 13.7426
43.9237 13.5049
44.1162 13.3578
44.3088 13.1676
44.5016 13.0217
44.6945 12.8027
44.8875 12.634
45.0806 12.4261
45.2739 12.2914
45.4673 12.1136
45.6609 11.9581
45.8546 11.7666
46.0484 11.5717
46.2424 11.4087
46.4365 11.261
46.631 11.1328
46.8254 10.9157
47.0199 10.8099
47.2146 10.6172
47.4095 10.453
47.6044 10.302
47.7996 10.1422
47.9948 9.99863
48.1902 9.86759
48.3858 9.74879
48.5815 9.6101
48.7774 9.41559
48.9734 9.29064
49.1696 9.14694
49.3661 9.02981
49.5626 8.8557
49.7592 8.72646
49.956 8.61715
50.153 8.47374
50.3501 8.34061
50.5474 8.24003
50.7448 8.10841
50.9424 7.98292
51.1402 7.84747
51.3381 7.7167
51.5362 7.60125
51.7344 7.48253
51.9328 7.31442
52.1316 7.25121
52.3304 7.11422
52.5293 6.97766
52.7284 6.88154
52.9276 6.76053
53.1271 6.65505
53.3267 6.53686
53.5265 6.40449
53.7264 6.29322
53.9266 6.19453
54.1269 6.07134
54.3274 5.97134
54.528 5.85863
54.7289 5.66854
54.9301 5.53856
55.1314 5.40909
55.3328 5.19033
55.5344 4.94051
55.7361 4.81536