File: XRD/Ni3Fe_FD0417.xy
TT I
1.27165 7.5434
1.45013 6.13619
1.62863 5.27787
1.80712 4.86009
1.98562 4.2853
2.16411 5.13857
2.34263 4.80302
2.52115 5.89116
2.69965 7.99437
2.87818 8.81271
3.05672 11.086
3.23527 14.8459
3.4138 19.3359
3.59237 24.654
3.77094 26.9577
3.9495 30.4774
4.12809 36.0902
4.30669 288.696
4.4853 73.8595
4.6639 56.4736
4.84253 68.5164
5.02118 88.6247
5.19981 422.798
5.37848 223.149
5.55716 104.613
5.73586 93.7166
5.91455 96.8307
6.09328 3851.1
6.27201 87.7167
6.45075 69.1507
6.62952 64.5502
6.8083 60.4036
6.98711 57.5479
7.16591 57.0514
7.34475 107.986
7.5236 56.1041
7.70247 57.5378
7.88135 59.2763
8.06026 63.5447
8.23919 71.2676
8.41812 87.8137
8.59709 1061.78
8.77609 104.752
8.9551 96.0811
9.13412 83.2935
9.31318 84.377
9.49226 85.6796
9.67134 103.678
9.85047 102.002
10.0296 353.626
10.2088 510.353
10.388 108.091
10.5672 473.098
10.7465 89.0539
10.9257 80.5369
11.105 73.3716
11.2844 73.0475
11.4637 66.3475
11.6431 65.1265
11.8225 63.8787
12.002 64.6921
12.1814 141.411
12.3609 75.0657
12.5405 66.2145
12.72 73.0882
12.8996 72.4157
13.0792 80.5606
13.2589 221.149
13.4386 138.592
13.6183 226.484
13.7981 106.275
13.9779 77.6644
14.1577 74.4858
14.3376 74.1271
14.5175 70.2386
14.6974 72.0212
14.8774 109.427
15.0574 164.617
15.2374 73.7196
15.4175 67.8844
15.5976 67.166
15.7778 94.7671
15.958 171.123
16.1382 65.1816
16.3185 60.3727
16.4988 56.8163
16.6792 55.9896
16.8596 56.6421
17.04 57.0644
17.2205 66.8161
17.401 74.7861
17.5815 60.6796
17.7622 62.4048
17.9428 75.0565
18.1237 136.69
18.3044 89.2379
18.4852 82.64
18.666 61.8886
18.8469 59.4221
19.0278 58.2345
19.2088 60.8866
19.3898 77.5875
19.5709 55.7997
19.752 54.5044
19.9332 57.5533
20.1144 70.809
20.2957 63.6675
20.477 55.9424
20.6586 50.9484
20.84 49.8225
21.0215 49.7129
21.203 51.6188
21.3846 50.306
21.5662 49.8445
21.7479 53.3529
21.9297 65.4709
22.1115 56.8751
22.2933 51.4105
22.4753 50.094
22.6572 49.8267
22.8393 52.6501
23.0214 59.128
23.2037 50.0524
23.3859 50.691
23.5682 57.3316
23.7505 50.1006
23.9329 46.1971
24.1154 45.2369
24.2979 44.5043
24.4805 43.8741
24.6631 43.7706
24.8458 43.2635
25.0286 43.7177
25.2114 45.5388
25.3943 45.7129
25.5773 41.9834
25.7605 41.4865
25.9436 41.8401
26.1268 42.6062
26.31 41.0989
26.4933 41.5834
26.6767 42.9625
26.8601 41.4363
27.0437 39.8515
27.2272 39.3451
27.4109 39.2915
27.5946 39.2528
27.7784 38.66
27.9623 39.2163
28.1462 39.6192
28.3304 37.9324
28.5145 36.8801
28.6987 36.523
28.8829 36.2307
29.0673 35.4561
29.2517 35.1816
29.4361 34.9209
29.6207 33.9788
29.8053 33.7147
29.99 33.3284
30.1748 33.1668
30.3597 33.0179
30.5447 32.7716
30.7297 32.8462
30.915 32.4007
31.1002 31.7582
31.2855 31.5298
31.4708 31.4909
31.6563 31.0454
31.8418 30.8168
32.0275 30.6424
32.2132 30.0496
32.399 29.5879
32.5848 29.2509
32.7708 28.8554
32.9569 28.653
33.143 28.3666
33.3293 28.1235
33.5158 27.7347
33.7022 27.2441
33.8887 26.9713
34.0753 26.5913
34.262 26.2039
34.4488 25.9823
34.6357 25.5037
34.8227 25.3016
35.0098 25.0616
35.1969 24.6561
35.3842 24.499
35.5716 24.343
35.759 23.9401
35.9468 23.5966
36.1345 23.4216
36.3222 23.1707
36.5101 22.9878
36.6981 22.6387
36.8861 22.3224
37.0743 21.9477
37.2626 21.7832
37.451 21.4725
37.6395 21.3359
37.8281 20.9737
38.0168 20.6725
38.2056 20.4112
38.3945 20.1471
38.5837 19.9189
38.7728 19.6181
38.9621 19.382
39.1514 19.2035
39.3409 18.8953
39.5304 18.6457
39.7201 18.4826
39.9099 18.2067
40.0999 18.0126
40.2899 17.7057
40.48 17.5237
40.6703 17.3232
40.8607 17.1297
41.0512 16.928
41.242 16.6505
41.4327 16.4205
41.6236 16.1283
41.8146 15.9773
42.0057 15.7736
42.1969 15.6204
42.3882 15.3998
42.5797 15.1179
42.7713 14.9973
42.963 14.7071
43.1549 14.5843
43.3468 14.3341
43.5389 14.1734
43.7312 13.931
43.9237 13.7744
44.1162 13.5878
44.3088 13.3971
44.5016 13.2346
44.6945 12.9952
44.8875 12.849
45.0806 12.6737
45.2739 12.5006
45.4673 12.3654
45.6609 12.131
45.8546 11.9783
46.0484 11.8063
46.2424 11.6297
46.4365 11.4751
46.631 11.2917
46.8254 11.0798
47.0199 10.9628
47.2146 10.8252
47.4095 10.6601
47.6044 10.4438
47.7996 10.3001
47.9948 10.1491
48.1902 10.0067
48.3858 9.86862
48.5815 9.71962
48.7774 9.61079
48.9734 9.45011
49.1696 9.32767
49.3661 9.15501
49.5626 9.06015
49.7592 8.92257
49.956 8.7787
50.153 8.64851
50.3501 8.45469
50.5474 8.37647
50.7448 8.26764
50.9424 8.11289
51.1402 8.01232
51.3381 7.87296
51.5362 7.72972
51.7344 7.62112
51.9328 7.45612
52.1316 7.31742
52.3304 7.23804
52.5293 7.09945
52.7284 6.95569
52.9276 6.87798
53.1271 6.76444
53.3267 6.67702
53.5265 6.50695
53.7264 6.41963
53.9266 6.33001
54.1269 6.18494
54.3274 6.04915
54.528 5.89889
54.7289 5.78023
54.9301 5.60198
55.1314 5.49769
55.3328 5.26852
55.5344 5.0169
55.7361 4.91551