File: XRD/Ni3Fe_FD0305.xy
TT I
1.27165 7.55158
1.45013 6.53246
1.62863 6.37963
1.80712 4.89661
1.98562 4.81859
2.16411 5.23346
2.34263 5.2482
2.52115 5.9857
2.69965 7.09774
2.87818 8.1474
3.05672 11.2507
3.23527 15.1884
3.4138 19.4236
3.59237 25.5382
3.77094 27.1512
3.9495 30.3947
4.12809 35.9496
4.30669 323.573
4.4853 77.7067
4.6639 56.7309
4.84253 68.9757
5.02118 90.2852
5.19981 481.828
5.37848 258.396
5.55716 106.447
5.73586 95.9431
5.91455 100.014
6.09328 3677.75
6.27201 89.7315
6.45075 70.0841
6.62952 65.8645
6.8083 61.5544
6.98711 57.8782
7.16591 57.9511
7.34475 117.111
7.5236 57.024
7.70247 58.4413
7.88135 59.7246
8.06026 64.0916
8.23919 71.9116
8.41812 89.2736
8.59709 966.803
8.77609 108.357
8.9551 98.1077
9.13412 83.9222
9.31318 85.0699
9.49226 86.6474
9.67134 106.671
9.85047 103.544
10.0296 367.35
10.2088 600.206
10.388 110.555
10.5672 439.624
10.7465 90.2393
10.9257 81.9508
11.105 74.5179
11.2844 74.5983
11.4637 67.1373
11.6431 65.9101
11.8225 64.7511
12.002 65.8555
12.1814 134.739
12.3609 77.7245
12.5405 67.206
12.72 74.6721
12.8996 73.1504
13.0792 81.2999
13.2589 207.632
13.4386 151.037
13.6183 209.812
13.7981 113.301
13.9779 78.5309
14.1577 75.5539
14.3376 75.2487
14.5175 71.1677
14.6974 73.0068
14.8774 107.741
15.0574 176.994
15.2374 74.7899
15.4175 68.6521
15.5976 68.1505
15.7778 94.1492
15.958 182.95
16.1382 66.32
16.3185 61.343
16.4988 57.6622
16.6792 56.4527
16.8596 57.3794
17.04 57.5505
17.2205 66.8202
17.401 77.9023
17.5815 61.1578
17.7622 63.4341
17.9428 76.6179
18.1237 137.377
18.3044 88.3303
18.4852 86.4663
18.666 62.8097
18.8469 60.2164
19.0278 58.9918
19.2088 61.8204
19.3898 78.5535
19.5709 56.5842
19.752 55.305
19.9332 58.1599
20.1144 71.0869
20.2957 63.6078
20.477 56.9293
20.6586 51.5609
20.84 50.6457
21.0215 50.3123
21.203 52.0307
21.3846 51.188
21.5662 50.3748
21.7479 53.7873
21.9297 66.3622
22.1115 57.5933
22.2933 52.1983
22.4753 50.8259
22.6572 50.4939
22.8393 52.886
23.0214 60.2697
23.2037 50.6885
23.3859 51.2745
23.5682 57.2902
23.7505 50.9635
23.9329 46.7296
24.1154 45.701
24.2979 44.9821
24.4805 44.3343
24.6631 44.3743
24.8458 43.646
25.0286 44.1622
25.2114 45.9635
25.3943 46.4515
25.5773 42.507
25.7605 42.0161
25.9436 42.1316
26.1268 43.1141
26.31 41.6961
26.4933 42.0752
26.6767 43.6272
26.8601 41.9134
27.0437 40.3915
27.2272 39.9773
27.4109 39.7714
27.5946 39.7612
27.7784 39.2176
27.9623 39.4253
28.1462 40.2862
28.3304 38.6734
28.5145 37.2541
28.6987 36.7515
28.8829 36.6059
29.0673 35.8677
29.2517 35.5018
29.4361 35.4357
29.6207 34.3963
29.8053 34.0366
29.99 33.6559
30.1748 33.5254
30.3597 33.5169
30.5447 33.1842
30.7297 33.3052
30.915 32.7941
31.1002 32.2474
31.2855 31.9049
31.4708 31.9121
31.6563 31.5146
31.8418 31.1863
32.0275 30.9843
32.2132 30.5212
32.399 29.9864
32.5848 29.4378
32.7708 29.1985
32.9569 28.9931
33.143 28.7122
33.3293 28.4098
33.5158 28.1007
33.7022 27.5515
33.8887 27.2453
34.0753 26.9979
34.262 26.5427
34.4488 26.1969
34.6357 25.8929
34.8227 25.6147
35.0098 25.4661
35.1969 25.0738
35.3842 24.8257
35.5716 24.6649
35.759 24.2717
35.9468 23.9499
36.1345 23.7633
36.3222 23.4989
36.5101 23.2423
36.6981 22.8778
36.8861 22.5536
37.0743 22.2596
37.2626 21.9951
37.451 21.6878
37.6395 21.6203
37.8281 21.2392
38.0168 20.9581
38.2056 20.6836
38.3945 20.3783
38.5837 20.1162
38.7728 19.9567
38.9621 19.6659
39.1514 19.3818
39.3409 19.0918
39.5304 18.8992
39.7201 18.7118
39.9099 18.4693
40.0999 18.2099
40.2899 18.0043
40.48 17.7013
40.6703 17.4793
40.8607 17.3839
41.0512 17.1684
41.242 16.8438
41.4327 16.6464
41.6236 16.4034
41.8146 16.2372
42.0057 15.9678
42.1969 15.7961
42.3882 15.5795
42.5797 15.3721
42.7713 15.1941
42.963 14.9846
43.1549 14.706
43.3468 14.5056
43.5389 14.2986
43.7312 14.1463
43.9237 13.9501
44.1162 13.7262
44.3088 13.5778
44.5016 13.4224
44.6945 13.2014
44.8875 12.9687
45.0806 12.8409
45.2739 12.6893
45.4673 12.515
45.6609 12.2818
45.8546 12.1188
46.0484 11.9105
46.2424 11.7443
46.4365 11.6218
46.631 11.4244
46.8254 11.2773
47.0199 11.0889
47.2146 10.9117
47.4095 10.7825
47.6044 10.5798
47.7996 10.4455
47.9948 10.3063
48.1902 10.1574
48.3858 10.0346
48.5815 9.87454
48.7774 9.78456
48.9734 9.59639
49.1696 9.42839
49.3661 9.27904
49.5626 9.10103
49.7592 9.02615
49.956 8.88775
50.153 8.75781
50.3501 8.58481
50.5474 8.47159
50.7448 8.38106
50.9424 8.21887
51.1402 8.11436
51.3381 7.93994
51.5362 7.81927
51.7344 7.69749
51.9328 7.56551
52.1316 7.41197
52.3304 7.34066
52.5293 7.19933
52.7284 7.07365
52.9276 6.96502
53.1271 6.87379
53.3267 6.70568
53.5265 6.6173
53.7264 6.56064
53.9266 6.37423
54.1269 6.25553
54.3274 6.16149
54.528 6.04178
54.7289 5.83716
54.9301 5.66326
55.1314 5.50541
55.3328 5.29205
55.5344 5.14364
55.7361 5.01869