File: XRD/Ni3Fe_FD0811.xy
TT I
1.27165 7.14786
1.45013 5.63707
1.62863 5.13474
1.80712 4.74893
1.98562 4.71751
2.16411 5.02554
2.34263 4.83205
2.52115 7.09639
2.69965 8.22717
2.87818 8.57564
3.05672 11.3019
3.23527 14.8433
3.4138 18.7751
3.59237 22.9176
3.77094 25.2777
3.9495 29.2581
4.12809 34.0842
4.30669 111.328
4.4853 54.566
4.6639 55.1446
4.84253 67.8266
5.02118 86.6056
5.19981 399.339
5.37848 189.546
5.55716 101.277
5.73586 91.9952
5.91455 95.0373
6.09328 4577.35
6.27201 79.6946
6.45075 68.7972
6.62952 62.8341
6.8083 58.9087
6.98711 55.2896
7.16591 55.1986
7.34475 69.0127
7.5236 53.9762
7.70247 56.2355
7.88135 57.4177
8.06026 62.1399
8.23919 69.1249
8.41812 83.4905
8.59709 1219.38
8.77609 96.8312
8.9551 88.9648
9.13412 81.5096
9.31318 84.2738
9.49226 84.4139
9.67134 95.0498
9.85047 100.612
10.0296 344.925
10.2088 347.175
10.388 104.247
10.5672 537.333
10.7465 85.5641
10.9257 77.2081
11.105 70.698
11.2844 68.3495
11.4637 64.1203
11.6431 63.0676
11.8225 62.2852
12.002 63.8488
12.1814 160.259
12.3609 66.3898
12.5405 63.9323
12.72 67.4296
12.8996 70.8293
13.0792 79.8236
13.2589 249.12
13.4386 117.806
13.6183 258.66
13.7981 92.4888
13.9779 75.1757
14.1577 71.0705
14.3376 69.6765
14.5175 68.2196
14.6974 70.0619
14.8774 111.524
15.0574 139.268
15.2374 69.0732
15.4175 65.5511
15.5976 65.1701
15.7778 95.249
15.958 146.215
16.1382 60.9974
16.3185 57.218
16.4988 54.8172
16.6792 53.9376
16.8596 54.5689
17.04 55.4822
17.2205 66.8969
17.401 68.1817
17.5815 58.7885
17.7622 60.8825
17.9428 73.0703
18.1237 141.663
18.3044 91.1294
18.4852 74.0036
18.666 59.4722
18.8469 57.4303
19.0278 56.1887
19.2088 58.8153
19.3898 75.4421
19.5709 53.4961
19.752 52.8157
19.9332 55.6314
20.1144 69.7015
20.2957 64.1499
20.477 52.3681
20.6586 48.9446
20.84 48.448
21.0215 48.0738
21.203 50.3946
21.3846 48.4444
21.5662 48.3702
21.7479 52.2932
21.9297 64.1067
22.1115 55.7669
22.2933 49.1322
22.4753 48.3037
22.6572 48.6839
22.8393 51.7664
23.0214 56.5744
23.2037 48.2761
23.3859 49.2777
23.5682 57.1397
23.7505 47.2741
23.9329 44.656
24.1154 43.6577
24.2979 42.8958
24.4805 42.4493
24.6631 42.4077
24.8458 41.7904
25.0286 42.5074
25.2114 44.2182
25.3943 44.026
25.5773 40.3168
25.7605 39.8886
25.9436 40.4836
26.1268 41.3178
26.31 39.7461
26.4933 40.3679
26.6767 41.6524
26.8601 39.9493
27.0437 38.5305
27.2272 38.1556
27.4109 37.9744
27.5946 38.06
27.7784 37.5186
27.9623 38.0835
28.1462 38.4452
28.3304 36.7139
28.5145 35.5887
28.6987 35.2705
28.8829 34.9771
29.0673 34.2109
29.2517 33.9107
29.4361 33.6886
29.6207 32.5754
29.8053 32.4787
29.99 32.2304
30.1748 32.0829
30.3597 31.8214
30.5447 31.8027
30.7297 31.9109
30.915 31.2404
31.1002 30.7575
31.2855 30.569
31.4708 30.574
31.6563 30.0308
31.8418 29.8722
32.0275 29.5482
32.2132 29.1022
32.399 28.6245
32.5848 28.2827
32.7708 27.8282
32.9569 27.7296
33.143 27.5256
33.3293 27.1247
33.5158 26.7687
33.7022 26.3194
33.8887 26.0471
34.0753 25.7202
34.262 25.2818
34.4488 24.9868
34.6357 24.7055
34.8227 24.3804
35.0098 24.2609
35.1969 23.9839
35.3842 23.7672
35.5716 23.5729
35.759 23.2565
35.9468 22.8795
36.1345 22.6327
36.3222 22.473
36.5101 22.1718
36.6981 21.8828
36.8861 21.5576
37.0743 21.2054
37.2626 21.0656
37.451 20.7739
37.6395 20.6106
37.8281 20.2623
38.0168 19.9937
38.2056 19.6906
38.3945 19.4818
38.5837 19.2269
38.7728 18.9862
38.9621 18.7556
39.1514 18.5482
39.3409 18.2551
39.5304 18.0306
39.7201 17.8049
39.9099 17.6615
40.0999 17.414
40.2899 17.1014
40.48 16.9112
40.6703 16.769
40.8607 16.5472
41.0512 16.383
41.242 16.1083
41.4327 15.8582
41.6236 15.6444
41.8146 15.5045
42.0057 15.2539
42.1969 15.0752
42.3882 14.9159
42.5797 14.6716
42.7713 14.4714
42.963 14.2854
43.1549 14.047
43.3468 13.8326
43.5389 13.6812
43.7312 13.5024
43.9237 13.2868
44.1162 13.1121
44.3088 12.949
44.5016 12.7848
44.6945 12.5872
44.8875 12.4157
45.0806 12.2414
45.2739 12.1027
45.4673 11.9084
45.6609 11.7052
45.8546 11.5646
46.0484 11.4396
46.2424 11.2108
46.4365 11.0566
46.631 10.8897
46.8254 10.7711
47.0199 10.6151
47.2146 10.4527
47.4095 10.261
47.6044 10.1234
47.7996 9.987
47.9948 9.82524
48.1902 9.6793
48.3858 9.5688
48.5815 9.44404
48.7774 9.28546
48.9734 9.12653
49.1696 8.99169
49.3661 8.86348
49.5626 8.68425
49.7592 8.61462
49.956 8.4471
50.153 8.30917
50.3501 8.19078
50.5474 8.08282
50.7448 7.96297
50.9424 7.84132
51.1402 7.76984
51.3381 7.5846
51.5362 7.47949
51.7344 7.32873
51.9328 7.18581
52.1316 7.07486
52.3304 7.00927
52.5293 6.87017
52.7284 6.79209
52.9276 6.62054
53.1271 6.57491
53.3267 6.45234
53.5265 6.28899
53.7264 6.21185
53.9266 6.12178
54.1269 5.98589
54.3274 5.85273
54.528 5.77821
54.7289 5.55342
54.9301 5.35323
55.1314 5.29113
55.3328 5.12858
55.5344 4.89642
55.7361 4.72617