File: XRD/Ni3Fe_FD0371.xy
TT I
1.27165 7.79297
1.45013 5.80395
1.62863 5.14231
1.80712 4.8071
1.98562 4.68746
2.16411 4.92512
2.34263 4.52015
2.52115 6.28285
2.69965 7.28589
2.87818 8.15173
3.05672 10.9587
3.23527 14.9825
3.4138 18.8959
3.59237 23.8087
3.77094 25.8859
3.9495 30.1261
4.12809 35.105
4.30669 135.282
4.4853 58.0434
4.6639 57.0142
4.84253 69.4042
5.02118 91.302
5.19981 543.698
5.37848 231.533
5.55716 106.75
5.73586 96.4829
5.91455 101.049
6.09328 3988.02
6.27201 85.6513
6.45075 69.3744
6.62952 63.9358
6.8083 60.0912
6.98711 56.9005
7.16591 56.6009
7.34475 75.9936
7.5236 55.8061
7.70247 57.5559
7.88135 59.1675
8.06026 64.2522
8.23919 71.4975
8.41812 88.0331
8.59709 1193.96
8.77609 105.046
8.9551 92.0688
9.13412 84.688
9.31318 85.7884
9.49226 87.0773
9.67134 98.0023
9.85047 103.372
10.0296 429.766
10.2088 512.885
10.388 109.536
10.5672 472.375
10.7465 90.0036
10.9257 80.0859
11.105 73.3798
11.2844 71.1301
11.4637 66.389
11.6431 65.4668
11.8225 64.3045
12.002 65.9782
12.1814 150.214
12.3609 71.0998
12.5405 66.3443
12.72 70.5412
12.8996 73.2862
13.0792 82.6182
13.2589 248.235
13.4386 139.224
13.6183 245.212
13.7981 107.633
13.9779 78.4475
14.1577 74.2166
14.3376 73.0104
14.5175 71.1369
14.6974 72.8294
14.8774 120.422
15.0574 160.521
15.2374 72.1155
15.4175 68.4318
15.5976 67.8738
15.7778 103.378
15.958 166.705
16.1382 63.6966
16.3185 59.9102
16.4988 57.0895
16.6792 56.1732
16.8596 56.675
17.04 57.6801
17.2205 69.2447
17.401 74.5118
17.5815 61.0302
17.7622 63.0103
17.9428 78.6456
18.1237 134.729
18.3044 92.3697
18.4852 81.4527
18.666 62.3233
18.8469 59.7983
19.0278 58.617
19.2088 61.7728
19.3898 75.684
19.5709 56.077
19.752 55.0279
19.9332 58.5565
20.1144 70.5754
20.2957 64.184
20.477 55.8727
20.6586 51.0837
20.84 50.467
21.0215 50.1719
21.203 51.9957
21.3846 50.6963
21.5662 50.5319
21.7479 54.7806
21.9297 65.4023
22.1115 57.0249
22.2933 51.602
22.4753 50.2838
22.6572 50.5933
22.8393 53.7915
23.0214 58.7348
23.2037 50.41
23.3859 51.7928
23.5682 57.2914
23.7505 50.1365
23.9329 46.5244
24.1154 45.3289
24.2979 44.724
24.4805 44.3708
24.6631 44.0306
24.8458 43.4887
25.0286 44.1013
25.2114 45.944
25.3943 45.6798
25.5773 42.0283
25.7605 41.6276
25.9436 42.0752
26.1268 42.8279
26.31 41.3383
26.4933 42.0159
26.6767 43.2932
26.8601 41.6989
27.0437 40.0632
27.2272 39.6281
27.4109 39.5731
27.5946 39.4342
27.7784 39.0755
27.9623 39.5082
28.1462 39.9313
28.3304 38.2911
28.5145 36.9696
28.6987 36.6073
28.8829 36.272
29.0673 35.7535
29.2517 35.3096
29.4361 35.0804
29.6207 34.0347
29.8053 33.7465
29.99 33.5236
30.1748 33.3118
30.3597 33.1095
30.5447 33.0685
30.7297 33.0922
30.915 32.5621
31.1002 32.0751
31.2855 31.6804
31.4708 31.7514
31.6563 31.2561
31.8418 31.0227
32.0275 30.7832
32.2132 30.2611
32.399 29.7549
32.5848 29.2341
32.7708 28.9677
32.9569 28.8853
33.143 28.5687
33.3293 28.1073
33.5158 27.7105
33.7022 27.433
33.8887 26.9963
34.0753 26.7676
34.262 26.3066
34.4488 26.0331
34.6357 25.7357
34.8227 25.4075
35.0098 25.2502
35.1969 24.9617
35.3842 24.6818
35.5716 24.4356
35.759 24.1069
35.9468 23.7284
36.1345 23.5744
36.3222 23.2898
36.5101 23.0093
36.6981 22.7341
36.8861 22.4102
37.0743 22.117
37.2626 21.8152
37.451 21.5247
37.6395 21.3927
37.8281 21.1195
38.0168 20.764
38.2056 20.486
38.3945 20.1936
38.5837 19.9903
38.7728 19.7532
38.9621 19.5216
39.1514 19.2521
39.3409 18.918
39.5304 18.7763
39.7201 18.5454
39.9099 18.3619
40.0999 18.1023
40.2899 17.8994
40.48 17.5892
40.6703 17.3938
40.8607 17.149
41.0512 16.9796
41.242 16.6807
41.4327 16.4848
41.6236 16.2288
41.8146 16.1114
42.0057 15.8869
42.1969 15.5929
42.3882 15.4957
42.5797 15.2108
42.7713 15.0346
42.963 14.8385
43.1549 14.6442
43.3468 14.3922
43.5389 14.1892
43.7312 13.9619
43.9237 13.8621
44.1162 13.6681
44.3088 13.4227
44.5016 13.2232
44.6945 13.0634
44.8875 12.8974
45.0806 12.7063
45.2739 12.5561
45.4673 12.3507
45.6609 12.1497
45.8546 11.9871
46.0484 11.8674
46.2424 11.6467
46.4365 11.5286
46.631 11.3327
46.8254 11.1586
47.0199 11.0149
47.2146 10.8623
47.4095 10.6413
47.6044 10.5286
47.7996 10.3938
47.9948 10.1675
48.1902 10.0497
48.3858 9.9021
48.5815 9.78191
48.7774 9.65037
48.9734 9.50096
49.1696 9.32701
49.3661 9.17202
49.5626 9.05282
49.7592 8.94096
49.956 8.86156
50.153 8.66888
50.3501 8.54212
50.5474 8.40726
50.7448 8.22325
50.9424 8.16866
51.1402 8.007
51.3381 7.87899
51.5362 7.74124
51.7344 7.60955
51.9328 7.48012
52.1316 7.3622
52.3304 7.25084
52.5293 7.10217
52.7284 6.98085
52.9276 6.91197
53.1271 6.7833
53.3267 6.63426
53.5265 6.53998
53.7264 6.42773
53.9266 6.27856
54.1269 6.20162
54.3274 6.1153
54.528 5.9534
54.7289 5.7701
54.9301 5.60831
55.1314 5.46323
55.3328 5.29973
55.5344 5.11428
55.7361 4.94036