File: XRD/Ni3Fe_FD0400.xy
TT I
1.27165 7.44498
1.45013 5.54775
1.62863 5.7868
1.80712 5.04661
1.98562 4.77301
2.16411 4.6832
2.34263 4.98046
2.52115 6.06777
2.69965 7.02846
2.87818 8.44822
3.05672 10.8307
3.23527 14.7846
3.4138 19.1328
3.59237 24.758
3.77094 26.801
3.9495 30.1391
4.12809 35.4121
4.30669 249.672
4.4853 69.6124
4.6639 56.4808
4.84253 68.4494
5.02118 88.8083
5.19981 435.455
5.37848 224.415
5.55716 105.097
5.73586 94.5269
5.91455 98.201
6.09328 3937.31
6.27201 86.707
6.45075 69.1588
6.62952 64.4556
6.8083 60.6243
6.98711 57.4083
7.16591 57.3111
7.34475 100.467
7.5236 56.028
7.70247 57.3763
7.88135 58.6895
8.06026 63.6595
8.23919 71.1715
8.41812 88.0922
8.59709 1102.88
8.77609 104.845
8.9551 94.4579
9.13412 83.6862
9.31318 84.8853
9.49226 86.267
9.67134 102.086
9.85047 102.122
10.0296 367.808
10.2088 506.822
10.388 108.259
10.5672 479.326
10.7465 89.1838
10.9257 80.7175
11.105 73.571
11.2844 72.6865
11.4637 66.466
11.6431 65.2572
11.8225 63.7902
12.002 65.1088
12.1814 146.728
12.3609 74.1288
12.5405 65.9311
12.72 72.3039
12.8996 72.4801
13.0792 80.7712
13.2589 229.096
13.4386 138.469
13.6183 232.478
13.7981 106.714
13.9779 77.7307
14.1577 74.3648
14.3376 73.5938
14.5175 70.2565
14.6974 71.919
14.8774 111.675
15.0574 165.552
15.2374 73.4452
15.4175 67.89
15.5976 67.415
15.7778 96.3646
15.958 172.187
16.1382 64.6897
16.3185 60.3813
16.4988 56.6755
16.6792 55.822
16.8596 56.5966
17.04 57.0852
17.2205 67.4079
17.401 74.6985
17.5815 60.6804
17.7622 62.7285
17.9428 75.7076
18.1237 137.457
18.3044 90.1268
18.4852 82.6343
18.666 62.1005
18.8469 59.3409
19.0278 58.311
19.2088 61.2502
19.3898 77.5598
19.5709 55.7775
19.752 54.6355
19.9332 57.8563
20.1144 70.5843
20.2957 63.9527
20.477 55.9949
20.6586 51.0568
20.84 50.0338
21.0215 49.9235
21.203 51.8143
21.3846 50.2794
21.5662 50.1246
21.7479 53.6414
21.9297 65.6872
22.1115 57.0981
22.2933 51.3998
22.4753 50.0619
22.6572 50.045
22.8393 52.8476
23.0214 58.8055
23.2037 50.0334
23.3859 50.9534
23.5682 57.2935
23.7505 49.9586
23.9329 46.5034
24.1154 45.189
24.2979 44.6765
24.4805 43.8755
24.6631 43.7836
24.8458 43.4506
25.0286 43.7068
25.2114 45.6599
25.3943 45.7495
25.5773 42.0349
25.7605 41.4419
25.9436 41.8186
26.1268 42.6676
26.31 41.231
26.4933 41.7597
26.6767 43.1499
26.8601 41.4555
27.0437 39.9587
27.2272 39.5088
27.4109 39.292
27.5946 39.291
27.7784 38.7965
27.9623 39.1132
28.1462 39.884
28.3304 38.2686
28.5145 36.8416
28.6987 36.5844
28.8829 36.2765
29.0673 35.5966
29.2517 35.3099
29.4361 35.0048
29.6207 34.0345
29.8053 33.8095
29.99 33.3893
30.1748 33.3075
30.3597 32.9704
30.5447 32.8264
30.7297 32.9211
30.915 32.4493
31.1002 31.9842
31.2855 31.5847
31.4708 31.5094
31.6563 31.1255
31.8418 30.8945
32.0275 30.6488
32.2132 30.1713
32.399 29.6011
32.5848 29.1395
32.7708 28.8324
32.9569 28.6386
33.143 28.4313
33.3293 28.0353
33.5158 27.667
33.7022 27.2678
33.8887 26.9257
34.0753 26.6606
34.262 26.3205
34.4488 25.9015
34.6357 25.5502
34.8227 25.3281
35.0098 25.1537
35.1969 24.8137
35.3842 24.6286
35.5716 24.4144
35.759 24.0143
35.9468 23.6883
36.1345 23.4751
36.3222 23.1981
36.5101 22.9758
36.6981 22.7114
36.8861 22.3661
37.0743 22.0692
37.2626 21.8205
37.451 21.5541
37.6395 21.3666
37.8281 20.9568
38.0168 20.7237
38.2056 20.4517
38.3945 20.158
38.5837 19.8877
38.7728 19.6894
38.9621 19.4098
39.1514 19.1281
39.3409 18.8797
39.5304 18.6507
39.7201 18.5349
39.9099 18.2831
40.0999 18.047
40.2899 17.7432
40.48 17.6021
40.6703 17.3642
40.8607 17.1611
41.0512 16.9667
41.242 16.6297
41.4327 16.473
41.6236 16.241
41.8146 16.0282
42.0057 15.8009
42.1969 15.5644
42.3882 15.429
42.5797 15.2068
42.7713 15.0132
42.963 14.7599
43.1549 14.5359
43.3468 14.3669
43.5389 14.1679
43.7312 13.9647
43.9237 13.7625
44.1162 13.6047
44.3088 13.3618
44.5016 13.22
44.6945 13.027
44.8875 12.8487
45.0806 12.6631
45.2739 12.4847
45.4673 12.3038
45.6609 12.1154
45.8546 11.9777
46.0484 11.8117
46.2424 11.6352
46.4365 11.488
46.631 11.2978
46.8254 11.1007
47.0199 10.9288
47.2146 10.8256
47.4095 10.6493
47.6044 10.4957
47.7996 10.2946
47.9948 10.179
48.1902 10.0715
48.3858 9.93646
48.5815 9.77066
48.7774 9.62012
48.9734 9.47599
49.1696 9.33586
49.3661 9.18278
49.5626 9.03804
49.7592 8.91376
49.956 8.80357
50.153 8.65134
50.3501 8.54662
50.5474 8.36765
50.7448 8.25527
50.9424 8.12509
51.1402 7.99532
51.3381 7.87437
51.5362 7.72764
51.7344 7.56911
51.9328 7.48947
52.1316 7.3169
52.3304 7.22348
52.5293 7.09163
52.7284 7.02494
52.9276 6.8803
53.1271 6.79753
53.3267 6.67532
53.5265 6.5529
53.7264 6.43329
53.9266 6.31011
54.1269 6.2158
54.3274 6.09519
54.528 5.96923
54.7289 5.7869
54.9301 5.58772
55.1314 5.45548
55.3328 5.25384
55.5344 5.11102
55.7361 4.92822