File: XRD/Ni3Fe_FD0628.xy
TT I
1.27165 7.04401
1.45013 6.2148
1.62863 5.2354
1.80712 5.01069
1.98562 4.56769
2.16411 4.6452
2.34263 5.17312
2.52115 6.34644
2.69965 8.66702
2.87818 8.28595
3.05672 11.3281
3.23527 15.2701
3.4138 18.6229
3.59237 24.6233
3.77094 26.3863
3.9495 29.6914
4.12809 34.8797
4.30669 231.526
4.4853 67.4419
4.6639 55.3953
4.84253 67.5269
5.02118 86.4155
5.19981 343.651
5.37848 194.887
5.55716 102.384
5.73586 92.5323
5.91455 94.236
6.09328 4335.09
6.27201 84.1929
6.45075 67.7405
6.62952 62.9983
6.8083 58.8953
6.98711 55.8563
7.16591 55.5886
7.34475 96.2931
7.5236 55.0526
7.70247 56.3143
7.88135 57.9467
8.06026 62.4102
8.23919 69.8085
8.41812 85.2854
8.59709 1137.9
8.77609 100.163
8.9551 92.6297
9.13412 82.217
9.31318 82.4968
9.49226 84.9198
9.67134 99.7548
9.85047 100.017
10.0296 329.646
10.2088 428.414
10.388 105.179
10.5672 502.89
10.7465 87.027
10.9257 79.1093
11.105 71.8743
11.2844 70.9111
11.4637 65.3708
11.6431 63.876
11.8225 62.9239
12.002 63.6527
12.1814 151.006
12.3609 71.4745
12.5405 64.7305
12.72 70.3204
12.8996 71.1284
13.0792 78.8117
13.2589 232.442
13.4386 128.435
13.6183 243.726
13.7981 100.879
13.9779 76.2145
14.1577 73.055
14.3376 72.095
14.5175 69.0929
14.6974 70.7689
14.8774 109.035
15.0574 151.28
15.2374 71.7138
15.4175 66.4824
15.5976 65.9539
15.7778 94.1535
15.958 157.911
16.1382 63.394
16.3185 59.1556
16.4988 56.0123
16.6792 54.8278
16.8596 55.5473
17.04 56.0226
17.2205 66.4739
17.401 72.5096
17.5815 59.6686
17.7622 61.3997
17.9428 73.5182
18.1237 138.994
18.3044 90.7362
18.4852 78.9865
18.666 60.603
18.8469 58.2707
19.0278 57.1064
19.2088 59.794
19.3898 77.0524
19.5709 54.4431
19.752 53.5499
19.9332 56.3516
20.1144 69.641
20.2957 64.0476
20.477 54.1141
20.6586 49.9219
20.84 49.1995
21.0215 48.6696
21.203 50.954
21.3846 49.3557
21.5662 48.8022
21.7479 52.6863
21.9297 64.651
22.1115 56.396
22.2933 50.1315
22.4753 49.0262
22.6572 48.8589
22.8393 51.991
23.0214 57.9147
23.2037 48.9627
23.3859 49.9913
23.5682 57.0646
23.7505 48.5618
23.9329 45.426
24.1154 44.3453
24.2979 43.7182
24.4805 43.2034
24.6631 43.0474
24.8458 42.332
25.0286 42.9524
25.2114 44.7875
25.3943 44.8031
25.5773 41.1282
25.7605 40.6282
25.9436 41.04
26.1268 41.8969
26.31 40.2648
26.4933 40.851
26.6767 42.3101
26.8601 40.6675
27.0437 39.0479
27.2272 38.7543
27.4109 38.7097
27.5946 38.5649
27.7784 37.9815
27.9623 38.6941
28.1462 39.0111
28.3304 37.4641
28.5145 36.17
28.6987 35.7442
28.8829 35.4959
29.0673 34.8781
29.2517 34.4673
29.4361 34.3813
29.6207 33.287
29.8053 33.066
29.99 32.6771
30.1748 32.5482
30.3597 32.4573
30.5447 32.297
30.7297 32.3156
30.915 31.8256
31.1002 31.1961
31.2855 31.0172
31.4708 31.0038
31.6563 30.5373
31.8418 30.2469
32.0275 30.0303
32.2132 29.5116
32.399 29.0945
32.5848 28.5168
32.7708 28.2694
32.9569 28.1532
33.143 27.9751
33.3293 27.4845
33.5158 27.1623
33.7022 26.7223
33.8887 26.4949
34.0753 26.1509
34.262 25.835
34.4488 25.4037
34.6357 25.0978
34.8227 24.8188
35.0098 24.5769
35.1969 24.2851
35.3842 24.0068
35.5716 23.9211
35.759 23.5554
35.9468 23.2424
36.1345 22.9697
36.3222 22.7926
36.5101 22.5411
36.6981 22.2179
36.8861 21.924
37.0743 21.6343
37.2626 21.4091
37.451 21.1337
37.6395 20.9832
37.8281 20.5808
38.0168 20.2866
38.2056 20.0772
38.3945 19.8155
38.5837 19.5426
38.7728 19.3196
38.9621 19.0403
39.1514 18.7848
39.3409 18.5513
39.5304 18.3611
39.7201 18.1166
39.9099 17.972
40.0999 17.653
40.2899 17.4339
40.48 17.2318
40.6703 17.0129
40.8607 16.8274
41.0512 16.5453
41.242 16.37
41.4327 16.1982
41.6236 15.9293
41.8146 15.7491
42.0057 15.4979
42.1969 15.294
42.3882 15.1704
42.5797 14.9496
42.7713 14.7037
42.963 14.5023
43.1549 14.3342
43.3468 14.1042
43.5389 13.8832
43.7312 13.723
43.9237 13.4981
44.1162 13.3458
44.3088 13.1511
44.5016 12.9391
44.6945 12.8058
44.8875 12.6263
45.0806 12.4024
45.2739 12.2531
45.4673 12.0935
45.6609 11.9364
45.8546 11.7699
46.0484 11.5843
46.2424 11.4485
46.4365 11.2916
46.631 11.1074
46.8254 10.9178
47.0199 10.7802
47.2146 10.628
47.4095 10.4436
47.6044 10.3286
47.7996 10.1249
47.9948 9.99441
48.1902 9.85691
48.3858 9.73695
48.5815 9.5711
48.7774 9.44355
48.9734 9.26896
49.1696 9.18284
49.3661 8.98734
49.5626 8.89312
49.7592 8.72804
49.956 8.56314
50.153 8.4764
50.3501 8.33249
50.5474 8.23574
50.7448 8.0938
50.9424 7.99372
51.1402 7.86076
51.3381 7.72648
51.5362 7.58403
51.7344 7.47564
51.9328 7.31382
52.1316 7.16373
52.3304 7.13664
52.5293 6.99499
52.7284 6.88983
52.9276 6.75544
53.1271 6.64955
53.3267 6.5627
53.5265 6.40543
53.7264 6.31442
53.9266 6.20362
54.1269 6.12132
54.3274 5.98535
54.528 5.86993
54.7289 5.69746
54.9301 5.53941
55.1314 5.38122
55.3328 5.1338
55.5344 4.98184
55.7361 4.86544