File: XRD/Ni3Fe_FD0218.xy
TT I
1.27165 7.53797
1.45013 6.62149
1.62863 5.88546
1.80712 5.46428
1.98562 5.28244
2.16411 4.60597
2.34263 4.44806
2.52115 4.51399
2.69965 6.07645
2.87818 7.46554
3.05672 11.0516
3.23527 15.1812
3.4138 18.8978
3.59237 22.5234
3.77094 26.0495
3.9495 29.9714
4.12809 34.5713
4.30669 40.335
4.4853 48.5769
4.6639 58.375
4.84253 71.5403
5.02118 97.0518
5.19981 892.449
5.37848 282.812
5.55716 112.477
5.73586 101.309
5.91455 111.21
6.09328 3581.73
6.27201 89.8923
6.45075 71.0646
6.62952 64.0517
6.8083 59.8401
6.98711 57.5186
7.16591 56.6161
7.34475 55.921
7.5236 56.3968
7.70247 58.255
7.88135 60.3995
8.06026 65.2947
8.23919 73.3467
8.41812 91.094
8.59709 1053.65
8.77609 111.674
8.9551 91.0027
9.13412 86.8176
9.31318 88.0544
9.49226 89.6614
9.67134 95.6082
9.85047 106.992
10.0296 522.849
10.2088 576.528
10.388 114.623
10.5672 432.241
10.7465 92.7588
10.9257 80.7527
11.105 74.9409
11.2844 70.8058
11.4637 67.808
11.6431 66.7812
11.8225 65.4888
12.002 68.5736
12.1814 139.662
12.3609 70.2003
12.5405 67.4806
12.72 69.9982
12.8996 74.7629
13.0792 86.38
13.2589 226.776
13.4386 151.071
13.6183 223.468
13.7981 112.521
13.9779 80.1938
14.1577 75.5942
14.3376 73.2756
14.5175 72.6985
14.6974 74.492
14.8774 119.283
15.0574 174.46
15.2374 72.493
15.4175 70.044
15.5976 69.9863
15.7778 103.511
15.958 178.971
16.1382 64.0118
16.3185 60.2815
16.4988 58.0774
16.6792 57.1432
16.8596 57.5977
17.04 59.4901
17.2205 68.7885
17.401 77.8824
17.5815 62.2586
17.7622 64.651
17.9428 82.9835
18.1237 138.635
18.3044 90.161
18.4852 84.8382
18.666 63.3053
18.8469 61.0108
19.0278 59.6662
19.2088 63.2439
19.3898 76.2744
19.5709 57.0433
19.752 56.257
19.9332 59.5397
20.1144 72.4878
20.2957 64.3327
20.477 57.1645
20.6586 52.2936
20.84 51.4424
21.0215 51.3918
21.203 52.6937
21.3846 51.6075
21.5662 51.9359
21.7479 55.591
21.9297 66.6952
22.1115 57.6905
22.2933 52.7029
22.4753 51.0619
22.6572 52.0901
22.8393 54.1274
23.0214 60.1104
23.2037 51.6013
23.3859 52.6778
23.5682 57.5425
23.7505 51.5459
23.9329 47.5754
24.1154 46.3536
24.2979 45.4987
24.4805 45.0242
24.6631 44.9381
24.8458 44.3797
25.0286 45.2253
25.2114 46.5741
25.3943 46.6419
25.5773 43.1125
25.7605 42.5436
25.9436 42.7557
26.1268 43.5244
26.31 42.3523
26.4933 42.7577
26.6767 43.8867
26.8601 42.5008
27.0437 40.9267
27.2272 40.3512
27.4109 40.3057
27.5946 40.4177
27.7784 39.7713
27.9623 40.003
28.1462 40.6364
28.3304 39.0717
28.5145 37.6412
28.6987 37.2229
28.8829 37.038
29.0673 36.3958
29.2517 36.0006
29.4361 35.7052
29.6207 34.6951
29.8053 34.5016
29.99 34.2809
30.1748 34.0242
30.3597 33.7917
30.5447 33.6884
30.7297 33.6989
30.915 33.2332
31.1002 32.6974
31.2855 32.4923
31.4708 32.3899
31.6563 31.9038
31.8418 31.5526
32.0275 31.3621
32.2132 30.8052
32.399 30.2816
32.5848 29.7194
32.7708 29.4896
32.9569 29.3365
33.143 29.1947
33.3293 28.7091
33.5158 28.2828
33.7022 27.9759
33.8887 27.6194
34.0753 27.2332
34.262 26.873
34.4488 26.5284
34.6357 26.16
34.8227 25.8006
35.0098 25.6654
35.1969 25.3223
35.3842 25.1452
35.5716 24.8932
35.759 24.5956
35.9468 24.1659
36.1345 23.8956
36.3222 23.7624
36.5101 23.5063
36.6981 23.1315
36.8861 22.8248
37.0743 22.5012
37.2626 22.3245
37.451 21.9922
37.6395 21.755
37.8281 21.5176
38.0168 21.2168
38.2056 20.8518
38.3945 20.6177
38.5837 20.2564
38.7728 20.1214
38.9621 19.8626
39.1514 19.5414
39.3409 19.3559
39.5304 19.0835
39.7201 18.8762
39.9099 18.6844
40.0999 18.3821
40.2899 18.1808
40.48 17.8909
40.6703 17.7814
40.8607 17.5337
41.0512 17.2688
41.242 17.066
41.4327 16.7804
41.6236 16.5602
41.8146 16.4061
42.0057 16.1466
42.1969 15.9345
42.3882 15.7412
42.5797 15.5159
42.7713 15.2972
42.963 15.076
43.1549 14.893
43.3468 14.6324
43.5389 14.4568
43.7312 14.2492
43.9237 14.0867
44.1162 13.8813
44.3088 13.7109
44.5016 13.5065
44.6945 13.322
44.8875 13.1355
45.0806 12.9086
45.2739 12.786
45.4673 12.6054
45.6609 12.4129
45.8546 12.2468
46.0484 12.0356
46.2424 11.8811
46.4365 11.7267
46.631 11.517
46.8254 11.3713
47.0199 11.178
47.2146 11.0536
47.4095 10.846
47.6044 10.6982
47.7996 10.5323
47.9948 10.4147
48.1902 10.2139
48.3858 10.0674
48.5815 9.96588
48.7774 9.81395
48.9734 9.66046
49.1696 9.54403
49.3661 9.38719
49.5626 9.19866
49.7592 9.09632
49.956 8.99044
50.153 8.79469
50.3501 8.68836
50.5474 8.54798
50.7448 8.40932
50.9424 8.27975
51.1402 8.13565
51.3381 8.00778
51.5362 7.8855
51.7344 7.76488
51.9328 7.64125
52.1316 7.5106
52.3304 7.39263
52.5293 7.24554
52.7284 7.14539
52.9276 7.01117
53.1271 6.93533
53.3267 6.77997
53.5265 6.6219
53.7264 6.52319
53.9266 6.4228
54.1269 6.31089
54.3274 6.1562
54.528 6.01674
54.7289 5.82338
54.9301 5.65862
55.1314 5.54197
55.3328 5.27155
55.5344 5.12547
55.7361 4.96663