File: XRD/Ni3Fe_FD0938.xy
TT I
1.27165 6.62148
1.45013 5.82458
1.62863 4.71514
1.80712 5.13276
1.98562 4.44072
2.16411 4.58218
2.34263 6.00235
2.52115 7.23777
2.69965 8.10694
2.87818 8.8596
3.05672 10.8266
3.23527 15.5286
3.4138 18.6941
3.59237 22.8032
3.77094 25.5744
3.9495 29.1951
4.12809 33.9403
4.30669 88.3612
4.4853 52.0395
4.6639 54.8398
4.84253 67.8666
5.02118 86.0648
5.19981 373.024
5.37848 196.593
5.55716 101.284
5.73586 92.1352
5.91455 94.0781
6.09328 4695.51
6.27201 78.4047
6.45075 69.833
6.62952 62.2319
6.8083 59.5272
6.98711 54.9521
7.16591 56.0204
7.34475 63.9245
7.5236 53.57
7.70247 56.7232
7.88135 56.8048
8.06026 62.1286
8.23919 68.6097
8.41812 82.057
8.59709 1209.51
8.77609 95.3758
8.9551 88.8233
9.13412 82.2341
9.31318 84.7552
9.49226 83.7633
9.67134 94.3892
9.85047 101.056
10.0296 331.264
10.2088 321.781
10.388 103.501
10.5672 552.375
10.7465 84.9442
10.9257 76.9639
11.105 70.5256
11.2844 67.0132
11.4637 63.7957
11.6431 62.4097
11.8225 61.8655
12.002 63.5521
12.1814 159.645
12.3609 65.4456
12.5405 64.3236
12.72 66.6843
12.8996 70.733
13.0792 79.7594
13.2589 247.392
13.4386 114.094
13.6183 259.679
13.7981 91.67
13.9779 74.4509
14.1577 70.5917
14.3376 69.1724
14.5175 67.9396
14.6974 69.5473
14.8774 110.936
15.0574 135.094
15.2374 68.3177
15.4175 65.3943
15.5976 64.9355
15.7778 93.9484
15.958 144.058
16.1382 60.0715
16.3185 56.7839
16.4988 54.4132
16.6792 53.3833
16.8596 53.8618
17.04 55.1318
17.2205 66.1245
17.401 67.4765
17.5815 58.1338
17.7622 60.2871
17.9428 72.4739
18.1237 140.602
18.3044 90.9515
18.4852 72.5109
18.666 59.2852
18.8469 57.0722
19.0278 55.6502
19.2088 58.2248
19.3898 74.7554
19.5709 53.3159
19.752 52.5191
19.9332 55.2523
20.1144 69.4218
20.2957 64.254
20.477 51.6661
20.6586 48.6473
20.84 47.9522
21.0215 47.8148
21.203 50.483
21.3846 47.8826
21.5662 48.0871
21.7479 51.9611
21.9297 64.1238
22.1115 55.3969
22.2933 48.654
22.4753 47.7987
22.6572 48.219
22.8393 51.2859
23.0214 56.0373
23.2037 47.8861
23.3859 48.869
23.5682 56.9623
23.7505 46.8571
23.9329 44.4103
24.1154 43.3488
24.2979 42.6537
24.4805 42.262
24.6631 42.0976
24.8458 41.5572
25.0286 42.0025
25.2114 43.9484
25.3943 43.6811
25.5773 40.0391
25.7605 39.6311
25.9436 40.1601
26.1268 41.0275
26.31 39.3268
26.4933 40.0667
26.6767 41.5159
26.8601 39.8044
27.0437 38.2545
27.2272 37.8003
27.4109 37.8054
27.5946 37.8099
27.7784 37.2584
27.9623 37.8451
28.1462 38.1568
28.3304 36.4835
28.5145 35.3738
28.6987 35.0908
28.8829 34.9065
29.0673 34.0658
29.2517 33.7596
29.4361 33.6669
29.6207 32.5442
29.8053 32.2914
29.99 31.9872
30.1748 31.8328
30.3597 31.7773
30.5447 31.6074
30.7297 31.7368
30.915 31.0572
31.1002 30.6527
31.2855 30.3476
31.4708 30.3751
31.6563 29.7626
31.8418 29.6046
32.0275 29.361
32.2132 28.8508
32.399 28.4523
32.5848 28.0071
32.7708 27.7028
32.9569 27.5899
33.143 27.362
33.3293 26.8567
33.5158 26.6248
33.7022 26.1955
33.8887 25.9324
34.0753 25.4649
34.262 25.2438
34.4488 24.8671
34.6357 24.5646
34.8227 24.3415
35.0098 24.0737
35.1969 23.7082
35.3842 23.6447
35.5716 23.3151
35.759 23.0425
35.9468 22.7692
36.1345 22.5063
36.3222 22.2765
36.5101 22.0574
36.6981 21.7787
36.8861 21.481
37.0743 21.1692
37.2626 20.8722
37.451 20.6389
37.6395 20.4655
37.8281 20.155
38.0168 19.8995
38.2056 19.5794
38.3945 19.4006
38.5837 19.0873
38.7728 18.9271
38.9621 18.6118
39.1514 18.3872
39.3409 18.1499
39.5304 17.9284
39.7201 17.711
39.9099 17.5032
40.0999 17.3066
40.2899 17.0374
40.48 16.7612
40.6703 16.7069
40.8607 16.3854
41.0512 16.173
41.242 15.9768
41.4327 15.7882
41.6236 15.5485
41.8146 15.406
42.0057 15.1984
42.1969 14.9883
42.3882 14.8331
42.5797 14.5932
42.7713 14.3739
42.963 14.1825
43.1549 14.0119
43.3468 13.7951
43.5389 13.5829
43.7312 13.398
43.9237 13.2064
44.1162 13.0063
44.3088 12.8269
44.5016 12.6991
44.6945 12.4791
44.8875 12.3246
45.0806 12.1193
45.2739 12.0014
45.4673 11.8201
45.6609 11.6355
45.8546 11.5093
46.0484 11.3105
46.2424 11.1665
46.4365 10.9801
46.631 10.7703
46.8254 10.7123
47.0199 10.5245
47.2146 10.3574
47.4095 10.1679
47.6044 10.052
47.7996 9.91593
47.9948 9.75264
48.1902 9.61888
48.3858 9.50712
48.5815 9.32383
48.7774 9.21485
48.9734 9.08398
49.1696 8.9293
49.3661 8.76346
49.5626 8.6731
49.7592 8.51486
49.956 8.40118
50.153 8.28595
50.3501 8.12689
50.5474 8.04611
50.7448 7.91705
50.9424 7.77029
51.1402 7.67538
51.3381 7.53921
51.5362 7.40856
51.7344 7.28885
51.9328 7.17052
52.1316 7.04107
52.3304 6.95996
52.5293 6.8358
52.7284 6.73379
52.9276 6.63399
53.1271 6.53349
53.3267 6.38022
53.5265 6.22792
53.7264 6.19102
53.9266 6.07033
54.1269 5.96237
54.3274 5.84251
54.528 5.6713
54.7289 5.54549
54.9301 5.4009
55.1314 5.29019
55.3328 5.03909
55.5344 4.83904
55.7361 4.76969