File: XRD/Ni3Fe_FD0475.xy
TT I
1.27165 7.33152
1.45013 6.35416
1.62863 5.30679
1.80712 4.9294
1.98562 4.75073
2.16411 4.45244
2.34263 4.97875
2.52115 6.33034
2.69965 7.99011
2.87818 8.56244
3.05672 11.0172
3.23527 14.9369
3.4138 18.8194
3.59237 23.6131
3.77094 25.8489
3.9495 29.8578
4.12809 34.3334
4.30669 115.014
4.4853 55.5917
4.6639 56.6077
4.84253 69.2855
5.02118 90.3439
5.19981 541.963
5.37848 204.973
5.55716 105.065
5.73586 95.5281
5.91455 99.2623
6.09328 4271.51
6.27201 83.5763
6.45075 69.5986
6.62952 62.9887
6.8083 59.5894
6.98711 56.2501
7.16591 56.0732
7.34475 70.451
7.5236 55.0899
7.70247 56.9768
7.88135 58.6189
8.06026 63.2226
8.23919 70.7004
8.41812 86.9777
8.59709 1246.32
8.77609 101.269
8.9551 90.6345
9.13412 83.5512
9.31318 85.6965
9.49226 86.3626
9.67134 96.3346
9.85047 102.737
10.0296 413.782
10.2088 394.293
10.388 109.015
10.5672 502.826
10.7465 88.165
10.9257 79.0114
11.105 72.6701
11.2844 69.7732
11.4637 65.8801
11.6431 64.6725
11.8225 63.5769
12.002 65.8006
12.1814 156.858
12.3609 68.5758
12.5405 65.5246
12.72 69.4154
12.8996 72.5841
13.0792 82.423
13.2589 252.834
13.4386 124.772
13.6183 255.219
13.7981 97.5246
13.9779 77.417
14.1577 73.5533
14.3376 71.6795
14.5175 70.4147
14.6974 72.1234
14.8774 119.014
15.0574 146.476
15.2374 71.1195
15.4175 67.5597
15.5976 67.378
15.7778 101.632
15.958 153.46
16.1382 62.6341
16.3185 58.8345
16.4988 56.4383
16.6792 55.4412
16.8596 55.9038
17.04 57.225
17.2205 68.8031
17.401 71.493
17.5815 60.3387
17.7622 62.3715
17.9428 77.1113
18.1237 139.997
18.3044 92.3804
18.4852 78.1301
18.666 61.4531
18.8469 58.9741
19.0278 57.8683
19.2088 61.1237
19.3898 76.5978
19.5709 54.8491
19.752 54.347
19.9332 57.6836
20.1144 70.5662
20.2957 64.3682
20.477 53.9422
20.6586 50.555
20.84 49.565
21.0215 49.4184
21.203 51.6262
21.3846 49.7491
21.5662 50.1014
21.7479 54.0855
21.9297 65.3229
22.1115 56.4903
22.2933 50.5796
22.4753 49.5789
22.6572 49.8863
22.8393 53.0102
23.0214 57.9418
23.2037 49.6532
23.3859 50.7972
23.5682 57.2576
23.7505 48.8901
23.9329 45.7962
24.1154 44.7253
24.2979 43.854
24.4805 43.6576
24.6631 43.4133
24.8458 42.9842
25.0286 43.6008
25.2114 45.3927
25.3943 45.1119
25.5773 41.4504
25.7605 41.1333
25.9436 41.4939
26.1268 42.3316
26.31 40.8673
26.4933 41.399
26.6767 42.6881
26.8601 41.0435
27.0437 39.5165
27.2272 39.2
27.4109 39.0118
27.5946 39.1007
27.7784 38.6474
27.9623 39.0522
28.1462 39.3512
28.3304 37.7405
28.5145 36.3869
28.6987 36.2027
28.8829 35.9078
29.0673 35.1566
29.2517 34.8865
29.4361 34.6657
29.6207 33.6659
29.8053 33.3698
29.99 33.0226
30.1748 32.9126
30.3597 32.7377
30.5447 32.6695
30.7297 32.7772
30.915 32.0331
31.1002 31.6045
31.2855 31.3401
31.4708 31.2525
31.6563 30.7881
31.8418 30.5538
32.0275 30.2609
32.2132 29.8789
32.399 29.3695
32.5848 28.9484
32.7708 28.5944
32.9569 28.4117
33.143 28.2096
33.3293 27.8445
33.5158 27.4057
33.7022 26.9999
33.8887 26.7173
34.0753 26.2598
34.262 26.0187
34.4488 25.7402
34.6357 25.3785
34.8227 25.1034
35.0098 24.8322
35.1969 24.5391
35.3842 24.3318
35.5716 24.0886
35.759 23.8267
35.9468 23.4836
36.1345 23.2729
36.3222 22.9815
36.5101 22.7236
36.6981 22.4465
36.8861 22.0895
37.0743 21.8264
37.2626 21.5495
37.451 21.2872
37.6395 21.1437
37.8281 20.8176
38.0168 20.5285
38.2056 20.198
38.3945 19.9554
38.5837 19.6743
38.7728 19.4913
38.9621 19.2399
39.1514 18.9545
39.3409 18.6905
39.5304 18.4898
39.7201 18.2809
39.9099 18.0854
40.0999 17.8331
40.2899 17.6106
40.48 17.3965
40.6703 17.1478
40.8607 16.9364
41.0512 16.7164
41.242 16.4527
41.4327 16.3047
41.6236 16.0565
41.8146 15.8611
42.0057 15.6337
42.1969 15.4134
42.3882 15.2415
42.5797 15.0456
42.7713 14.8806
42.963 14.6631
43.1549 14.4071
43.3468 14.1632
43.5389 13.9796
43.7312 13.8259
43.9237 13.6618
44.1162 13.4449
44.3088 13.2201
44.5016 13.0746
44.6945 12.9256
44.8875 12.7062
45.0806 12.5449
45.2739 12.3816
45.4673 12.2039
45.6609 11.9673
45.8546 11.839
46.0484 11.7024
46.2424 11.5108
46.4365 11.3414
46.631 11.14
46.8254 10.9779
47.0199 10.846
47.2146 10.6975
47.4095 10.5137
47.6044 10.379
47.7996 10.2259
47.9948 10.0673
48.1902 9.93657
48.3858 9.76894
48.5815 9.67081
48.7774 9.53228
48.9734 9.35307
49.1696 9.2129
49.3661 9.08439
49.5626 8.91266
49.7592 8.80518
49.956 8.66893
50.153 8.55156
50.3501 8.41879
50.5474 8.34808
50.7448 8.1203
50.9424 8.0648
51.1402 7.91189
51.3381 7.76349
51.5362 7.62684
51.7344 7.50069
51.9328 7.38991
52.1316 7.27828
52.3304 7.11853
52.5293 7.07022
52.7284 6.9283
52.9276 6.81136
53.1271 6.70831
53.3267 6.59744
53.5265 6.47141
53.7264 6.33553
53.9266 6.22661
54.1269 6.12834
54.3274 6.05872
54.528 5.87626
54.7289 5.68287
54.9301 5.58574
55.1314 5.40015
55.3328 5.19577
55.5344 5.04978
55.7361 4.91382