File: XRD/Ni3Fe_FD1052.xy
TT I
1.27165 7.08817
1.45013 6.21974
1.62863 4.83626
1.80712 4.65567
1.98562 4.20929
2.16411 3.75856
2.34263 5.14231
2.52115 7.25487
2.69965 8.3879
2.87818 9.0626
3.05672 11.2718
3.23527 14.4558
3.4138 18.3108
3.59237 20.9802
3.77094 24.3846
3.9495 28.1837
4.12809 32.717
4.30669 56.6944
4.4853 46.3464
4.6639 52.5952
4.84253 64.2146
5.02118 82.6621
5.19981 233.194
5.37848 211.477
5.55716 97.4341
5.73586 87.4421
5.91455 88.9303
6.09328 4566.78
6.27201 76.0629
6.45075 63.1708
6.62952 58.1415
6.8083 54.4737
6.98711 52.5552
7.16591 51.9674
7.34475 55.5334
7.5236 59.1584
7.70247 53.2467
7.88135 54.8086
8.06026 59.1905
8.23919 65.5607
8.41812 77.9629
8.59709 1092.04
8.77609 94.8402
8.9551 82.2106
9.13412 78.9845
9.31318 89.33
9.49226 81.18
9.67134 86.3579
9.85047 93.4508
10.0296 350.282
10.2088 438.822
10.388 97.9924
10.5672 505.63
10.7465 86.446
10.9257 73.4087
11.105 68.1268
11.2844 64.9695
11.4637 62.0147
11.6431 60.6111
11.8225 59.4973
12.002 66.8139
12.1814 146.391
12.3609 64.8344
12.5405 61.4188
12.72 63.8821
12.8996 67.8592
13.0792 76.9236
13.2589 228.905
13.4386 127.666
13.6183 236.871
13.7981 100.42
13.9779 73.5643
14.1577 75.6412
14.3376 67.263
14.5175 66.6756
14.6974 67.5391
14.8774 110.177
15.0574 160.108
15.2374 66.4407
15.4175 64.1325
15.5976 63.3805
15.7778 94.4468
15.958 168.32
16.1382 59.9042
16.3185 55.5753
16.4988 53.5549
16.6792 52.5942
16.8596 52.8499
17.04 53.7102
17.2205 64.826
17.401 71.7999
17.5815 57.2089
17.7622 60.1936
17.9428 73.222
18.1237 141.844
18.3044 88.8542
18.4852 79.0616
18.666 58.8811
18.8469 56.4753
19.0278 55.0113
19.2088 58.1818
19.3898 76.2846
19.5709 52.9949
19.752 51.8069
19.9332 55.167
20.1144 70.6238
20.2957 63.5385
20.477 52.8664
20.6586 48.3737
20.84 47.9515
21.0215 47.2519
21.203 49.5403
21.3846 47.9506
21.5662 47.539
21.7479 51.8505
21.9297 65.3107
22.1115 55.9545
22.2933 49.0174
22.4753 47.5714
22.6572 47.5813
22.8393 51.1186
23.0214 57.4757
23.2037 47.8335
23.3859 49.3819
23.5682 57.1008
23.7505 48.2064
23.9329 44.3337
24.1154 43.1994
24.2979 42.3801
24.4805 41.9994
24.6631 41.9429
24.8458 41.2831
25.0286 42.0975
25.2114 44.1387
25.3943 44.4351
25.5773 40.2425
25.7605 39.4752
25.9436 39.9212
26.1268 41.2909
26.31 39.3842
26.4933 39.9925
26.6767 41.887
26.8601 40.0406
27.0437 38.4315
27.2272 37.7847
27.4109 37.7863
27.5946 37.8896
27.7784 37.3568
27.9623 37.9131
28.1462 38.6132
28.3304 36.7389
28.5145 35.3616
28.6987 34.9477
28.8829 34.8316
29.0673 34.0287
29.2517 33.7489
29.4361 33.6711
29.6207 32.5732
29.8053 32.2246
29.99 31.9439
30.1748 31.9601
30.3597 31.6567
30.5447 31.8177
30.7297 31.8829
30.915 31.1982
31.1002 30.6884
31.2855 30.4083
31.4708 30.3618
31.6563 29.9639
31.8418 29.7589
32.0275 29.7084
32.2132 28.9984
32.399 28.4859
32.5848 28.0403
32.7708 27.6692
32.9569 27.654
33.143 27.398
33.3293 27.0229
33.5158 26.6341
33.7022 26.1883
33.8887 25.9011
34.0753 25.5776
34.262 25.2321
34.4488 24.9776
34.6357 24.5757
34.8227 24.2637
35.0098 24.0797
35.1969 23.8231
35.3842 23.6167
35.5716 23.5206
35.759 23.0965
35.9468 22.7681
36.1345 22.6254
36.3222 22.3663
36.5101 22.1135
36.6981 21.8292
36.8861 21.54
37.0743 21.1601
37.2626 20.9558
37.451 20.6787
37.6395 20.4952
37.8281 20.1725
38.0168 19.8602
38.2056 19.6151
38.3945 19.3986
38.5837 19.1885
38.7728 18.9119
38.9621 18.6467
39.1514 18.4399
39.3409 18.1486
39.5304 17.9986
39.7201 17.8258
39.9099 17.5006
40.0999 17.3852
40.2899 17.1018
40.48 16.8844
40.6703 16.7018
40.8607 16.5152
41.0512 16.2179
41.242 15.9941
41.4327 15.8345
41.6236 15.6001
41.8146 15.4222
42.0057 15.205
42.1969 14.9707
42.3882 14.7694
42.5797 14.5919
42.7713 14.4117
42.963 14.2285
43.1549 14.0796
43.3468 13.7919
43.5389 13.6345
43.7312 13.4723
43.9237 13.2848
44.1162 13.0582
44.3088 12.8761
44.5016 12.7211
44.6945 12.5305
44.8875 12.3654
45.0806 12.1301
45.2739 11.985
45.4673 11.8246
45.6609 11.647
45.8546 11.538
46.0484 11.3702
46.2424 11.2299
46.4365 11.0412
46.631 10.8475
46.8254 10.6964
47.0199 10.544
47.2146 10.4009
47.4095 10.2021
47.6044 10.0923
47.7996 9.9374
47.9948 9.72655
48.1902 9.63773
48.3858 9.50809
48.5815 9.37355
48.7774 9.27746
48.9734 9.10789
49.1696 8.95146
49.3661 8.82329
49.5626 8.65496
49.7592 8.56323
49.956 8.44035
50.153 8.30619
50.3501 8.15675
50.5474 8.04676
50.7448 7.95111
50.9424 7.77722
51.1402 7.72285
51.3381 7.54348
51.5362 7.45439
51.7344 7.30856
51.9328 7.17533
52.1316 7.07751
52.3304 6.9633
52.5293 6.82969
52.7284 6.72822
52.9276 6.61117
53.1271 6.55144
53.3267 6.40173
53.5265 6.27501
53.7264 6.2132
53.9266 6.09968
54.1269 5.94213
54.3274 5.85096
54.528 5.73764
54.7289 5.53819
54.9301 5.40501
55.1314 5.2268
55.3328 5.07474
55.5344 4.89941
55.7361 4.75464