File: XRD/Ni3Fe_FD0798.xy
TT I
1.27165 7.32534
1.45013 5.8009
1.62863 5.59854
1.80712 5.1031
1.98562 3.99436
2.16411 4.70808
2.34263 4.91021
2.52115 7.40048
2.69965 8.83789
2.87818 9.103
3.05672 11.0597
3.23527 15.2852
3.4138 18.7735
3.59237 23.299
3.77094 26.0321
3.9495 29.7345
4.12809 34.336
4.30669 133.523
4.4853 57.2704
4.6639 55.099
4.84253 67.2137
5.02118 86.6391
5.19981 376.582
5.37848 182.091
5.55716 101.371
5.73586 91.9857
5.91455 93.8648
6.09328 4546.73
6.27201 79.8441
6.45075 67.811
6.62952 62.0771
6.8083 58.4356
6.98711 54.956
7.16591 54.7439
7.34475 73.9142
7.5236 54.1603
7.70247 55.7256
7.88135 56.9353
8.06026 61.9811
8.23919 68.7725
8.41812 83.1825
8.59709 1213.22
8.77609 96.7648
8.9551 88.5395
9.13412 81.7508
9.31318 82.9188
9.49226 83.7679
9.67134 94.5743
9.85047 100.103
10.0296 343.132
10.2088 341.414
10.388 103.618
10.5672 536.414
10.7465 85.2871
10.9257 77.0685
11.105 70.8383
11.2844 68.4069
11.4637 63.9674
11.6431 62.7332
11.8225 61.7127
12.002 63.4951
12.1814 157.437
12.3609 67.0121
12.5405 64.0276
12.72 67.5917
12.8996 70.4049
13.0792 79.0793
13.2589 246.74
13.4386 116.901
13.6183 255.574
13.7981 92.5155
13.9779 74.9003
14.1577 71.0755
14.3376 69.8018
14.5175 68.1383
14.6974 69.9821
14.8774 111.059
15.0574 141.643
15.2374 69.0143
15.4175 65.5779
15.5976 65.2856
15.7778 94.5982
15.958 146.468
16.1382 61.0054
16.3185 57.5152
16.4988 54.859
16.6792 53.7429
16.8596 54.2314
17.04 55.5374
17.2205 66.7042
17.401 68.753
17.5815 58.4621
17.7622 60.6837
17.9428 73.1965
18.1237 141.829
18.3044 91.2262
18.4852 74.0888
18.666 59.7512
18.8469 57.4335
19.0278 55.9772
19.2088 58.8595
19.3898 75.8218
19.5709 53.5066
19.752 52.8219
19.9332 55.7081
20.1144 69.8935
20.2957 64.0631
20.477 52.3507
20.6586 49.19
20.84 48.2442
21.0215 48.199
21.203 50.3969
21.3846 48.2459
21.5662 48.5594
21.7479 52.2031
21.9297 64.3079
22.1115 55.7731
22.2933 48.9754
22.4753 48.2784
22.6572 48.4883
22.8393 51.5341
23.0214 56.5795
23.2037 48.2098
23.3859 49.3213
23.5682 57.0629
23.7505 47.369
23.9329 44.6588
24.1154 43.6745
24.2979 43.0374
24.4805 42.5678
24.6631 42.2263
24.8458 41.8594
25.0286 42.5254
25.2114 44.1526
25.3943 44.125
25.5773 40.5183
25.7605 40.1033
25.9436 40.4049
26.1268 41.3329
26.31 39.5875
26.4933 40.4542
26.6767 41.7035
26.8601 39.9496
27.0437 38.5241
27.2272 38.1859
27.4109 38.0772
27.5946 37.9877
27.7784 37.5265
27.9623 38.1338
28.1462 38.5537
28.3304 36.6543
28.5145 35.5604
28.6987 35.1896
28.8829 34.9977
29.0673 34.3342
29.2517 34.0583
29.4361 33.8071
29.6207 32.7348
29.8053 32.5895
29.99 32.2282
30.1748 32.0628
30.3597 31.8963
30.5447 31.8432
30.7297 31.9346
30.915 31.2282
31.1002 30.8061
31.2855 30.5881
31.4708 30.438
31.6563 30.02
31.8418 29.8235
32.0275 29.69
32.2132 29.0795
32.399 28.6353
32.5848 28.1391
32.7708 27.8804
32.9569 27.8134
33.143 27.4567
33.3293 27.2149
33.5158 26.7647
33.7022 26.2114
33.8887 26.1137
34.0753 25.7761
34.262 25.3622
34.4488 24.9729
34.6357 24.7311
34.8227 24.475
35.0098 24.2775
35.1969 23.9514
35.3842 23.6892
35.5716 23.532
35.759 23.196
35.9468 22.848
36.1345 22.6567
36.3222 22.4422
36.5101 22.1836
36.6981 21.8971
36.8861 21.5645
37.0743 21.3011
37.2626 21.0982
37.451 20.8017
37.6395 20.6297
37.8281 20.3135
38.0168 20.0154
38.2056 19.7642
38.3945 19.4664
38.5837 19.2075
38.7728 18.9847
38.9621 18.7754
39.1514 18.5351
39.3409 18.3027
39.5304 18.0763
39.7201 17.8779
39.9099 17.6631
40.0999 17.3632
40.2899 17.179
40.48 16.9303
40.6703 16.7858
40.8607 16.5316
41.0512 16.3591
41.242 16.0811
41.4327 15.8799
41.6236 15.6989
41.8146 15.4961
42.0057 15.279
42.1969 15.0578
42.3882 14.8866
42.5797 14.6763
42.7713 14.5197
42.963 14.301
43.1549 14.1151
43.3468 13.8548
43.5389 13.6944
43.7312 13.5393
43.9237 13.2663
44.1162 13.1205
44.3088 12.9342
44.5016 12.744
44.6945 12.6156
44.8875 12.3821
45.0806 12.2122
45.2739 12.082
45.4673 11.9177
45.6609 11.7378
45.8546 11.5814
46.0484 11.3789
46.2424 11.2458
46.4365 11.1212
46.631 10.9377
46.8254 10.7718
47.0199 10.592
47.2146 10.4277
47.4095 10.2662
47.6044 10.1286
47.7996 9.95699
47.9948 9.82191
48.1902 9.68155
48.3858 9.58658
48.5815 9.4561
48.7774 9.30381
48.9734 9.13151
49.1696 9.00722
49.3661 8.8493
49.5626 8.69284
49.7592 8.59146
49.956 8.51065
50.153 8.35035
50.3501 8.20163
50.5474 8.09418
50.7448 8.00112
50.9424 7.8802
51.1402 7.72065
51.3381 7.60745
51.5362 7.44687
51.7344 7.33745
51.9328 7.22845
52.1316 7.10118
52.3304 7.00633
52.5293 6.88564
52.7284 6.74211
52.9276 6.66917
53.1271 6.56995
53.3267 6.44349
53.5265 6.29989
53.7264 6.19807
53.9266 6.11719
54.1269 5.98019
54.3274 5.88072
54.528 5.75639
54.7289 5.55479
54.9301 5.43606
55.1314 5.29358
55.3328 5.06467
55.5344 4.90267
55.7361 4.82706