File: XRD/Ni3Fe_FD0840.xy
TT I
1.27165 7.99813
1.45013 6.63575
1.62863 5.00325
1.80712 5.01403
1.98562 5.08536
2.16411 5.57836
2.34263 6.16981
2.52115 7.06612
2.69965 8.66426
2.87818 8.99039
3.05672 11.4447
3.23527 14.8639
3.4138 19.1588
3.59237 23.5645
3.77094 25.9556
3.9495 29.645
4.12809 35.1472
4.30669 170.574
4.4853 60.4323
4.6639 54.9327
4.84253 66.7889
5.02118 85.7313
5.19981 319.307
5.37848 179.287
5.55716 100.973
5.73586 91.181
5.91455 92.4102
6.09328 4306.67
6.27201 80.7848
6.45075 67.4404
6.62952 62.1026
6.8083 58.2192
6.98711 55.0005
7.16591 54.7614
7.34475 80.7931
7.5236 54.1834
7.70247 55.8611
7.88135 57.0691
8.06026 61.6021
8.23919 68.7805
8.41812 83.5676
8.59709 1176.03
8.77609 97.8313
8.9551 89.1384
9.13412 81.382
9.31318 82.0591
9.49226 83.4577
9.67134 95.5812
9.85047 99.3682
10.0296 323.386
10.2088 403.162
10.388 102.767
10.5672 523.082
10.7465 85.0781
10.9257 77.2974
11.105 71.1449
11.2844 68.7303
11.4637 64.136
11.6431 62.996
11.8225 61.7981
12.002 62.9688
12.1814 156.87
12.3609 68.2685
12.5405 63.9119
12.72 68.3955
12.8996 70.2993
13.0792 77.9328
13.2589 242.281
13.4386 121.772
13.6183 251.919
13.7981 95.9835
13.9779 74.933
14.1577 71.3975
14.3376 70.2292
14.5175 68.0423
14.6974 69.5054
14.8774 109.451
15.0574 145.5
15.2374 69.7241
15.4175 65.6826
15.5976 64.9755
15.7778 93.9643
15.958 151.0
16.1382 61.4778
16.3185 57.7089
16.4988 54.865
16.6792 53.7424
16.8596 54.5246
17.04 55.0015
17.2205 66.3173
17.401 69.6028
17.5815 58.5913
17.7622 60.5053
17.9428 72.4012
18.1237 137.73
18.3044 90.8065
18.4852 75.9419
18.666 59.7438
18.8469 57.2725
19.0278 56.3184
19.2088 58.5718
19.3898 75.3793
19.5709 53.6943
19.752 52.8288
19.9332 55.5602
20.1144 69.0517
20.2957 63.7062
20.477 52.9349
20.6586 49.1559
20.84 48.382
21.0215 48.0517
21.203 50.3328
21.3846 48.4321
21.5662 48.1529
21.7479 52.0042
21.9297 63.6332
22.1115 55.5061
22.2933 49.4046
22.4753 48.26
22.6572 48.3209
22.8393 51.4751
23.0214 56.38
23.2037 48.2958
23.3859 49.1508
23.5682 56.5812
23.7505 47.8067
23.9329 44.6615
24.1154 43.74
24.2979 42.8451
24.4805 42.6232
24.6631 42.2234
24.8458 41.8247
25.0286 42.4702
25.2114 44.2031
25.3943 43.912
25.5773 40.4619
25.7605 40.0357
25.9436 40.4847
26.1268 41.1899
26.31 39.6929
26.4933 40.3328
26.6767 41.634
26.8601 39.9197
27.0437 38.4486
27.2272 38.063
27.4109 38.0606
27.5946 37.7993
27.7784 37.4001
27.9623 37.9963
28.1462 38.3486
28.3304 36.6987
28.5145 35.5339
28.6987 35.3183
28.8829 34.9361
29.0673 34.3063
29.2517 33.8992
29.4361 33.6679
29.6207 32.717
29.8053 32.5275
29.99 32.2529
30.1748 32.1123
30.3597 31.9298
30.5447 31.9202
30.7297 31.8509
30.915 31.2763
31.1002 30.8315
31.2855 30.5992
31.4708 30.3903
31.6563 30.0204
31.8418 29.8909
32.0275 29.5893
32.2132 29.1231
32.399 28.531
32.5848 28.1853
32.7708 27.8162
32.9569 27.7019
33.143 27.5292
33.3293 27.1331
33.5158 26.7166
33.7022 26.3062
33.8887 26.0425
34.0753 25.7791
34.262 25.415
34.4488 24.9794
34.6357 24.7152
34.8227 24.4175
35.0098 24.3164
35.1969 24.0168
35.3842 23.6492
35.5716 23.5588
35.759 23.2249
35.9468 22.852
36.1345 22.7296
36.3222 22.3683
36.5101 22.1926
36.6981 21.9023
36.8861 21.548
37.0743 21.276
37.2626 21.0523
37.451 20.8052
37.6395 20.6034
37.8281 20.272
38.0168 19.9788
38.2056 19.7282
38.3945 19.4665
38.5837 19.2753
38.7728 18.9742
38.9621 18.7534
39.1514 18.5323
39.3409 18.3015
39.5304 18.0222
39.7201 17.8416
39.9099 17.6533
40.0999 17.4537
40.2899 17.1198
40.48 16.9453
40.6703 16.7229
40.8607 16.5822
41.0512 16.3318
41.242 16.0839
41.4327 15.8805
41.6236 15.7016
41.8146 15.5097
42.0057 15.2336
42.1969 15.0296
42.3882 14.8638
42.5797 14.6842
42.7713 14.5168
42.963 14.252
43.1549 14.057
43.3468 13.878
43.5389 13.6747
43.7312 13.5309
43.9237 13.3538
44.1162 13.1447
44.3088 12.9608
44.5016 12.711
44.6945 12.5954
44.8875 12.435
45.0806 12.2047
45.2739 12.0868
45.4673 11.9391
45.6609 11.7413
45.8546 11.6077
46.0484 11.3697
46.2424 11.2455
46.4365 11.1042
46.631 10.9429
46.8254 10.71
47.0199 10.5879
47.2146 10.4628
47.4095 10.2878
47.6044 10.1497
47.7996 9.98517
47.9948 9.83046
48.1902 9.71758
48.3858 9.59914
48.5815 9.42534
48.7774 9.2959
48.9734 9.13575
49.1696 9.00308
49.3661 8.86999
49.5626 8.71493
49.7592 8.63725
49.956 8.47541
50.153 8.36122
50.3501 8.21097
50.5474 8.07824
50.7448 7.98823
50.9424 7.84102
51.1402 7.72025
51.3381 7.58863
51.5362 7.51585
51.7344 7.37477
51.9328 7.25723
52.1316 7.10783
52.3304 7.00042
52.5293 6.90509
52.7284 6.77269
52.9276 6.64559
53.1271 6.55777
53.3267 6.44823
53.5265 6.29188
53.7264 6.21303
53.9266 6.12417
54.1269 5.99304
54.3274 5.8814
54.528 5.71177
54.7289 5.57314
54.9301 5.43401
55.1314 5.28244
55.3328 5.13817
55.5344 4.9234
55.7361 4.72081