File: XRD/Ni3Fe_FD0980.xy
TT I
1.27165 6.92083
1.45013 6.24129
1.62863 5.33653
1.80712 4.41918
1.98562 4.73089
2.16411 4.95445
2.34263 6.15297
2.52115 7.06435
2.69965 8.81324
2.87818 8.89077
3.05672 11.5523
3.23527 15.3039
3.4138 19.0652
3.59237 24.1804
3.77094 26.242
3.9495 29.5895
4.12809 34.4025
4.30669 224.573
4.4853 65.7958
4.6639 54.4628
4.84253 65.6214
5.02118 84.6261
5.19981 273.388
5.37848 172.72
5.55716 99.4192
5.73586 90.0726
5.91455 90.1134
6.09328 4584.67
6.27201 81.1358
6.45075 65.9536
6.62952 61.8428
6.8083 57.7809
6.98711 54.9302
7.16591 54.6682
7.34475 92.348
7.5236 54.0851
7.70247 55.2913
7.88135 56.8229
8.06026 60.7902
8.23919 68.0697
8.41812 83.3381
8.59709 1126.48
8.77609 96.5632
8.9551 90.4348
9.13412 80.0815
9.31318 81.0186
9.49226 83.131
9.67134 96.9116
9.85047 97.408
10.0296 294.127
10.2088 363.395
10.388 102.146
10.5672 527.674
10.7465 85.0153
10.9257 77.1201
11.105 70.5798
11.2844 69.2052
11.4637 63.7823
11.6431 62.4806
11.8225 61.2188
12.002 62.0422
12.1814 154.363
12.3609 69.1941
12.5405 63.6113
12.72 68.9542
12.8996 69.4221
13.0792 76.8193
13.2589 230.834
13.4386 119.127
13.6183 243.721
13.7981 94.6109
13.9779 74.2806
14.1577 71.0034
14.3376 70.2773
14.5175 67.153
14.6974 68.63
14.8774 104.609
15.0574 146.995
15.2374 69.7641
15.4175 65.0923
15.5976 64.11
15.7778 89.8869
15.958 151.503
16.1382 61.5764
16.3185 57.5862
16.4988 54.3773
16.6792 53.6211
16.8596 54.1988
17.04 54.4848
17.2205 64.7612
17.401 68.691
17.5815 57.8613
17.7622 59.9508
17.9428 70.3426
18.1237 138.809
18.3044 88.8742
18.4852 75.5525
18.666 59.1456
18.8469 56.9829
19.0278 55.7617
19.2088 57.905
19.3898 75.6523
19.5709 53.2645
19.752 52.1058
19.9332 54.7573
20.1144 68.6864
20.2957 63.3458
20.477 52.5163
20.6586 48.7793
20.84 47.9282
21.0215 47.597
21.203 49.9222
21.3846 47.9326
21.5662 47.8157
21.7479 51.0815
21.9297 63.4614
22.1115 55.2501
22.2933 48.7958
22.4753 47.9755
22.6572 47.7333
22.8393 50.8366
23.0214 56.0803
23.2037 47.806
23.3859 48.493
23.5682 56.4712
23.7505 47.3564
23.9329 44.3841
24.1154 43.2785
24.2979 42.5012
24.4805 42.1374
24.6631 41.8927
24.8458 41.3566
25.0286 41.9455
25.2114 43.7159
25.3943 43.6028
25.5773 40.0
25.7605 39.6813
25.9436 40.0445
26.1268 41.0135
26.31 39.2966
26.4933 39.9783
26.6767 41.3173
26.8601 39.6092
27.0437 38.0898
27.2272 37.6272
27.4109 37.6654
27.5946 37.6806
27.7784 37.117
27.9623 37.7807
28.1462 38.1335
28.3304 36.5137
28.5145 35.397
28.6987 34.8897
28.8829 34.7471
29.0673 34.004
29.2517 33.6714
29.4361 33.4792
29.6207 32.4383
29.8053 32.2875
29.99 31.8765
30.1748 31.8595
30.3597 31.5356
30.5447 31.5825
30.7297 31.7234
30.915 31.0581
31.1002 30.4412
31.2855 30.3442
31.4708 30.1549
31.6563 29.8209
31.8418 29.4951
32.0275 29.3938
32.2132 28.8267
32.399 28.4203
32.5848 27.892
32.7708 27.6289
32.9569 27.4854
33.143 27.3016
33.3293 26.8421
33.5158 26.5227
33.7022 26.1394
33.8887 25.7719
34.0753 25.4992
34.262 25.1485
34.4488 24.8757
34.6357 24.5201
34.8227 24.2486
35.0098 23.9853
35.1969 23.79
35.3842 23.5742
35.5716 23.4085
35.759 23.0919
35.9468 22.7124
36.1345 22.4284
36.3222 22.2247
36.5101 21.9694
36.6981 21.7006
36.8861 21.4193
37.0743 21.1254
37.2626 20.8257
37.451 20.6123
37.6395 20.4919
37.8281 20.1305
38.0168 19.8336
38.2056 19.6776
38.3945 19.3164
38.5837 19.1004
38.7728 18.8803
38.9621 18.6116
39.1514 18.3858
39.3409 18.1982
39.5304 17.9044
39.7201 17.7223
39.9099 17.5263
40.0999 17.2378
40.2899 17.0314
40.48 16.8894
40.6703 16.6203
40.8607 16.4339
41.0512 16.2044
41.242 15.9395
41.4327 15.7132
41.6236 15.5335
41.8146 15.3881
42.0057 15.077
42.1969 14.9572
42.3882 14.772
42.5797 14.5418
42.7713 14.3752
42.963 14.1771
43.1549 14.0024
43.3468 13.7882
43.5389 13.5862
43.7312 13.3796
43.9237 13.2138
44.1162 13.0519
44.3088 12.8683
44.5016 12.6848
44.6945 12.4762
44.8875 12.3303
45.0806 12.1549
45.2739 11.9617
45.4673 11.8037
45.6609 11.6665
45.8546 11.5252
46.0484 11.2996
46.2424 11.1618
46.4365 11.0258
46.631 10.8695
46.8254 10.6824
47.0199 10.5366
47.2146 10.3739
47.4095 10.2136
47.6044 10.0488
47.7996 9.92385
47.9948 9.75126
48.1902 9.59697
48.3858 9.46791
48.5815 9.36225
48.7774 9.24028
48.9734 9.08134
49.1696 8.98091
49.3661 8.79257
49.5626 8.63504
49.7592 8.56521
49.956 8.43408
50.153 8.26596
50.3501 8.151
50.5474 8.05596
50.7448 7.91543
50.9424 7.81357
51.1402 7.70268
51.3381 7.51993
51.5362 7.38661
51.7344 7.29717
51.9328 7.17668
52.1316 7.05681
52.3304 6.94496
52.5293 6.81779
52.7284 6.6809
52.9276 6.61108
53.1271 6.53617
53.3267 6.38631
53.5265 6.25863
53.7264 6.19249
53.9266 6.0243
54.1269 5.92456
54.3274 5.85412
54.528 5.72953
54.7289 5.51073
54.9301 5.37161
55.1314 5.27154
55.3328 5.05619
55.5344 4.85957
55.7361 4.73911