File: XRD/Ni3Fe_FD0294.xy
TT I
1.27165 7.84821
1.45013 6.89688
1.62863 5.6725
1.80712 5.13057
1.98562 4.48397
2.16411 4.83175
2.34263 4.8482
2.52115 5.70853
2.69965 6.78865
2.87818 8.07488
3.05672 11.6218
3.23527 15.5134
3.4138 19.365
3.59237 25.319
3.77094 27.0107
3.9495 30.8523
4.12809 36.0405
4.30669 285.11
4.4853 74.2116
4.6639 56.9159
4.84253 69.5015
5.02118 91.0602
5.19981 503.834
5.37848 257.143
5.55716 107.633
5.73586 97.1398
5.91455 100.768
6.09328 3768.32
6.27201 90.2068
6.45075 70.5673
6.62952 66.1136
6.8083 61.3698
6.98711 58.4499
7.16591 58.1284
7.34475 107.7
7.5236 56.9103
7.70247 58.3535
7.88135 59.898
8.06026 65.164
8.23919 72.2872
8.41812 90.1384
8.59709 1014.25
8.77609 108.662
8.9551 97.081
9.13412 84.8281
9.31318 86.1015
9.49226 87.5846
9.67134 105.526
9.85047 103.894
10.0296 386.386
10.2088 592.356
10.388 110.786
10.5672 450.073
10.7465 90.9604
10.9257 82.2904
11.105 74.7237
11.2844 74.1634
11.4637 67.4944
11.6431 66.3391
11.8225 64.9539
12.002 66.1449
12.1814 138.692
12.3609 76.7636
12.5405 67.2823
12.72 74.1217
12.8996 73.9046
13.0792 81.9602
13.2589 213.762
13.4386 148.029
13.6183 216.073
13.7981 113.13
13.9779 79.0738
14.1577 75.6328
14.3376 75.1508
14.5175 71.5124
14.6974 73.3707
14.8774 110.182
15.0574 174.091
15.2374 75.0431
15.4175 68.9163
15.5976 68.3787
15.7778 95.9146
15.958 176.433
16.1382 66.2991
16.3185 61.3411
16.4988 57.8191
16.6792 56.8651
16.8596 57.3877
17.04 57.9654
17.2205 67.1153
17.401 77.2472
17.5815 61.1945
17.7622 63.4492
17.9428 77.4629
18.1237 137.745
18.3044 88.8816
18.4852 85.0255
18.666 62.7837
18.8469 60.5069
19.0278 59.3407
19.2088 61.8663
19.3898 78.2848
19.5709 56.5491
19.752 55.2855
19.9332 58.211
20.1144 71.5575
20.2957 63.9493
20.477 57.0536
20.6586 51.8034
20.84 50.7622
21.0215 50.476
21.203 52.236
21.3846 51.1916
21.5662 50.6948
21.7479 54.224
21.9297 66.5716
22.1115 57.4203
22.2933 52.3179
22.4753 50.7966
22.6572 50.7546
22.8393 53.1842
23.0214 60.0715
23.2037 50.5836
23.3859 51.4315
23.5682 57.4491
23.7505 50.9768
23.9329 47.0789
24.1154 45.772
24.2979 45.1316
24.4805 44.491
24.6631 44.4354
24.8458 43.907
25.0286 44.274
25.2114 46.0469
25.3943 46.3939
25.5773 42.6319
25.7605 41.943
25.9436 42.267
26.1268 43.1764
26.31 41.7519
26.4933 42.1681
26.6767 43.4968
26.8601 42.013
27.0437 40.3606
27.2272 39.882
27.4109 39.6796
27.5946 39.8937
27.7784 39.2544
27.9623 39.5245
28.1462 40.2038
28.3304 38.7826
28.5145 37.3616
28.6987 36.9428
28.8829 36.692
29.0673 36.0035
29.2517 35.6449
29.4361 35.518
29.6207 34.5341
29.8053 34.117
29.99 33.7576
30.1748 33.5812
30.3597 33.6127
30.5447 33.3768
30.7297 33.3252
30.915 32.8416
31.1002 32.3703
31.2855 31.9822
31.4708 31.9483
31.6563 31.4996
31.8418 31.2089
32.0275 31.0261
32.2132 30.499
32.399 30.0504
32.5848 29.5566
32.7708 29.3318
32.9569 29.1001
33.143 28.8476
33.3293 28.4118
33.5158 28.0903
33.7022 27.6039
33.8887 27.3034
34.0753 26.9739
34.262 26.5878
34.4488 26.2272
34.6357 25.9521
34.8227 25.5726
35.0098 25.3919
35.1969 25.1125
35.3842 24.8865
35.5716 24.6275
35.759 24.3805
35.9468 23.9804
36.1345 23.7143
36.3222 23.5361
36.5101 23.3431
36.6981 22.9445
36.8861 22.6396
37.0743 22.3546
37.2626 22.0729
37.451 21.7567
37.6395 21.5379
37.8281 21.2126
38.0168 20.9758
38.2056 20.7277
38.3945 20.4303
38.5837 20.1573
38.7728 19.9243
38.9621 19.7026
39.1514 19.3886
39.3409 19.1414
39.5304 18.9444
39.7201 18.7567
39.9099 18.4957
40.0999 18.1936
40.2899 18.1385
40.48 17.7614
40.6703 17.5923
40.8607 17.4347
41.0512 17.1491
41.242 16.8926
41.4327 16.6719
41.6236 16.3886
41.8146 16.25
42.0057 16.0492
42.1969 15.7653
42.3882 15.6525
42.5797 15.4216
42.7713 15.1572
42.963 14.9901
43.1549 14.7881
43.3468 14.5319
43.5389 14.4058
43.7312 14.1427
43.9237 13.9867
44.1162 13.8052
44.3088 13.5624
44.5016 13.3109
44.6945 13.2528
44.8875 13.0349
45.0806 12.8275
45.2739 12.7007
45.4673 12.498
45.6609 12.2767
45.8546 12.147
46.0484 11.9887
46.2424 11.8063
46.4365 11.6244
46.631 11.4651
46.8254 11.2657
47.0199 11.0843
47.2146 10.9701
47.4095 10.79
47.6044 10.6014
47.7996 10.4756
47.9948 10.2751
48.1902 10.1922
48.3858 10.0702
48.5815 9.87072
48.7774 9.7045
48.9734 9.59336
49.1696 9.42972
49.3661 9.32007
49.5626 9.1624
49.7592 9.0199
49.956 8.90833
50.153 8.74541
50.3501 8.64076
50.5474 8.50244
50.7448 8.37762
50.9424 8.22898
51.1402 8.12474
51.3381 7.99282
51.5362 7.86056
51.7344 7.71655
51.9328 7.53953
52.1316 7.41886
52.3304 7.31313
52.5293 7.18693
52.7284 7.09948
52.9276 6.97546
53.1271 6.86674
53.3267 6.75207
53.5265 6.59302
53.7264 6.46401
53.9266 6.42626
54.1269 6.2334
54.3274 6.15494
54.528 5.97322
54.7289 5.80233
54.9301 5.70749
55.1314 5.56094
55.3328 5.26895
55.5344 5.14397
55.7361 5.00141