File: XRD/Ni3Fe_FD0276.xy
TT I
1.27165 8.05287
1.45013 6.89035
1.62863 5.38323
1.80712 4.99441
1.98562 5.16862
2.16411 4.90491
2.34263 5.05812
2.52115 5.9166
2.69965 6.61354
2.87818 8.11646
3.05672 10.9278
3.23527 15.1206
3.4138 19.642
3.59237 25.2087
3.77094 26.7556
3.9495 30.1516
4.12809 35.8704
4.30669 218.358
4.4853 67.0504
4.6639 57.594
4.84253 70.1973
5.02118 92.4122
5.19981 524.446
5.37848 266.074
5.55716 108.997
5.73586 97.7162
5.91455 103.064
6.09328 3736.85
6.27201 89.9498
6.45075 70.9114
6.62952 65.7026
6.8083 61.3606
6.98711 58.113
7.16591 57.9152
7.34475 94.1467
7.5236 56.6615
7.70247 58.5185
7.88135 59.8935
8.06026 65.0411
8.23919 72.6121
8.41812 89.9086
8.59709 1070.45
8.77609 109.557
8.9551 96.1046
9.13412 85.6838
9.31318 86.4451
9.49226 88.3606
9.67134 103.179
9.85047 105.094
10.0296 419.368
10.2088 607.74
10.388 111.017
10.5672 454.973
10.7465 91.6562
10.9257 82.1728
11.105 75.0995
11.2844 73.1626
11.4637 67.6335
11.6431 66.3842
11.8225 65.226
12.002 66.7297
12.1814 141.407
12.3609 75.6337
12.5405 67.1823
12.72 73.0765
12.8996 74.1442
13.0792 82.6908
13.2589 222.792
13.4386 152.06
13.6183 225.654
13.7981 115.162
13.9779 79.2229
14.1577 75.7559
14.3376 74.845
14.5175 71.7927
14.6974 73.501
14.8774 113.932
15.0574 174.011
15.2374 74.4691
15.4175 69.2651
15.5976 68.5813
15.7778 99.0115
15.958 176.206
16.1382 65.6036
16.3185 61.2317
16.4988 57.9579
16.6792 56.8697
16.8596 57.4305
17.04 58.2339
17.2205 68.0156
17.401 77.9558
17.5815 61.7882
17.7622 63.9466
17.9428 79.0555
18.1237 136.613
18.3044 90.2317
18.4852 85.6508
18.666 63.1076
18.8469 60.5532
19.0278 59.4164
19.2088 62.3071
19.3898 77.7875
19.5709 56.9851
19.752 55.7727
19.9332 58.9137
20.1144 71.83
20.2957 64.5302
20.477 57.2118
20.6586 51.8885
20.84 51.1729
21.0215 50.8093
21.203 52.4859
21.3846 51.2433
21.5662 50.8197
21.7479 54.5946
21.9297 66.2039
22.1115 57.7484
22.2933 52.5246
22.4753 50.8887
22.6572 51.024
22.8393 53.5817
23.0214 59.8187
23.2037 50.8917
23.3859 52.0881
23.5682 57.8018
23.7505 51.1799
23.9329 47.3121
24.1154 46.0081
24.2979 45.4289
24.4805 44.7165
24.6631 44.5016
24.8458 44.1073
25.0286 44.623
25.2114 46.4406
25.3943 46.392
25.5773 42.6596
25.7605 42.3273
25.9436 42.3836
26.1268 43.4105
26.31 41.7977
26.4933 42.3475
26.6767 43.7605
26.8601 42.2968
27.0437 40.6009
27.2272 40.122
27.4109 39.9915
27.5946 40.0875
27.7784 39.5198
27.9623 39.8329
28.1462 40.3685
28.3304 38.8022
28.5145 37.5162
28.6987 37.1072
28.8829 36.8649
29.0673 36.2017
29.2517 35.686
29.4361 35.594
29.6207 34.4531
29.8053 34.297
29.99 33.9374
30.1748 33.7136
30.3597 33.6893
30.5447 33.4401
30.7297 33.4259
30.915 32.9547
31.1002 32.4098
31.2855 32.0614
31.4708 32.0768
31.6563 31.7826
31.8418 31.2555
32.0275 31.2054
32.2132 30.7514
32.399 30.0758
32.5848 29.6526
32.7708 29.3228
32.9569 29.1886
33.143 28.888
33.3293 28.5347
33.5158 28.1714
33.7022 27.7545
33.8887 27.3891
34.0753 27.082
34.262 26.7725
34.4488 26.3758
34.6357 26.0602
34.8227 25.6836
35.0098 25.4988
35.1969 25.3191
35.3842 24.9515
35.5716 24.7667
35.759 24.4157
35.9468 24.0211
36.1345 23.8453
36.3222 23.5748
36.5101 23.3933
36.6981 22.9799
36.8861 22.7205
37.0743 22.3336
37.2626 22.1495
37.451 21.8679
37.6395 21.7216
37.8281 21.3512
38.0168 21.0574
38.2056 20.8179
38.3945 20.4989
38.5837 20.2742
38.7728 19.965
38.9621 19.8111
39.1514 19.5025
39.3409 19.2333
39.5304 19.0232
39.7201 18.8138
39.9099 18.5592
40.0999 18.4145
40.2899 18.0659
40.48 17.7677
40.6703 17.6579
40.8607 17.4495
41.0512 17.2156
41.242 16.9971
41.4327 16.7242
41.6236 16.5001
41.8146 16.2949
42.0057 16.0661
42.1969 15.8616
42.3882 15.6936
42.5797 15.4707
42.7713 15.2326
42.963 15.0041
43.1549 14.8219
43.3468 14.6324
43.5389 14.3929
43.7312 14.2347
43.9237 14.0091
44.1162 13.7892
44.3088 13.6518
44.5016 13.4496
44.6945 13.2806
44.8875 13.0568
45.0806 12.891
45.2739 12.6754
45.4673 12.5462
45.6609 12.3427
45.8546 12.2033
46.0484 11.9996
46.2424 11.8189
46.4365 11.6507
46.631 11.4609
46.8254 11.2846
47.0199 11.1192
47.2146 10.9866
47.4095 10.8179
47.6044 10.6378
47.7996 10.479
47.9948 10.3744
48.1902 10.1967
48.3858 10.09
48.5815 9.8978
48.7774 9.77524
48.9734 9.57711
49.1696 9.47767
49.3661 9.31085
49.5626 9.18442
49.7592 9.06608
49.956 8.93642
50.153 8.80297
50.3501 8.5932
50.5474 8.52468
50.7448 8.39271
50.9424 8.25398
51.1402 8.14311
51.3381 7.98868
51.5362 7.88485
51.7344 7.76555
51.9328 7.56019
52.1316 7.49271
52.3304 7.31273
52.5293 7.22437
52.7284 7.11009
52.9276 6.97128
53.1271 6.87289
53.3267 6.75362
53.5265 6.64234
53.7264 6.50312
53.9266 6.4357
54.1269 6.26021
54.3274 6.18699
54.528 6.03436
54.7289 5.86178
54.9301 5.69239
55.1314 5.59986
55.3328 5.32501
55.5344 5.13341
55.7361 5.00814