File: XRD/Ni3Fe_FD0319.xy
TT I
1.27165 7.95554
1.45013 6.62023
1.62863 5.28276
1.80712 4.70439
1.98562 4.42359
2.16411 5.26874
2.34263 5.59257
2.52115 6.10051
2.69965 7.38403
2.87818 8.44591
3.05672 11.2895
3.23527 14.8342
3.4138 19.3836
3.59237 24.7246
3.77094 26.3983
3.9495 30.4162
4.12809 35.5347
4.30669 219.016
4.4853 67.0385
4.6639 56.9916
4.84253 69.2607
5.02118 91.5435
5.19981 522.142
5.37848 231.395
5.55716 106.386
5.73586 96.0053
5.91455 101.592
6.09328 3914.6
6.27201 87.5296
6.45075 69.6987
6.62952 64.7889
6.8083 60.541
6.98711 57.517
7.16591 57.104
7.34475 92.9331
7.5236 56.2619
7.70247 57.9205
7.88135 59.5088
8.06026 64.0249
8.23919 71.6924
8.41812 89.6812
8.59709 1119.37
8.77609 105.141
8.9551 94.5895
9.13412 84.2105
9.31318 85.5071
9.49226 87.3685
9.67134 101.603
9.85047 104.043
10.0296 400.895
10.2088 496.376
10.388 109.52
10.5672 478.149
10.7465 89.6846
10.9257 80.6366
11.105 73.7339
11.2844 72.5019
11.4637 66.9439
11.6431 65.3852
11.8225 64.2361
12.002 66.047
12.1814 149.045
12.3609 73.1913
12.5405 66.4846
12.72 72.2401
12.8996 73.0703
13.0792 81.9127
13.2589 234.814
13.4386 135.785
13.6183 235.201
13.7981 104.173
13.9779 78.2007
14.1577 74.7524
14.3376 73.917
14.5175 71.0432
14.6974 72.8156
14.8774 114.658
15.0574 160.306
15.2374 73.5092
15.4175 68.6019
15.5976 68.0163
15.7778 99.0624
15.958 170.303
16.1382 64.7317
16.3185 60.5139
16.4988 57.2846
16.6792 56.3823
16.8596 57.0207
17.04 57.8295
17.2205 68.469
17.401 75.0241
17.5815 61.1772
17.7622 63.1581
17.9428 77.7678
18.1237 139.823
18.3044 90.765
18.4852 81.4715
18.666 62.3924
18.8469 59.8795
19.0278 58.7395
19.2088 61.7571
19.3898 77.8161
19.5709 56.0835
19.752 54.9091
19.9332 58.2605
20.1144 71.4142
20.2957 64.2552
20.477 55.9436
20.6586 51.4541
20.84 50.4691
21.0215 50.1812
21.203 52.2107
21.3846 50.7487
21.5662 50.5183
21.7479 54.4826
21.9297 66.3684
22.1115 57.3713
22.2933 51.6462
22.4753 50.5414
22.6572 50.638
22.8393 53.3763
23.0214 59.5388
23.2037 50.616
23.3859 51.3148
23.5682 57.6925
23.7505 50.2348
23.9329 46.7508
24.1154 45.6412
24.2979 44.8961
24.4805 44.3597
24.6631 44.3058
24.8458 43.7643
25.0286 44.2461
25.2114 45.9014
25.3943 46.0892
25.5773 42.3689
25.7605 41.8432
25.9436 42.0632
26.1268 42.9616
26.31 41.4318
26.4933 42.0334
26.6767 43.4182
26.8601 41.7482
27.0437 40.1637
27.2272 39.7646
27.4109 39.636
27.5946 39.727
27.7784 39.1018
27.9623 39.4784
28.1462 40.146
28.3304 38.4314
28.5145 37.1329
28.6987 36.7951
28.8829 36.5054
29.0673 35.7749
29.2517 35.3785
29.4361 35.2773
29.6207 34.2554
29.8053 33.905
29.99 33.55
30.1748 33.4864
30.3597 33.3289
30.5447 33.1861
30.7297 33.2739
30.915 32.6583
31.1002 32.0135
31.2855 31.8821
31.4708 31.7597
31.6563 31.3793
31.8418 31.1233
32.0275 30.8814
32.2132 30.296
32.399 29.9252
32.5848 29.3379
32.7708 29.0452
32.9569 28.8942
33.143 28.5018
33.3293 28.2752
33.5158 27.9071
33.7022 27.4564
33.8887 27.1832
34.0753 26.881
34.262 26.3658
34.4488 26.1061
34.6357 25.7672
34.8227 25.4529
35.0098 25.2991
35.1969 25.0052
35.3842 24.7132
35.5716 24.5113
35.759 24.2194
35.9468 23.8485
36.1345 23.6576
36.3222 23.4244
36.5101 23.0939
36.6981 22.7411
36.8861 22.4432
37.0743 22.198
37.2626 21.8886
37.451 21.677
37.6395 21.4828
37.8281 21.1271
38.0168 20.838
38.2056 20.6483
38.3945 20.2611
38.5837 20.0093
38.7728 19.7875
38.9621 19.5453
39.1514 19.2781
39.3409 19.0196
39.5304 18.8844
39.7201 18.6161
39.9099 18.3903
40.0999 18.2153
40.2899 17.9161
40.48 17.6997
40.6703 17.4886
40.8607 17.2441
41.0512 17.0722
41.242 16.753
41.4327 16.5343
41.6236 16.2743
41.8146 16.1154
42.0057 15.9079
42.1969 15.7066
42.3882 15.4574
42.5797 15.2474
42.7713 15.054
42.963 14.8201
43.1549 14.6457
43.3468 14.4501
43.5389 14.2458
43.7312 14.088
43.9237 13.8994
44.1162 13.6767
44.3088 13.5272
44.5016 13.2913
44.6945 13.1018
44.8875 12.9498
45.0806 12.7219
45.2739 12.5514
45.4673 12.4491
45.6609 12.2516
45.8546 12.1027
46.0484 11.9078
46.2424 11.6989
46.4365 11.5679
46.631 11.3576
46.8254 11.2109
47.0199 11.035
47.2146 10.913
47.4095 10.6859
47.6044 10.5416
47.7996 10.3862
47.9948 10.2408
48.1902 10.1115
48.3858 9.94766
48.5815 9.78344
48.7774 9.70193
48.9734 9.53827
49.1696 9.41129
49.3661 9.20297
49.5626 9.0932
49.7592 8.96281
49.956 8.80963
50.153 8.69374
50.3501 8.55107
50.5474 8.40785
50.7448 8.34725
50.9424 8.14652
51.1402 8.05345
51.3381 7.89533
51.5362 7.80916
51.7344 7.66305
51.9328 7.50768
52.1316 7.35371
52.3304 7.2698
52.5293 7.18742
52.7284 7.02705
52.9276 6.91572
53.1271 6.80992
53.3267 6.6784
53.5265 6.54809
53.7264 6.42554
53.9266 6.35716
54.1269 6.21714
54.3274 6.10484
54.528 6.00926
54.7289 5.79414
54.9301 5.65862
55.1314 5.50738
55.3328 5.28373
55.5344 5.06075
55.7361 4.97412