File: XRD/Ni3Fe_FD0510.xy
TT I
1.27165 7.62257
1.45013 5.55652
1.62863 5.46553
1.80712 4.67394
1.98562 4.40062
2.16411 4.91311
2.34263 5.39809
2.52115 6.47322
2.69965 7.56498
2.87818 8.53911
3.05672 11.3284
3.23527 15.0193
3.4138 19.1675
3.59237 24.2405
3.77094 26.7913
3.9495 30.2217
4.12809 35.5734
4.30669 224.323
4.4853 66.8172
4.6639 56.0081
4.84253 67.8802
5.02118 88.1596
5.19981 391.386
5.37848 204.535
5.55716 104.013
5.73586 93.535
5.91455 96.1791
6.09328 4094.63
6.27201 85.0723
6.45075 68.7125
6.62952 64.2769
6.8083 59.5568
6.98711 56.5089
7.16591 56.1279
7.34475 93.6709
7.5236 55.826
7.70247 56.8099
7.88135 58.6797
8.06026 62.9903
8.23919 70.6244
8.41812 86.5795
8.59709 1150.63
8.77609 101.946
8.9551 93.1754
9.13412 82.7739
9.31318 83.803
9.49226 85.6228
9.67134 100.251
9.85047 101.497
10.0296 355.954
10.2088 446.322
10.388 106.343
10.5672 494.396
10.7465 87.9496
10.9257 79.8528
11.105 72.9684
11.2844 71.6943
11.4637 65.896
11.6431 64.6713
11.8225 63.3017
12.002 64.5625
12.1814 153.807
12.3609 72.2752
12.5405 65.4152
12.72 71.0765
12.8996 71.8978
13.0792 80.0099
13.2589 235.963
13.4386 130.917
13.6183 243.236
13.7981 102.831
13.9779 76.9624
14.1577 73.7312
14.3376 72.7463
14.5175 69.9942
14.6974 71.4857
14.8774 111.73
15.0574 154.659
15.2374 72.2959
15.4175 67.2923
15.5976 66.5801
15.7778 95.9883
15.958 159.49
16.1382 63.965
16.3185 59.5347
16.4988 56.298
16.6792 55.3662
16.8596 56.1017
17.04 56.6389
17.2205 67.3713
17.401 72.6433
17.5815 60.0405
17.7622 61.8477
17.9428 75.021
18.1237 137.602
18.3044 90.904
18.4852 80.4764
18.666 61.328
18.8469 59.0122
19.0278 57.6726
19.2088 60.3951
19.3898 76.7461
19.5709 55.1119
19.752 53.9886
19.9332 57.188
20.1144 70.289
20.2957 64.1749
20.477 54.7575
20.6586 50.3267
20.84 49.4604
21.0215 49.2713
21.203 51.3432
21.3846 49.533
21.5662 49.3709
21.7479 53.2729
21.9297 64.8139
22.1115 56.6001
22.2933 50.6771
22.4753 49.5679
22.6572 49.6344
22.8393 52.6193
23.0214 58.1817
23.2037 49.509
23.3859 50.4001
23.5682 57.1156
23.7505 49.1931
23.9329 45.9287
24.1154 44.7946
24.2979 44.0644
24.4805 43.3536
24.6631 43.4628
24.8458 42.7568
25.0286 43.2878
25.2114 45.2435
25.3943 45.0296
25.5773 41.4604
25.7605 40.9669
25.9436 41.3277
26.1268 42.343
26.31 40.6883
26.4933 41.2932
26.6767 42.7389
26.8601 41.1034
27.0437 39.3588
27.2272 39.0913
27.4109 38.8908
27.5946 38.8449
27.7784 38.325
27.9623 38.8791
28.1462 39.3865
28.3304 37.6979
28.5145 36.388
28.6987 36.1144
28.8829 35.9837
29.0673 35.2336
29.2517 34.8139
29.4361 34.6153
29.6207 33.581
29.8053 33.3219
29.99 32.9391
30.1748 32.8665
30.3597 32.6664
30.5447 32.5712
30.7297 32.5765
30.915 32.0615
31.1002 31.5288
31.2855 31.2525
31.4708 31.168
31.6563 30.708
31.8418 30.5307
32.0275 30.3183
32.2132 29.7325
32.399 29.3747
32.5848 28.8201
32.7708 28.5592
32.9569 28.4419
33.143 28.2207
33.3293 27.8266
33.5158 27.4072
33.7022 26.9918
33.8887 26.6945
34.0753 26.3814
34.262 25.9838
34.4488 25.583
34.6357 25.2809
34.8227 25.0294
35.0098 24.8198
35.1969 24.506
35.3842 24.3091
35.5716 24.0932
35.759 23.7662
35.9468 23.4382
36.1345 23.2225
36.3222 22.9311
36.5101 22.7211
36.6981 22.4194
36.8861 22.1128
37.0743 21.7952
37.2626 21.5776
37.451 21.2541
37.6395 21.1139
37.8281 20.7951
38.0168 20.5061
38.2056 20.2432
38.3945 19.9329
38.5837 19.691
38.7728 19.4665
38.9621 19.2092
39.1514 18.9337
39.3409 18.6956
39.5304 18.497
39.7201 18.3233
39.9099 18.136
40.0999 17.8915
40.2899 17.5714
40.48 17.4239
40.6703 17.1361
40.8607 16.9932
41.0512 16.7435
41.242 16.4855
41.4327 16.3531
41.6236 16.0583
41.8146 15.8445
42.0057 15.6397
42.1969 15.3985
42.3882 15.2699
42.5797 15.0417
42.7713 14.8304
42.963 14.6184
43.1549 14.4315
43.3468 14.2431
43.5389 14.025
43.7312 13.821
43.9237 13.6475
44.1162 13.461
44.3088 13.2716
44.5016 13.0695
44.6945 12.9158
44.8875 12.759
45.0806 12.501
45.2739 12.3714
45.4673 12.184
45.6609 12.0144
45.8546 11.829
46.0484 11.66
46.2424 11.4824
46.4365 11.356
46.631 11.1934
46.8254 11.015
47.0199 10.8743
47.2146 10.6867
47.4095 10.5337
47.6044 10.3989
47.7996 10.2294
47.9948 10.0315
48.1902 9.9448
48.3858 9.7747
48.5815 9.6771
48.7774 9.5279
48.9734 9.37798
49.1696 9.25977
49.3661 9.12404
49.5626 8.94883
49.7592 8.82648
49.956 8.71016
50.153 8.54686
50.3501 8.41912
50.5474 8.28834
50.7448 8.18638
50.9424 8.04016
51.1402 7.89232
51.3381 7.77598
51.5362 7.67365
51.7344 7.54986
51.9328 7.4032
52.1316 7.26715
52.3304 7.19773
52.5293 7.07493
52.7284 6.91862
52.9276 6.79263
53.1271 6.72786
53.3267 6.5716
53.5265 6.46483
53.7264 6.37123
53.9266 6.2374
54.1269 6.16478
54.3274 6.03486
54.528 5.87272
54.7289 5.71172
54.9301 5.57841
55.1314 5.42875
55.3328 5.22763
55.5344 5.01238
55.7361 4.94498