File: XRD/Ni3Fe_FD0604.xy
TT I
1.27165 7.59306
1.45013 6.25109
1.62863 5.09028
1.80712 4.66968
1.98562 5.35685
2.16411 5.03924
2.34263 5.17285
2.52115 6.64378
2.69965 8.48264
2.87818 9.26323
3.05672 10.5333
3.23527 14.5788
3.4138 19.2667
3.59237 24.0402
3.77094 26.5277
3.9495 30.0491
4.12809 34.707
4.30669 150.245
4.4853 59.3498
4.6639 56.0936
4.84253 68.1243
5.02118 88.121
5.19981 403.248
5.37848 199.517
5.55716 103.511
5.73586 93.8902
5.91455 96.3439
6.09328 4246.02
6.27201 83.5103
6.45075 68.0071
6.62952 63.0196
6.8083 59.0175
6.98711 56.0314
7.16591 55.6487
7.34475 78.0318
7.5236 54.7503
7.70247 56.6038
7.88135 58.1378
8.06026 63.176
8.23919 70.2562
8.41812 85.399
8.59709 1235.63
8.77609 101.07
8.9551 90.5799
9.13412 83.2364
9.31318 83.9688
9.49226 85.735
9.67134 97.0576
9.85047 101.43
10.0296 367.648
10.2088 418.367
10.388 105.456
10.5672 500.87
10.7465 87.0285
10.9257 78.7583
11.105 72.3936
11.2844 69.9005
11.4637 65.3686
11.6431 63.9196
11.8225 62.7573
12.002 64.4534
12.1814 155.966
12.3609 69.6624
12.5405 64.9762
12.72 69.2894
12.8996 71.8686
13.0792 80.4105
13.2589 250.529
13.4386 128.818
13.6183 251.702
13.7981 100.934
13.9779 76.5528
14.1577 72.9328
14.3376 71.4382
14.5175 69.5931
14.6974 71.0726
14.8774 115.287
15.0574 151.516
15.2374 71.1167
15.4175 66.802
15.5976 66.3426
15.7778 98.3298
15.958 153.948
16.1382 62.4673
16.3185 58.7465
16.4988 55.9059
16.6792 54.7681
16.8596 55.6885
17.04 56.3391
17.2205 67.7951
17.401 72.5229
17.5815 59.5729
17.7622 61.9418
17.9428 75.2355
18.1237 137.287
18.3044 92.2279
18.4852 79.2017
18.666 60.8123
18.8469 58.5172
19.0278 57.4796
19.2088 60.2024
19.3898 75.4539
19.5709 54.7529
19.752 53.5837
19.9332 56.9767
20.1144 69.5471
20.2957 64.026
20.477 54.4266
20.6586 49.9906
20.84 49.1665
21.0215 49.2213
21.203 51.1842
21.3846 49.3504
21.5662 49.339
21.7479 53.5098
21.9297 64.4378
22.1115 56.3156
22.2933 50.2587
22.4753 49.2407
22.6572 49.3117
22.8393 52.6124
23.0214 57.5501
23.2037 49.2269
23.3859 50.4312
23.5682 56.9536
23.7505 48.806
23.9329 45.6122
24.1154 44.5518
24.2979 43.7926
24.4805 43.3125
24.6631 43.046
24.8458 42.6308
25.0286 43.1522
25.2114 44.9537
25.3943 45.0024
25.5773 41.1862
25.7605 40.7575
25.9436 41.0463
26.1268 41.981
26.31 40.4515
26.4933 41.1274
26.6767 42.4895
26.8601 40.6122
27.0437 39.1705
27.2272 38.8764
27.4109 38.6849
27.5946 38.605
27.7784 38.1697
27.9623 38.7932
28.1462 39.0707
28.3304 37.5167
28.5145 36.1739
28.6987 35.9762
28.8829 35.71
29.0673 35.0441
29.2517 34.5791
29.4361 34.3764
29.6207 33.4139
29.8053 33.1341
29.99 32.7695
30.1748 32.7693
30.3597 32.5589
30.5447 32.3189
30.7297 32.4608
30.915 31.8902
31.1002 31.2756
31.2855 31.0486
31.4708 30.9954
31.6563 30.6389
31.8418 30.35
32.0275 30.1566
32.2132 29.6737
32.399 29.0983
32.5848 28.7137
32.7708 28.3644
32.9569 28.1713
33.143 28.0154
33.3293 27.6831
33.5158 27.3122
33.7022 26.7651
33.8887 26.6059
34.0753 26.1758
34.262 25.9191
34.4488 25.5823
34.6357 25.1096
34.8227 24.88
35.0098 24.7143
35.1969 24.4015
35.3842 24.1591
35.5716 23.939
35.759 23.5854
35.9468 23.2005
36.1345 23.0993
36.3222 22.8341
36.5101 22.613
36.6981 22.3027
36.8861 22.0217
37.0743 21.6523
37.2626 21.4411
37.451 21.1854
37.6395 20.9759
37.8281 20.602
38.0168 20.3805
38.2056 20.0859
38.3945 19.8548
38.5837 19.6129
38.7728 19.3272
38.9621 19.0754
39.1514 18.89
39.3409 18.6043
39.5304 18.4115
39.7201 18.1598
39.9099 18.0176
40.0999 17.7094
40.2899 17.4817
40.48 17.2183
40.6703 17.0732
40.8607 16.8781
41.0512 16.5783
41.242 16.3694
41.4327 16.1936
41.6236 15.9515
41.8146 15.7562
42.0057 15.5462
42.1969 15.3018
42.3882 15.1406
42.5797 14.9152
42.7713 14.7351
42.963 14.5236
43.1549 14.3347
43.3468 14.0856
43.5389 13.9207
43.7312 13.7222
43.9237 13.586
44.1162 13.344
44.3088 13.1763
44.5016 12.9847
44.6945 12.8191
44.8875 12.6158
45.0806 12.4575
45.2739 12.2996
45.4673 12.1518
45.6609 11.9392
45.8546 11.785
46.0484 11.6118
46.2424 11.4315
46.4365 11.2596
46.631 11.1068
46.8254 10.9088
47.0199 10.7124
47.2146 10.6288
47.4095 10.4631
47.6044 10.2773
47.7996 10.158
47.9948 9.99328
48.1902 9.91318
48.3858 9.70293
48.5815 9.60128
48.7774 9.45948
48.9734 9.31172
49.1696 9.16491
49.3661 9.03157
49.5626 8.87143
49.7592 8.74655
49.956 8.63326
50.153 8.48915
50.3501 8.35133
50.5474 8.24046
50.7448 8.11973
50.9424 7.97098
51.1402 7.84169
51.3381 7.69048
51.5362 7.58774
51.7344 7.46567
51.9328 7.29485
52.1316 7.21818
52.3304 7.13077
52.5293 6.98038
52.7284 6.87274
52.9276 6.76951
53.1271 6.64978
53.3267 6.54612
53.5265 6.41566
53.7264 6.36355
53.9266 6.17234
54.1269 6.08951
54.3274 5.9944
54.528 5.81898
54.7289 5.68116
54.9301 5.53247
55.1314 5.38858
55.3328 5.13229
55.5344 4.99367
55.7361 4.81958