File: XRD/Ni3Fe_FD0743.xy
TT I
1.27165 7.51048
1.45013 5.9751
1.62863 5.62302
1.80712 4.42131
1.98562 4.60329
2.16411 5.25919
2.34263 5.56119
2.52115 6.7895
2.69965 8.48459
2.87818 9.38943
3.05672 11.4387
3.23527 15.178
3.4138 19.039
3.59237 23.8955
3.77094 26.622
3.9495 29.6881
4.12809 34.9999
4.30669 227.158
4.4853 66.1085
4.6639 55.3145
4.84253 66.9569
5.02118 85.6445
5.19981 316.557
5.37848 184.951
5.55716 101.785
5.73586 91.299
5.91455 92.9014
6.09328 4550.34
6.27201 82.58
6.45075 66.6518
6.62952 62.6727
6.8083 58.4442
6.98711 55.9699
7.16591 54.9114
7.34475 92.5603
7.5236 54.5411
7.70247 55.94
7.88135 57.932
8.06026 61.9034
8.23919 69.2352
8.41812 84.5569
8.59709 1150.83
8.77609 98.4407
8.9551 91.8893
9.13412 81.428
9.31318 82.2811
9.49226 84.129
9.67134 97.9216
9.85047 99.1265
10.0296 319.624
10.2088 411.953
10.388 103.668
10.5672 513.792
10.7465 86.1234
10.9257 78.2144
11.105 71.49
11.2844 70.5197
11.4637 64.613
11.6431 63.4608
11.8225 62.1094
12.002 63.3846
12.1814 151.09
12.3609 70.5315
12.5405 64.2202
12.72 69.6871
12.8996 70.3253
13.0792 77.8967
13.2589 233.632
13.4386 126.595
13.6183 243.364
13.7981 97.9317
13.9779 75.6148
14.1577 72.1744
14.3376 71.3033
14.5175 68.644
14.6974 69.8671
14.8774 108.094
15.0574 151.618
15.2374 70.8642
15.4175 66.0469
15.5976 65.2687
15.7778 92.944
15.958 156.74
16.1382 62.5266
16.3185 58.3707
16.4988 55.2356
16.6792 54.312
16.8596 54.984
17.04 55.4271
17.2205 66.0682
17.401 70.8771
17.5815 58.8475
17.7622 60.905
17.9428 72.3809
18.1237 139.138
18.3044 90.2655
18.4852 77.2532
18.666 60.2074
18.8469 57.7427
19.0278 56.6547
19.2088 59.0329
19.3898 76.1471
19.5709 53.9876
19.752 52.9714
19.9332 55.8001
20.1144 69.3635
20.2957 63.731
20.477 53.5773
20.6586 49.4072
20.84 48.6881
21.0215 48.1606
21.203 50.5532
21.3846 48.6352
21.5662 48.3787
21.7479 52.0464
21.9297 64.2968
22.1115 55.7818
22.2933 49.6755
22.4753 48.7077
22.6572 48.5745
22.8393 51.4345
23.0214 57.1105
23.2037 48.7282
23.3859 49.2422
23.5682 56.7987
23.7505 48.2291
23.9329 44.9422
24.1154 43.9119
24.2979 43.1622
24.4805 42.6642
24.6631 42.5585
24.8458 41.9898
25.0286 42.5451
25.2114 44.524
25.3943 44.3685
25.5773 40.7874
25.7605 40.4074
25.9436 40.6283
26.1268 41.4657
26.31 39.9047
26.4933 40.6052
26.6767 41.9078
26.8601 40.2317
27.0437 38.7708
27.2272 38.2919
27.4109 38.0758
27.5946 38.0515
27.7784 37.7428
27.9623 38.192
28.1462 38.6486
28.3304 37.0629
28.5145 35.9168
28.6987 35.4379
28.8829 35.2739
29.0673 34.5331
29.2517 34.2293
29.4361 34.05
29.6207 32.9647
29.8053 32.6385
29.99 32.4484
30.1748 32.3659
30.3597 32.118
30.5447 32.0527
30.7297 32.1204
30.915 31.4442
31.1002 31.0139
31.2855 30.7742
31.4708 30.6231
31.6563 30.2521
31.8418 29.9777
32.0275 29.7094
32.2132 29.2176
32.399 28.8535
32.5848 28.361
32.7708 27.9725
32.9569 27.9297
33.143 27.596
33.3293 27.2252
33.5158 26.8743
33.7022 26.3689
33.8887 26.1862
34.0753 25.8869
34.262 25.4961
34.4488 25.1399
34.6357 24.8954
34.8227 24.5484
35.0098 24.4116
35.1969 24.0181
35.3842 23.9426
35.5716 23.6716
35.759 23.4294
35.9468 23.0509
36.1345 22.7352
36.3222 22.5838
36.5101 22.3421
36.6981 22.0202
36.8861 21.693
37.0743 21.4884
37.2626 21.1875
37.451 20.9525
37.6395 20.7319
37.8281 20.362
38.0168 20.0952
38.2056 19.8985
38.3945 19.6041
38.5837 19.3654
38.7728 19.1486
38.9621 18.8501
39.1514 18.5859
39.3409 18.3923
39.5304 18.1725
39.7201 17.9796
39.9099 17.7663
40.0999 17.4746
40.2899 17.2868
40.48 17.0439
40.6703 16.9371
40.8607 16.6845
41.0512 16.4591
41.242 16.1981
41.4327 16.008
41.6236 15.7656
41.8146 15.5496
42.0057 15.3598
42.1969 15.1377
42.3882 14.9558
42.5797 14.8012
42.7713 14.5745
42.963 14.3528
43.1549 14.135
43.3468 13.9292
43.5389 13.754
43.7312 13.5625
43.9237 13.4485
44.1162 13.2051
44.3088 13.056
44.5016 12.8668
44.6945 12.6671
44.8875 12.5342
45.0806 12.3431
45.2739 12.111
45.4673 12.0364
45.6609 11.7982
45.8546 11.6655
46.0484 11.5063
46.2424 11.3269
46.4365 11.1404
46.631 11.0037
46.8254 10.8329
47.0199 10.7064
47.2146 10.4995
47.4095 10.361
47.6044 10.2078
47.7996 10.0481
47.9948 9.90571
48.1902 9.74682
48.3858 9.65804
48.5815 9.50398
48.7774 9.31537
48.9734 9.22399
49.1696 9.04737
49.3661 8.90144
49.5626 8.81118
49.7592 8.67445
49.956 8.53553
50.153 8.39691
50.3501 8.26159
50.5474 8.13005
50.7448 8.04462
50.9424 7.91702
51.1402 7.7691
51.3381 7.65105
51.5362 7.53062
51.7344 7.38763
51.9328 7.28236
52.1316 7.13955
52.3304 7.04224
52.5293 6.92706
52.7284 6.81656
52.9276 6.67329
53.1271 6.59503
53.3267 6.4978
53.5265 6.35797
53.7264 6.25185
53.9266 6.13757
54.1269 6.01773
54.3274 5.88113
54.528 5.76958
54.7289 5.59901
54.9301 5.44694
55.1314 5.34926
55.3328 5.10247
55.5344 4.94692
55.7361 4.78489