File: XRD/Ni3Fe_FD0898.xy
TT I
1.27165 7.0631
1.45013 6.25658
1.62863 4.78238
1.80712 4.51644
1.98562 4.9282
2.16411 5.32733
2.34263 5.68546
2.52115 7.47728
2.69965 8.62757
2.87818 8.9157
3.05672 11.5057
3.23527 15.1496
3.4138 18.6468
3.59237 23.4064
3.77094 25.8332
3.9495 29.4846
4.12809 34.2428
4.30669 171.729
4.4853 60.4617
4.6639 54.7822
4.84253 66.4891
5.02118 85.7667
5.19981 320.893
5.37848 168.442
5.55716 99.6029
5.73586 90.927
5.91455 92.2975
6.09328 4545.74
6.27201 79.828
6.45075 66.4943
6.62952 61.2634
6.8083 57.3722
6.98711 54.8744
7.16591 54.4516
7.34475 80.056
7.5236 54.0863
7.70247 55.3455
7.88135 57.108
8.06026 60.9695
8.23919 68.1854
8.41812 83.2056
8.59709 1185.73
8.77609 95.7852
8.9551 88.6002
9.13412 80.5394
9.31318 81.2399
9.49226 83.182
9.67134 95.1468
9.85047 97.8286
10.0296 321.882
10.2088 329.0
10.388 102.75
10.5672 537.325
10.7465 84.6527
10.9257 76.5861
11.105 70.3936
11.2844 68.4984
11.4637 63.5554
11.6431 62.6239
11.8225 61.4196
12.002 62.6219
12.1814 157.207
12.3609 67.1944
12.5405 63.2349
12.72 68.115
12.8996 69.9099
13.0792 77.8256
13.2589 238.988
13.4386 114.385
13.6183 254.916
13.7981 91.0076
13.9779 74.4246
14.1577 70.9795
14.3376 69.6517
14.5175 67.52
14.6974 69.058
14.8774 108.631
15.0574 135.747
15.2374 69.1134
15.4175 65.0495
15.5976 64.4729
15.7778 92.0863
15.958 148.122
16.1382 60.987
16.3185 57.3066
16.4988 54.2937
16.6792 53.4804
16.8596 54.0845
17.04 54.7953
17.2205 65.8245
17.401 67.7432
17.5815 57.9865
17.7622 60.3101
17.9428 71.8655
18.1237 139.356
18.3044 90.1229
18.4852 73.2646
18.666 59.0739
18.8469 56.8411
19.0278 55.7699
19.2088 58.282
19.3898 75.7017
19.5709 53.0509
19.752 52.3753
19.9332 55.15
20.1144 69.0721
20.2957 64.0145
20.477 52.199
20.6586 48.9682
20.84 48.0425
21.0215 47.743
21.203 50.1639
21.3846 47.9179
21.5662 47.867
21.7479 51.6885
21.9297 64.1304
22.1115 55.5905
22.2933 48.6168
22.4753 47.9958
22.6572 47.951
22.8393 51.1356
23.0214 56.3563
23.2037 47.8786
23.3859 48.7563
23.5682 56.9182
23.7505 47.1175
23.9329 44.3759
24.1154 43.3863
24.2979 42.5761
24.4805 42.2073
24.6631 42.0034
24.8458 41.5737
25.0286 42.0671
25.2114 43.9569
25.3943 43.8146
25.5773 40.0646
25.7605 39.5466
25.9436 40.1028
26.1268 40.9649
26.31 39.3493
26.4933 39.9534
26.6767 41.5816
26.8601 39.7309
27.0437 38.2296
27.2272 37.795
27.4109 37.6708
27.5946 37.6729
27.7784 37.1348
27.9623 37.9048
28.1462 38.1095
28.3304 36.5049
28.5145 35.3176
28.6987 34.9954
28.8829 34.9331
29.0673 33.9911
29.2517 33.6704
29.4361 33.5162
29.6207 32.5799
29.8053 32.4082
29.99 32.0816
30.1748 31.8602
30.3597 31.744
30.5447 31.6968
30.7297 31.7181
30.915 31.0372
31.1002 30.6787
31.2855 30.3345
31.4708 30.2542
31.6563 29.8468
31.8418 29.6498
32.0275 29.3715
32.2132 28.9277
32.399 28.2989
32.5848 27.9361
32.7708 27.7033
32.9569 27.4709
33.143 27.3583
33.3293 26.9114
33.5158 26.4637
33.7022 26.1186
33.8887 25.9034
34.0753 25.5344
34.262 25.2109
34.4488 24.9211
34.6357 24.5062
34.8227 24.3132
35.0098 24.0995
35.1969 23.7277
35.3842 23.4936
35.5716 23.3889
35.759 23.0789
35.9468 22.6875
36.1345 22.4973
36.3222 22.2343
36.5101 22.1082
36.6981 21.7209
36.8861 21.4455
37.0743 21.1195
37.2626 20.9004
37.451 20.6258
37.6395 20.4255
37.8281 20.1513
38.0168 19.843
38.2056 19.5928
38.3945 19.3771
38.5837 19.1501
38.7728 18.8553
38.9621 18.6262
39.1514 18.3738
39.3409 18.1585
39.5304 17.8919
39.7201 17.7783
39.9099 17.5477
40.0999 17.2864
40.2899 17.0738
40.48 16.831
40.6703 16.6592
40.8607 16.412
41.0512 16.2492
41.242 15.9952
41.4327 15.7734
41.6236 15.5696
41.8146 15.376
42.0057 15.1683
42.1969 14.9516
42.3882 14.766
42.5797 14.588
42.7713 14.349
42.963 14.1912
43.1549 13.9887
43.3468 13.7838
43.5389 13.5637
43.7312 13.4078
43.9237 13.2191
44.1162 13.0329
44.3088 12.8645
44.5016 12.6987
44.6945 12.5292
44.8875 12.3242
45.0806 12.1403
45.2739 11.957
45.4673 11.8214
45.6609 11.6237
45.8546 11.4822
46.0484 11.3019
46.2424 11.1727
46.4365 11.0274
46.631 10.8589
46.8254 10.696
47.0199 10.5255
47.2146 10.4091
47.4095 10.1873
47.6044 10.0893
47.7996 9.92104
47.9948 9.78364
48.1902 9.63899
48.3858 9.49518
48.5815 9.35365
48.7774 9.22098
48.9734 9.08155
49.1696 8.95166
49.3661 8.79782
49.5626 8.67157
49.7592 8.54059
49.956 8.42911
50.153 8.28403
50.3501 8.16051
50.5474 8.04971
50.7448 7.92066
50.9424 7.83249
51.1402 7.68054
51.3381 7.53439
51.5362 7.44573
51.7344 7.31141
51.9328 7.17737
52.1316 7.04204
52.3304 6.95849
52.5293 6.81851
52.7284 6.72634
52.9276 6.61329
53.1271 6.48347
53.3267 6.41584
53.5265 6.29979
53.7264 6.18795
53.9266 6.07704
54.1269 5.97033
54.3274 5.86604
54.528 5.69622
54.7289 5.54523
54.9301 5.37904
55.1314 5.30593
55.3328 5.05186
55.5344 4.87046
55.7361 4.73928