File: XRD/Ni3Fe_FD0181.xy
TT I
1.27165 8.28845
1.45013 6.33829
1.62863 5.7508
1.80712 5.15284
1.98562 5.15963
2.16411 4.40404
2.34263 4.08012
2.52115 4.43118
2.69965 6.25866
2.87818 7.71279
3.05672 11.555
3.23527 15.0179
3.4138 18.7429
3.59237 21.8904
3.77094 25.5079
3.9495 28.9818
4.12809 33.556
4.30669 38.0304
4.4853 45.0738
4.6639 54.0922
4.84253 66.5546
5.02118 90.6216
5.19981 517.063
5.37848 407.313
5.55716 107.739
5.73586 95.3682
5.91455 104.439
6.09328 2871.89
6.27201 88.2084
6.45075 66.7031
6.62952 60.2714
6.8083 56.0573
6.98711 53.5554
7.16591 52.7635
7.34475 52.3911
7.5236 55.7198
7.70247 54.3435
7.88135 56.3853
8.06026 61.1629
8.23919 68.4676
8.41812 83.6561
8.59709 921.864
8.77609 114.526
8.9551 85.4708
9.13412 81.8231
9.31318 86.0787
9.49226 84.1663
9.67134 89.0922
9.85047 99.0537
10.0296 533.499
10.2088 937.441
10.388 104.706
10.5672 345.272
10.7465 90.3729
10.9257 76.1745
11.105 70.8198
11.2844 66.3957
11.4637 63.6893
11.6431 62.5793
11.8225 61.5606
12.002 65.2426
12.1814 121.549
12.3609 74.0875
12.5405 63.4728
12.72 65.7637
12.8996 70.3663
13.0792 79.3759
13.2589 209.871
13.4386 200.942
13.6183 199.323
13.7981 149.876
13.9779 76.4579
14.1577 74.1537
14.3376 69.4426
14.5175 68.6322
14.6974 70.0654
14.8774 121.598
15.0574 204.874
15.2374 69.4398
15.4175 66.5175
15.5976 65.8194
15.7778 107.581
15.958 187.169
16.1382 61.9397
16.3185 57.613
16.4988 55.3126
16.6792 54.6433
16.8596 54.7708
17.04 55.7603
17.2205 65.9154
17.401 81.7318
17.5815 59.3686
17.7622 61.5534
17.9428 83.6813
18.1237 118.626
18.3044 89.4227
18.4852 94.7459
18.666 61.1124
18.8469 58.5036
19.0278 57.2199
19.2088 62.0079
19.3898 70.0436
19.5709 56.4921
19.752 53.7397
19.9332 58.4474
20.1144 67.9277
20.2957 61.6224
20.477 58.9435
20.6586 50.202
20.84 49.2879
21.0215 49.4069
21.203 50.2813
21.3846 50.7673
21.5662 49.271
21.7479 54.4403
21.9297 63.1626
22.1115 56.8577
22.2933 52.711
22.4753 49.2482
22.6572 49.5119
22.8393 52.558
23.0214 57.7846
23.2037 50.1682
23.3859 52.0771
23.5682 54.4144
23.7505 53.3665
23.9329 46.0457
24.1154 44.6969
24.2979 43.947
24.4805 43.2642
24.6631 43.4835
24.8458 42.9363
25.0286 43.4166
25.2114 45.1837
25.3943 45.3843
25.5773 42.0851
25.7605 41.0718
25.9436 41.3582
26.1268 42.0902
26.31 41.1809
26.4933 41.3208
26.6767 42.5174
26.8601 41.6441
27.0437 39.8801
27.2272 39.3458
27.4109 38.982
27.5946 38.9874
27.7784 38.8329
27.9623 38.7703
28.1462 39.686
28.3304 38.3831
28.5145 36.6822
28.6987 36.1817
28.8829 35.9304
29.0673 35.3844
29.2517 34.8613
29.4361 34.5997
29.6207 33.8397
29.8053 33.4101
29.99 33.14
30.1748 32.8655
30.3597 32.9705
30.5447 32.7334
30.7297 32.7387
30.915 32.38
31.1002 31.6866
31.2855 31.3693
31.4708 31.2863
31.6563 31.0745
31.8418 30.5441
32.0275 30.451
32.2132 30.038
32.399 29.374
32.5848 28.9958
32.7708 28.5824
32.9569 28.4717
33.143 28.2351
33.3293 27.9253
33.5158 27.6124
33.7022 27.0165
33.8887 26.8072
34.0753 26.456
34.262 26.0527
34.4488 25.7734
34.6357 25.4819
34.8227 25.177
35.0098 24.9137
35.1969 24.6061
35.3842 24.4544
35.5716 24.1798
35.759 23.9122
35.9468 23.5009
36.1345 23.3651
36.3222 23.1056
36.5101 22.8084
36.6981 22.4865
36.8861 22.1326
37.0743 21.8751
37.2626 21.5811
37.451 21.3326
37.6395 21.197
37.8281 20.9043
38.0168 20.5139
38.2056 20.2234
38.3945 20.0766
38.5837 19.793
38.7728 19.5466
38.9621 19.2421
39.1514 19.0274
39.3409 18.8262
39.5304 18.5035
39.7201 18.3931
39.9099 18.158
40.0999 17.9126
40.2899 17.6683
40.48 17.4053
40.6703 17.2381
40.8607 17.0354
41.0512 16.7865
41.242 16.5513
41.4327 16.3286
41.6236 16.0927
41.8146 15.9167
42.0057 15.5936
42.1969 15.4851
42.3882 15.2885
42.5797 15.1031
42.7713 14.8535
42.963 14.6612
43.1549 14.4001
43.3468 14.2482
43.5389 14.0552
43.7312 13.8761
43.9237 13.638
44.1162 13.5005
44.3088 13.2995
44.5016 13.1355
44.6945 12.9425
44.8875 12.7613
45.0806 12.5791
45.2739 12.3435
45.4673 12.2425
45.6609 12.044
45.8546 11.8946
46.0484 11.6673
46.2424 11.5505
46.4365 11.3906
46.631 11.2069
46.8254 11.0309
47.0199 10.9059
47.2146 10.6886
47.4095 10.525
47.6044 10.4241
47.7996 10.2414
47.9948 10.1167
48.1902 9.96405
48.3858 9.80155
48.5815 9.68919
48.7774 9.52248
48.9734 9.42882
49.1696 9.2645
49.3661 9.1299
49.5626 8.94772
49.7592 8.81764
49.956 8.7163
50.153 8.56653
50.3501 8.45424
50.5474 8.33246
50.7448 8.20826
50.9424 8.08111
51.1402 7.93615
51.3381 7.78871
51.5362 7.68881
51.7344 7.55809
51.9328 7.45452
52.1316 7.29892
52.3304 7.15315
52.5293 7.05645
52.7284 7.00956
52.9276 6.84224
53.1271 6.69399
53.3267 6.60331
53.5265 6.506
53.7264 6.38482
53.9266 6.2653
54.1269 6.12637
54.3274 6.05714
54.528 5.8161
54.7289 5.70344
54.9301 5.51339
55.1314 5.37815
55.3328 5.15602
55.5344 4.9262
55.7361 4.87913