File: XRD/Ni3Fe_FD0073.xy
TT I
1.27165 18.2493
1.45013 13.8962
1.62863 12.4011
1.80712 11.1713
1.98562 10.4049
2.16411 9.73222
2.34263 9.6652
2.52115 9.18798
2.69965 11.4009
2.87818 14.093
3.05672 24.1454
3.23527 25.0894
3.4138 19.7073
3.59237 20.0055
3.77094 21.4653
3.9495 24.5073
4.12809 27.7367
4.30669 34.0671
4.4853 38.7835
4.6639 46.3717
4.84253 59.5551
5.02118 99.805
5.19981 542.631
5.37848 2086.17
5.55716 129.247
5.73586 99.533
5.91455 123.164
6.09328 875.484
6.27201 141.72
6.45075 61.3919
6.62952 49.9155
6.8083 45.0127
6.98711 43.4625
7.16591 43.0493
7.34475 42.2007
7.5236 74.7451
7.70247 45.2583
7.88135 43.6573
8.06026 46.8933
8.23919 53.2185
8.41812 70.5531
8.59709 305.655
8.77609 202.299
8.9551 74.4282
9.13412 70.5826
9.31318 207.66
9.49226 66.9183
9.67134 68.6709
9.85047 78.0722
10.0296 294.686
10.2088 1032.67
10.388 92.5594
10.5672 118.595
10.7465 129.269
10.9257 58.8737
11.105 52.9163
11.2844 49.831
11.4637 47.3436
11.6431 46.6924
11.8225 46.9398
12.002 103.859
12.1814 60.5816
12.3609 81.6121
12.5405 47.527
12.72 47.593
12.8996 50.8051
13.0792 62.0725
13.2589 93.0169
13.4386 241.524
13.6183 89.3907
13.7981 193.256
13.9779 58.7499
14.1577 87.2779
14.3376 52.5914
14.5175 50.3205
14.6974 50.9335
14.8774 69.7407
15.0574 121.396
15.2374 55.1743
15.4175 48.5134
15.5976 48.0976
15.7778 63.872
15.958 92.3423
16.1382 59.9684
16.3185 42.8685
16.4988 40.538
16.6792 39.6394
16.8596 39.9924
17.04 42.6775
17.2205 42.9908
17.401 53.4112
17.5815 43.1996
17.7622 46.4952
17.9428 54.8404
18.1237 55.3242
18.3044 70.9292
18.4852 71.8374
18.666 47.0024
18.8469 42.5498
19.0278 41.3574
19.2088 43.2931
19.3898 49.7999
19.5709 46.015
19.752 38.8376
19.9332 40.3376
20.1144 41.2532
20.2957 44.0801
20.477 46.2727
20.6586 36.6414
20.84 37.961
21.0215 35.3839
21.203 34.7843
21.3846 36.9189
21.5662 35.4791
21.7479 36.8421
21.9297 37.9363
22.1115 42.9317
22.2933 40.2573
22.4753 35.3833
22.6572 35.2426
22.8393 36.564
23.0214 36.6247
23.2037 38.1172
23.3859 36.6933
23.5682 35.4938
23.7505 41.3163
23.9329 33.6054
24.1154 32.613
24.2979 31.555
24.4805 31.2181
24.6631 31.5858
24.8458 30.7224
25.0286 30.5484
25.2114 30.8501
25.3943 31.393
25.5773 31.2901
25.7605 29.4515
25.9436 29.3076
26.1268 29.1099
26.31 29.9147
26.4933 28.9793
26.6767 29.0152
26.8601 30.1929
27.0437 29.0729
27.2272 28.0886
27.4109 27.8574
27.5946 27.6153
27.7784 27.8607
27.9623 27.3041
28.1462 27.4689
28.3304 27.3727
28.5145 26.5579
28.6987 25.9409
28.8829 25.5514
29.0673 25.4436
29.2517 24.9847
29.4361 24.6664
29.6207 24.4757
29.8053 24.0019
29.99 23.7085
30.1748 23.5404
30.3597 23.5259
30.5447 23.1407
30.7297 23.0502
30.915 23.2554
31.1002 22.8991
31.2855 22.4976
31.4708 22.317
31.6563 22.1854
31.8418 21.8242
32.0275 21.6689
32.2132 21.5913
32.399 21.1741
32.5848 20.8281
32.7708 20.5447
32.9569 20.5123
33.143 20.2046
33.3293 20.0144
33.5158 19.9289
33.7022 19.443
33.8887 19.2256
34.0753 18.9738
34.262 18.7096
34.4488 18.4673
34.6357 18.2483
34.8227 17.9904
35.0098 17.8635
35.1969 17.6318
35.3842 17.4472
35.5716 17.3181
35.759 17.1645
35.9468 16.7576
36.1345 16.6732
36.3222 16.4766
36.5101 16.3663
36.6981 16.0931
36.8861 15.8814
37.0743 15.6545
37.2626 15.4738
37.451 15.2761
37.6395 15.1665
37.8281 14.9323
38.0168 14.7415
38.2056 14.5448
38.3945 14.3491
38.5837 14.1534
38.7728 13.9828
38.9621 13.8089
39.1514 13.5617
39.3409 13.4309
39.5304 13.2832
39.7201 13.113
39.9099 12.9448
40.0999 12.7863
40.2899 12.6594
40.48 12.4638
40.6703 12.3629
40.8607 12.1454
41.0512 11.9875
41.242 11.8358
41.4327 11.6842
41.6236 11.47
41.8146 11.3933
42.0057 11.2775
42.1969 11.053
42.3882 10.973
42.5797 10.7418
42.7713 10.6715
42.963 10.5034
43.1549 10.3533
43.3468 10.2505
43.5389 10.0699
43.7312 9.92806
43.9237 9.84546
44.1162 9.66617
44.3088 9.56639
44.5016 9.3887
44.6945 9.31282
44.8875 9.13597
45.0806 8.99993
45.2739 8.86071
45.4673 8.76662
45.6609 8.65919
45.8546 8.55372
46.0484 8.43461
46.2424 8.30116
46.4365 8.20702
46.631 8.03781
46.8254 7.93607
47.0199 7.83621
47.2146 7.70343
47.4095 7.58616
47.6044 7.46746
47.7996 7.37752
47.9948 7.27229
48.1902 7.14645
48.3858 7.07983
48.5815 6.95058
48.7774 6.89202
48.9734 6.74406
49.1696 6.64233
49.3661 6.57405
49.5626 6.47483
49.7592 6.34809
49.956 6.27124
50.153 6.18467
50.3501 6.08069
50.5474 5.99715
50.7448 5.89305
50.9424 5.81845
51.1402 5.71563
51.3381 5.60798
51.5362 5.55652
51.7344 5.47558
51.9328 5.30657
52.1316 5.23456
52.3304 5.17865
52.5293 5.10569
52.7284 4.98117
52.9276 4.9296
53.1271 4.85048
53.3267 4.76646
53.5265 4.69983
53.7264 4.60254
53.9266 4.52175
54.1269 4.42445
54.3274 4.3254
54.528 4.14466
54.7289 4.0124
54.9301 3.84654
55.1314 3.78944
55.3328 3.66808
55.5344 3.47107
55.7361 3.38567