File: XRD/Ni3Fe_FD0391.xy
TT I
1.27165 7.44551
1.45013 6.52723
1.62863 4.97122
1.80712 4.95822
1.98562 4.58231
2.16411 4.70445
2.34263 5.29791
2.52115 6.7717
2.69965 7.5535
2.87818 8.79537
3.05672 11.2665
3.23527 14.8088
3.4138 19.5845
3.59237 24.132
3.77094 26.7157
3.9495 30.5565
4.12809 35.5941
4.30669 224.891
4.4853 67.0381
4.6639 56.4975
4.84253 68.318
5.02118 89.5465
5.19981 451.815
5.37848 224.391
5.55716 105.546
5.73586 95.1881
5.91455 98.8973
6.09328 3997.23
6.27201 86.7017
6.45075 69.4119
6.62952 64.4199
6.8083 60.1104
6.98711 57.2811
7.16591 56.5714
7.34475 94.4923
7.5236 55.9749
7.70247 57.4943
7.88135 59.0849
8.06026 64.2189
8.23919 71.0885
8.41812 87.9514
8.59709 1132.34
8.77609 104.79
8.9551 94.2256
9.13412 84.0035
9.31318 84.9976
9.49226 86.813
9.67134 101.395
9.85047 102.56
10.0296 380.447
10.2088 502.106
10.388 108.023
10.5672 475.594
10.7465 89.2808
10.9257 80.6301
11.105 73.8587
11.2844 72.2242
11.4637 66.6035
11.6431 65.1052
11.8225 64.158
12.002 65.2674
12.1814 148.806
12.3609 73.4938
12.5405 66.184
12.72 71.9424
12.8996 72.6923
13.0792 81.0458
13.2589 234.203
13.4386 138.762
13.6183 237.434
13.7981 106.323
13.9779 77.7181
14.1577 74.5523
14.3376 73.512
14.5175 70.3539
14.6974 72.2962
14.8774 113.48
15.0574 163.516
15.2374 73.226
15.4175 67.9033
15.5976 67.5955
15.7778 97.4877
15.958 169.32
16.1382 64.7888
16.3185 60.3271
16.4988 57.0627
16.6792 55.898
16.8596 56.7824
17.04 57.4553
17.2205 67.8311
17.401 74.8086
17.5815 60.7817
17.7622 62.8382
17.9428 76.5596
18.1237 137.302
18.3044 90.7282
18.4852 81.9822
18.666 62.0475
18.8469 59.3667
19.0278 58.5249
19.2088 61.2273
19.3898 77.0172
19.5709 55.7287
19.752 54.7045
19.9332 57.9864
20.1144 70.5253
20.2957 64.4249
20.477 55.7892
20.6586 50.8023
20.84 50.2399
21.0215 49.9038
21.203 51.7505
21.3846 50.3899
21.5662 49.9852
21.7479 53.9854
21.9297 65.5488
22.1115 57.139
22.2933 51.4803
22.4753 50.1669
22.6572 50.166
22.8393 53.0654
23.0214 58.8361
23.2037 50.1194
23.3859 51.1181
23.5682 57.3643
23.7505 50.1227
23.9329 46.4116
24.1154 45.2046
24.2979 44.5778
24.4805 44.1207
24.6631 43.966
24.8458 43.3306
25.0286 43.8932
25.2114 45.7932
25.3943 45.6668
25.5773 41.9934
25.7605 41.5416
25.9436 41.8047
26.1268 42.7086
26.31 41.1505
26.4933 41.7471
26.6767 43.0393
26.8601 41.5516
27.0437 40.0874
27.2272 39.4867
27.4109 39.3656
27.5946 39.3696
27.7784 38.8748
27.9623 39.2798
28.1462 39.7121
28.3304 38.2521
28.5145 36.9335
28.6987 36.4985
28.8829 36.3689
29.0673 35.4765
29.2517 35.1954
29.4361 34.9157
29.6207 34.0351
29.8053 33.762
29.99 33.3591
30.1748 33.2403
30.3597 33.1431
30.5447 33.0313
30.7297 33.0512
30.915 32.4204
31.1002 31.9436
31.2855 31.7132
31.4708 31.5496
31.6563 31.1712
31.8418 30.8405
32.0275 30.6035
32.2132 30.227
32.399 29.6391
32.5848 29.1649
32.7708 28.8488
32.9569 28.6538
33.143 28.4394
33.3293 28.0935
33.5158 27.8449
33.7022 27.2412
33.8887 26.9511
34.0753 26.6813
34.262 26.2809
34.4488 25.9495
34.6357 25.6354
34.8227 25.292
35.0098 25.1555
35.1969 24.8394
35.3842 24.5701
35.5716 24.3299
35.759 24.083
35.9468 23.6952
36.1345 23.5178
36.3222 23.2159
36.5101 23.0031
36.6981 22.6845
36.8861 22.3168
37.0743 22.0496
37.2626 21.818
37.451 21.4914
37.6395 21.3516
37.8281 20.9806
38.0168 20.7057
38.2056 20.4903
38.3945 20.1928
38.5837 19.8326
38.7728 19.6827
38.9621 19.4369
39.1514 19.112
39.3409 18.9547
39.5304 18.6676
39.7201 18.4428
39.9099 18.1955
40.0999 18.0587
40.2899 17.7825
40.48 17.5308
40.6703 17.3973
40.8607 17.1434
41.0512 16.9547
41.242 16.6614
41.4327 16.4046
41.6236 16.2232
41.8146 16.0361
42.0057 15.8517
42.1969 15.6503
42.3882 15.3822
42.5797 15.192
42.7713 14.9944
42.963 14.7483
43.1549 14.5697
43.3468 14.3963
43.5389 14.2032
43.7312 13.9268
43.9237 13.7847
44.1162 13.5856
44.3088 13.4103
44.5016 13.2224
44.6945 13.0258
44.8875 12.8457
45.0806 12.6312
45.2739 12.5331
45.4673 12.3313
45.6609 12.1275
45.8546 11.9857
46.0484 11.8108
46.2424 11.6567
46.4365 11.4581
46.631 11.3249
46.8254 11.1282
47.0199 10.9881
47.2146 10.7802
47.4095 10.6492
47.6044 10.4606
47.7996 10.3568
47.9948 10.1926
48.1902 10.0457
48.3858 9.93882
48.5815 9.76637
48.7774 9.60364
48.9734 9.50615
49.1696 9.32546
49.3661 9.16161
49.5626 9.01974
49.7592 8.9141
49.956 8.79004
50.153 8.64755
50.3501 8.52016
50.5474 8.36798
50.7448 8.26354
50.9424 8.13536
51.1402 8.00585
51.3381 7.87463
51.5362 7.75705
51.7344 7.6178
51.9328 7.46914
52.1316 7.32668
52.3304 7.23458
52.5293 7.12021
52.7284 6.98926
52.9276 6.86804
53.1271 6.76849
53.3267 6.70205
53.5265 6.53597
53.7264 6.4547
53.9266 6.3392
54.1269 6.2296
54.3274 6.0885
54.528 5.95219
54.7289 5.78225
54.9301 5.58655
55.1314 5.52336
55.3328 5.27442
55.5344 5.07692
55.7361 4.93541