File: XRD/Ni3Fe_FD0622.xy
TT I
1.27165 7.40796
1.45013 6.38455
1.62863 5.05036
1.80712 4.43067
1.98562 4.16399
2.16411 4.65367
2.34263 5.14689
2.52115 6.93031
2.69965 8.00412
2.87818 9.0777
3.05672 11.2464
3.23527 14.9407
3.4138 19.7565
3.59237 24.1351
3.77094 26.4096
3.9495 29.9942
4.12809 35.0134
4.30669 218.373
4.4853 65.4292
4.6639 55.7933
4.84253 67.2732
5.02118 87.0973
5.19981 348.405
5.37848 195.9
5.55716 102.689
5.73586 92.3121
5.91455 94.2316
6.09328 4378.5
6.27201 83.7606
6.45075 67.4669
6.62952 63.2564
6.8083 58.8675
6.98711 56.1209
7.16591 55.6884
7.34475 92.6096
7.5236 55.096
7.70247 56.3356
7.88135 58.1088
8.06026 62.187
8.23919 70.2454
8.41812 85.346
8.59709 1168.75
8.77609 100.51
8.9551 91.6904
9.13412 82.0662
9.31318 82.8588
9.49226 85.059
9.67134 99.1715
9.85047 100.299
10.0296 337.327
10.2088 426.305
10.388 105.036
10.5672 503.928
10.7465 87.111
10.9257 78.6579
11.105 72.0197
11.2844 70.7778
11.4637 65.1596
11.6431 63.6344
11.8225 62.6184
12.002 64.035
12.1814 152.117
12.3609 71.2588
12.5405 64.9298
12.72 70.2008
12.8996 71.1119
13.0792 78.9455
13.2589 236.827
13.4386 129.222
13.6183 246.966
13.7981 100.316
13.9779 76.1323
14.1577 72.8005
14.3376 71.8614
14.5175 68.8096
14.6974 70.7687
14.8774 110.592
15.0574 152.053
15.2374 71.5529
15.4175 66.7775
15.5976 66.2081
15.7778 94.7641
15.958 157.011
16.1382 63.112
16.3185 58.98
16.4988 55.8655
16.6792 54.8265
16.8596 55.4416
17.04 55.9698
17.2205 67.1159
17.401 73.1163
17.5815 59.5561
17.7622 61.6056
17.9428 73.8259
18.1237 138.72
18.3044 90.8539
18.4852 78.8648
18.666 60.7405
18.8469 58.2732
19.0278 57.3577
19.2088 59.9813
19.3898 76.6135
19.5709 54.697
19.752 53.5723
19.9332 56.3698
20.1144 69.8561
20.2957 64.1548
20.477 54.1894
20.6586 49.811
20.84 49.0154
21.0215 48.8771
21.203 51.0585
21.3846 49.2094
21.5662 49.0445
21.7479 52.8095
21.9297 64.6437
22.1115 56.4249
22.2933 50.2545
22.4753 49.2879
22.6572 49.2072
22.8393 52.1504
23.0214 57.6295
23.2037 49.0355
23.3859 49.9635
23.5682 56.9861
23.7505 48.7334
23.9329 45.3788
24.1154 44.2929
24.2979 43.5706
24.4805 43.1754
24.6631 43.0969
24.8458 42.5288
25.0286 42.9805
25.2114 44.8271
25.3943 44.8789
25.5773 41.1799
25.7605 40.696
25.9436 41.0322
26.1268 42.0697
26.31 40.2555
26.4933 40.9212
26.6767 42.378
26.8601 40.6609
27.0437 39.0268
27.2272 38.773
27.4109 38.5009
27.5946 38.6133
27.7784 38.0994
27.9623 38.5994
28.1462 39.0506
28.3304 37.5165
28.5145 36.1686
28.6987 35.683
28.8829 35.5867
29.0673 34.8142
29.2517 34.5618
29.4361 34.3248
29.6207 33.3459
29.8053 33.0608
29.99 32.7586
30.1748 32.5578
30.3597 32.4069
30.5447 32.3845
30.7297 32.3487
30.915 31.6923
31.1002 31.3123
31.2855 31.0722
31.4708 31.0358
31.6563 30.5822
31.8418 30.3147
32.0275 30.0732
32.2132 29.5136
32.399 29.0988
32.5848 28.647
32.7708 28.3072
32.9569 28.2144
33.143 27.8752
33.3293 27.5288
33.5158 27.1967
33.7022 26.6209
33.8887 26.4461
34.0753 26.1981
34.262 25.8076
34.4488 25.5114
34.6357 25.092
34.8227 24.8448
35.0098 24.6174
35.1969 24.3672
35.3842 24.1382
35.5716 23.9529
35.759 23.5754
35.9468 23.2304
36.1345 23.0272
36.3222 22.7714
36.5101 22.5996
36.6981 22.2055
36.8861 21.8746
37.0743 21.548
37.2626 21.4602
37.451 21.0853
37.6395 20.8793
37.8281 20.657
38.0168 20.325
38.2056 20.1257
38.3945 19.8064
38.5837 19.5227
38.7728 19.311
38.9621 19.0651
39.1514 18.8203
39.3409 18.5383
39.5304 18.3403
39.7201 18.1434
39.9099 17.9342
40.0999 17.675
40.2899 17.4748
40.48 17.1653
40.6703 16.9985
40.8607 16.8389
41.0512 16.6367
41.242 16.3762
41.4327 16.1555
41.6236 15.9393
41.8146 15.719
42.0057 15.525
42.1969 15.2993
42.3882 15.1357
42.5797 14.9168
42.7713 14.7504
42.963 14.5348
43.1549 14.3296
43.3468 14.0887
43.5389 13.9192
43.7312 13.6995
43.9237 13.5635
44.1162 13.38
44.3088 13.2025
44.5016 12.9815
44.6945 12.8261
44.8875 12.6714
45.0806 12.4422
45.2739 12.291
45.4673 12.1213
45.6609 11.9081
45.8546 11.7531
46.0484 11.6076
46.2424 11.4313
46.4365 11.2771
46.631 11.0684
46.8254 10.8952
47.0199 10.775
47.2146 10.61
47.4095 10.4591
47.6044 10.2766
47.7996 10.1257
47.9948 9.97155
48.1902 9.83181
48.3858 9.73378
48.5815 9.58463
48.7774 9.44441
48.9734 9.32408
49.1696 9.14539
49.3661 8.98842
49.5626 8.82279
49.7592 8.7527
49.956 8.63787
50.153 8.48406
50.3501 8.32402
50.5474 8.20987
50.7448 8.09093
50.9424 7.95743
51.1402 7.87625
51.3381 7.74512
51.5362 7.62057
51.7344 7.48683
51.9328 7.32961
52.1316 7.20993
52.3304 7.09867
52.5293 7.00663
52.7284 6.88761
52.9276 6.75687
53.1271 6.6776
53.3267 6.57636
53.5265 6.3946
53.7264 6.32265
53.9266 6.17727
54.1269 6.06811
54.3274 5.94314
54.528 5.89947
54.7289 5.71552
54.9301 5.54304
55.1314 5.39919
55.3328 5.15559
55.5344 4.97622
55.7361 4.88008