File: XRD/Ni3Fe_FD0407.xy
TT I
1.27165 7.34821
1.45013 6.46871
1.62863 5.207
1.80712 5.05565
1.98562 5.35899
2.16411 5.46292
2.34263 5.66552
2.52115 6.31825
2.69965 7.36092
2.87818 8.84955
3.05672 11.0833
3.23527 14.6487
3.4138 19.3395
3.59237 25.1324
3.77094 26.6024
3.9495 30.3732
4.12809 35.5979
4.30669 266.625
4.4853 71.3221
4.6639 56.0035
4.84253 68.1452
5.02118 88.505
5.19981 427.218
5.37848 224.927
5.55716 104.898
5.73586 94.4468
5.91455 97.295
6.09328 3913.16
6.27201 87.3455
6.45075 68.9725
6.62952 64.7417
6.8083 59.9265
6.98711 57.2761
7.16591 56.979
7.34475 103.753
7.5236 56.0091
7.70247 57.5974
7.88135 59.0592
8.06026 63.7991
8.23919 70.9697
8.41812 87.5983
8.59709 1086.16
8.77609 104.369
8.9551 95.2193
9.13412 83.5943
9.31318 84.1547
9.49226 86.1516
9.67134 102.936
9.85047 102.192
10.0296 363.526
10.2088 512.232
10.388 107.552
10.5672 474.034
10.7465 88.818
10.9257 80.6967
11.105 73.3128
11.2844 73.0567
11.4637 66.3605
11.6431 65.2339
11.8225 63.6429
12.002 64.9324
12.1814 143.996
12.3609 74.489
12.5405 66.0592
12.72 72.5823
12.8996 72.745
13.0792 80.7206
13.2589 225.533
13.4386 138.627
13.6183 229.502
13.7981 106.53
13.9779 77.3849
14.1577 74.3671
14.3376 73.6614
14.5175 70.2438
14.6974 72.1482
14.8774 110.632
15.0574 166.822
15.2374 73.6532
15.4175 67.9863
15.5976 67.5391
15.7778 95.6968
15.958 171.379
16.1382 65.0304
16.3185 60.2571
16.4988 56.8028
16.6792 55.9894
16.8596 56.4278
17.04 57.1993
17.2205 67.088
17.401 74.3913
17.5815 60.5543
17.7622 62.5793
17.9428 75.6565
18.1237 137.272
18.3044 89.6297
18.4852 82.929
18.666 61.938
18.8469 59.2417
19.0278 58.4903
19.2088 61.0301
19.3898 77.4697
19.5709 55.6456
19.752 54.5002
19.9332 57.4802
20.1144 70.6511
20.2957 63.9128
20.477 55.9006
20.6586 50.8267
20.84 50.1117
21.0215 49.7562
21.203 51.8546
21.3846 50.2254
21.5662 49.7993
21.7479 53.6549
21.9297 65.5627
22.1115 57.1032
22.2933 51.4456
22.4753 50.1917
22.6572 49.9611
22.8393 52.7253
23.0214 58.9632
23.2037 50.1526
23.3859 50.8977
23.5682 57.2446
23.7505 50.0126
23.9329 46.217
24.1154 45.2559
24.2979 44.4959
24.4805 43.8872
24.6631 43.864
24.8458 43.3615
25.0286 43.7472
25.2114 45.7234
25.3943 45.6718
25.5773 42.0275
25.7605 41.4278
25.9436 41.8431
26.1268 42.7118
26.31 41.2068
26.4933 41.8036
26.6767 43.179
26.8601 41.4839
27.0437 39.9191
27.2272 39.4922
27.4109 39.3065
27.5946 39.2999
27.7784 38.897
27.9623 39.2176
28.1462 39.6797
28.3304 38.1394
28.5145 36.6713
28.6987 36.5372
28.8829 36.2519
29.0673 35.6555
29.2517 35.0971
29.4361 34.9442
29.6207 34.0215
29.8053 33.6608
29.99 33.2865
30.1748 33.1868
30.3597 32.9761
30.5447 32.9952
30.7297 32.9341
30.915 32.3851
31.1002 31.9258
31.2855 31.6881
31.4708 31.5563
31.6563 31.0861
31.8418 30.8858
32.0275 30.6006
32.2132 30.0457
32.399 29.5718
32.5848 29.1397
32.7708 28.8907
32.9569 28.6516
33.143 28.4017
33.3293 28.046
33.5158 27.7519
33.7022 27.2194
33.8887 26.9052
34.0753 26.6252
34.262 26.2559
34.4488 25.9471
34.6357 25.4957
34.8227 25.2574
35.0098 25.1177
35.1969 24.7454
35.3842 24.5214
35.5716 24.3419
35.759 24.0356
35.9468 23.6995
36.1345 23.4155
36.3222 23.166
36.5101 22.9611
36.6981 22.6199
36.8861 22.3305
37.0743 22.0905
37.2626 21.7691
37.451 21.5387
37.6395 21.3077
37.8281 20.9739
38.0168 20.6608
38.2056 20.4256
38.3945 20.082
38.5837 19.8899
38.7728 19.6689
38.9621 19.406
39.1514 19.1668
39.3409 18.8722
39.5304 18.6996
39.7201 18.4309
39.9099 18.2233
40.0999 18.0389
40.2899 17.7959
40.48 17.5078
40.6703 17.3211
40.8607 17.0886
41.0512 16.8883
41.242 16.6192
41.4327 16.4575
41.6236 16.1623
41.8146 16.0208
42.0057 15.7481
42.1969 15.5373
42.3882 15.3652
42.5797 15.1776
42.7713 14.98
42.963 14.7919
43.1549 14.5845
43.3468 14.3763
43.5389 14.1676
43.7312 13.9965
43.9237 13.7997
44.1162 13.5296
44.3088 13.4281
44.5016 13.2016
44.6945 13.044
44.8875 12.8723
45.0806 12.6667
45.2739 12.4813
45.4673 12.3315
45.6609 12.1106
45.8546 11.9843
46.0484 11.7553
46.2424 11.619
46.4365 11.4289
46.631 11.3039
46.8254 11.1023
47.0199 10.9619
47.2146 10.815
47.4095 10.6212
47.6044 10.4862
47.7996 10.321
47.9948 10.1645
48.1902 10.0395
48.3858 9.85956
48.5815 9.70802
48.7774 9.6171
48.9734 9.5098
49.1696 9.32981
49.3661 9.15233
49.5626 9.039
49.7592 8.90042
49.956 8.75371
50.153 8.64864
50.3501 8.50882
50.5474 8.3901
50.7448 8.22397
50.9424 8.10124
51.1402 8.00619
51.3381 7.87182
51.5362 7.74284
51.7344 7.59985
51.9328 7.47159
52.1316 7.3463
52.3304 7.22396
52.5293 7.10046
52.7284 7.00591
52.9276 6.86993
53.1271 6.77853
53.3267 6.69058
53.5265 6.52964
53.7264 6.43721
53.9266 6.33628
54.1269 6.18944
54.3274 6.06874
54.528 5.91939
54.7289 5.74519
54.9301 5.62551
55.1314 5.48561
55.3328 5.27809
55.5344 5.12282
55.7361 4.89398