File: XRD/Ni3Fe_FD0006.xy
TT I
1.27165 36.2547
1.45013 31.8264
1.62863 29.0125
1.80712 25.8788
1.98562 25.8076
2.16411 25.7981
2.34263 26.6904
2.52115 26.3334
2.69965 29.4504
2.87818 40.276
3.05672 66.1483
3.23527 81.452
3.4138 45.9457
3.59237 40.1568
3.77094 41.7909
3.9495 44.0749
4.12809 55.0472
4.30669 77.8549
4.4853 69.5128
4.6639 55.9659
4.84253 60.6452
5.02118 90.5612
5.19981 248.661
5.37848 4138.75
5.55716 164.904
5.73586 99.9185
5.91455 106.179
6.09328 395.747
6.27201 382.224
6.45075 73.5589
6.62952 54.5805
6.8083 51.7193
6.98711 48.3921
7.16591 51.9682
7.34475 69.8887
7.5236 63.8915
7.70247 53.5186
7.88135 39.2407
8.06026 39.8719
8.23919 43.8566
8.41812 54.1977
8.59709 138.233
8.77609 780.043
8.9551 81.8671
9.13412 58.0727
9.31318 232.567
9.49226 51.3144
9.67134 49.0776
9.85047 54.6382
10.0296 85.8071
10.2088 356.371
10.388 162.923
10.5672 87.6218
10.7465 303.21
10.9257 48.8292
11.105 40.767
11.2844 39.6406
11.4637 38.2948
11.6431 37.1448
11.8225 36.8072
12.002 61.2855
12.1814 45.6066
12.3609 83.7759
12.5405 46.8035
12.72 38.7533
12.8996 38.7798
13.0792 40.5661
13.2589 61.3114
13.4386 114.392
13.6183 107.1
13.7981 122.516
13.9779 74.286
14.1577 43.9993
14.3376 55.9973
14.5175 35.715
14.6974 35.4443
14.8774 39.4868
15.0574 53.8872
15.2374 121.818
15.4175 41.0487
15.5976 36.5272
15.7778 38.5007
15.958 49.6603
16.1382 138.473
16.3185 41.3904
16.4988 32.425
16.6792 30.4043
16.8596 30.294
17.04 37.5263
17.2205 31.9829
17.401 34.0053
17.5815 52.8867
17.7622 33.759
17.9428 41.5667
18.1237 41.6418
18.3044 74.6257
18.4852 63.3549
18.666 78.7145
18.8469 36.045
19.0278 32.1388
19.2088 31.7503
19.3898 36.5298
19.5709 45.4945
19.752 39.1059
19.9332 30.8277
20.1144 31.2433
20.2957 38.5203
20.477 41.3442
20.6586 44.7544
20.84 30.3748
21.0215 30.1651
21.203 27.4507
21.3846 27.6348
21.5662 32.5243
21.7479 28.5091
21.9297 30.115
22.1115 37.4163
22.2933 49.6231
22.4753 39.494
22.6572 29.462
22.8393 29.0763
23.0214 31.2573
23.2037 35.5003
23.3859 38.4389
23.5682 34.3419
23.7505 32.7933
23.9329 48.4148
24.1154 29.6765
24.2979 26.9773
24.4805 25.4522
24.6631 25.3426
24.8458 27.7884
25.0286 25.4642
25.2114 25.4242
25.3943 27.7409
25.5773 30.8867
25.7605 32.287
25.9436 26.3482
26.1268 25.232
26.31 25.5018
26.4933 29.4389
26.6767 25.6128
26.8601 26.4078
27.0437 32.839
27.2272 28.8582
27.4109 24.2991
27.5946 23.8522
27.7784 24.2876
27.9623 25.7286
28.1462 25.3048
28.3304 26.5048
28.5145 29.862
28.6987 26.6395
28.8829 22.9002
29.0673 22.0638
29.2517 23.093
29.4361 22.2458
29.6207 21.5388
29.8053 23.0521
29.99 21.2213
30.1748 20.8145
30.3597 21.0226
30.5447 20.9812
30.7297 21.1784
30.915 20.9569
31.1002 23.2799
31.2855 22.9964
31.4708 20.63
31.6563 20.2952
31.8418 21.3835
32.0275 21.2567
32.2132 20.4987
32.399 21.6434
32.5848 20.2886
32.7708 18.9079
32.9569 18.533
33.143 18.8116
33.3293 18.268
33.5158 18.6734
33.7022 19.5591
33.8887 18.4623
34.0753 17.6697
34.262 17.4967
34.4488 17.505
34.6357 16.8956
34.8227 17.1334
35.0098 16.5021
35.1969 16.1674
35.3842 16.256
35.5716 16.213
35.759 16.4919
35.9468 17.2899
36.1345 16.5551
36.3222 15.758
36.5101 15.6161
36.6981 15.8716
36.8861 15.2442
37.0743 15.4813
37.2626 15.1184
37.451 14.6361
37.6395 14.4153
37.8281 14.2874
38.0168 14.0243
38.2056 14.1213
38.3945 13.7907
38.5837 13.4412
38.7728 13.5376
38.9621 13.3023
39.1514 13.2364
39.3409 13.0449
39.5304 12.7722
39.7201 12.507
39.9099 12.4858
40.0999 12.345
40.2899 12.4018
40.48 12.2292
40.6703 12.0283
40.8607 11.8975
41.0512 11.7762
41.242 11.7374
41.4327 11.6011
41.6236 11.2729
41.8146 11.1624
42.0057 10.9867
42.1969 10.946
42.3882 10.9248
42.5797 10.6137
42.7713 10.4488
42.963 10.3308
43.1549 10.0978
43.3468 9.9748
43.5389 9.8132
43.7312 9.72694
43.9237 9.60618
44.1162 9.49954
44.3088 9.50266
44.5016 9.27658
44.6945 9.16718
44.8875 9.05357
45.0806 8.95827
45.2739 8.82795
45.4673 8.68761
45.6609 8.57979
45.8546 8.48254
46.0484 8.40766
46.2424 8.29711
46.4365 8.13559
46.631 8.05233
46.8254 7.89773
47.0199 7.80726
47.2146 7.70276
47.4095 7.54919
47.6044 7.43883
47.7996 7.32975
47.9948 7.24762
48.1902 7.11519
48.3858 6.98661
48.5815 6.96091
48.7774 6.84137
48.9734 6.7893
49.1696 6.63072
49.3661 6.55748
49.5626 6.46993
49.7592 6.43574
49.956 6.30738
50.153 6.18333
50.3501 6.15937
50.5474 6.04622
50.7448 5.93307
50.9424 5.86276
51.1402 5.74167
51.3381 5.67753
51.5362 5.59804
51.7344 5.50526
51.9328 5.38078
52.1316 5.30803
52.3304 5.22903
52.5293 5.15984
52.7284 5.07738
52.9276 5.01107
53.1271 4.93417
53.3267 4.85103
53.5265 4.70299
53.7264 4.65626
53.9266 4.60066
54.1269 4.5076
54.3274 4.40513
54.528 4.27647
54.7289 4.11866
54.9301 4.0274
55.1314 3.94014
55.3328 3.78736
55.5344 3.57418
55.7361 3.52909