File: XRD/Ni3Fe_FD0824.xy
TT I
1.27165 7.64899
1.45013 6.27117
1.62863 4.97898
1.80712 4.75097
1.98562 4.28218
2.16411 4.84496
2.34263 5.49433
2.52115 7.57448
2.69965 8.44806
2.87818 8.47161
3.05672 11.0479
3.23527 15.1075
3.4138 18.5752
3.59237 23.0949
3.77094 25.1015
3.9495 29.5574
4.12809 33.7495
4.30669 96.468
4.4853 52.9491
4.6639 55.0119
4.84253 68.4577
5.02118 86.8855
5.19981 402.978
5.37848 193.615
5.55716 101.618
5.73586 92.4942
5.91455 94.9887
6.09328 4559.74
6.27201 79.5055
6.45075 69.5483
6.62952 62.4275
6.8083 59.0806
6.98711 55.3753
7.16591 55.6221
7.34475 65.2053
7.5236 53.7103
7.70247 56.9061
7.88135 57.2064
8.06026 62.5001
8.23919 68.816
8.41812 83.2976
8.59709 1223.68
8.77609 96.7463
8.9551 89.2646
9.13412 82.5395
9.31318 84.6769
9.49226 84.655
9.67134 95.0552
9.85047 100.758
10.0296 345.66
10.2088 350.756
10.388 104.476
10.5672 540.107
10.7465 85.1981
10.9257 77.3411
11.105 70.7312
11.2844 67.6247
11.4637 64.1193
11.6431 62.6725
11.8225 62.2303
12.002 63.9553
12.1814 161.887
12.3609 65.8673
12.5405 64.4873
12.72 67.3128
12.8996 70.8557
13.0792 79.9741
13.2589 249.627
13.4386 116.887
13.6183 258.96
13.7981 93.2477
13.9779 75.0345
14.1577 71.1659
14.3376 69.5443
14.5175 68.308
14.6974 70.1163
14.8774 111.962
15.0574 139.514
15.2374 68.7809
15.4175 65.7741
15.5976 65.3811
15.7778 95.6498
15.958 146.921
16.1382 60.7883
16.3185 57.3736
16.4988 54.8311
16.6792 53.8833
16.8596 54.3092
17.04 55.5291
17.2205 66.9485
17.401 68.3781
17.5815 58.7556
17.7622 60.7689
17.9428 73.1926
18.1237 141.8
18.3044 90.8979
18.4852 73.8636
18.666 59.6724
18.8469 57.4502
19.0278 56.171
19.2088 58.607
19.3898 75.2611
19.5709 53.5588
19.752 52.8587
19.9332 55.727
20.1144 70.0085
20.2957 64.0888
20.477 52.5686
20.6586 49.0988
20.84 48.4202
21.0215 47.9014
21.203 50.4785
21.3846 48.428
21.5662 48.4755
21.7479 52.4142
21.9297 64.0228
22.1115 55.6569
22.2933 49.0773
22.4753 48.153
22.6572 48.4581
22.8393 51.7928
23.0214 56.4632
23.2037 48.1309
23.3859 49.2087
23.5682 57.0899
23.7505 47.366
23.9329 44.7545
24.1154 43.6275
24.2979 43.0375
24.4805 42.5463
24.6631 42.3713
24.8458 41.8584
25.0286 42.3784
25.2114 44.261
25.3943 43.926
25.5773 40.5306
25.7605 40.0177
25.9436 40.5318
26.1268 41.3638
26.31 39.6909
26.4933 40.3469
26.6767 41.8861
26.8601 40.0155
27.0437 38.3768
27.2272 38.1934
27.4109 38.0037
27.5946 37.9755
27.7784 37.4236
27.9623 38.0076
28.1462 38.333
28.3304 36.7513
28.5145 35.516
28.6987 35.29
28.8829 35.0814
29.0673 34.178
29.2517 34.0049
29.4361 33.7486
29.6207 32.8032
29.8053 32.5479
29.99 32.1825
30.1748 32.1041
30.3597 31.9368
30.5447 31.7953
30.7297 31.9626
30.915 31.2679
31.1002 30.8311
31.2855 30.5173
31.4708 30.568
31.6563 29.9617
31.8418 29.8472
32.0275 29.5186
32.2132 29.0301
32.399 28.6295
32.5848 28.1879
32.7708 27.8758
32.9569 27.7032
33.143 27.4665
33.3293 27.0769
33.5158 26.6517
33.7022 26.2939
33.8887 26.0169
34.0753 25.7098
34.262 25.4001
34.4488 25.0146
34.6357 24.7205
34.8227 24.4205
35.0098 24.2359
35.1969 24.0091
35.3842 23.7459
35.5716 23.5113
35.759 23.3059
35.9468 22.8711
36.1345 22.6037
36.3222 22.4496
36.5101 22.1157
36.6981 21.8684
36.8861 21.5372
37.0743 21.2551
37.2626 21.016
37.451 20.7898
37.6395 20.5641
37.8281 20.3029
38.0168 19.9383
38.2056 19.7279
38.3945 19.4728
38.5837 19.2091
38.7728 19.0112
38.9621 18.7496
39.1514 18.4826
39.3409 18.2466
39.5304 17.9864
39.7201 17.8504
39.9099 17.574
40.0999 17.3726
40.2899 17.139
40.48 16.9463
40.6703 16.8004
40.8607 16.5811
41.0512 16.3137
41.242 16.0962
41.4327 15.8839
41.6236 15.6261
41.8146 15.4364
42.0057 15.2247
42.1969 15.0655
42.3882 14.8114
42.5797 14.6171
42.7713 14.4496
42.963 14.2706
43.1549 14.067
43.3468 13.875
43.5389 13.6812
43.7312 13.4722
43.9237 13.2587
44.1162 13.1207
44.3088 12.9109
44.5016 12.7576
44.6945 12.5476
44.8875 12.3811
45.0806 12.2391
45.2739 12.0612
45.4673 11.8607
45.6609 11.7042
45.8546 11.605
46.0484 11.415
46.2424 11.2497
46.4365 11.0566
46.631 10.8941
46.8254 10.75
47.0199 10.5885
47.2146 10.4579
47.4095 10.287
47.6044 10.1276
47.7996 9.99699
47.9948 9.8063
48.1902 9.67071
48.3858 9.53023
48.5815 9.44078
48.7774 9.27775
48.9734 9.1331
49.1696 9.01919
49.3661 8.86262
49.5626 8.72693
49.7592 8.56994
49.956 8.47372
50.153 8.33514
50.3501 8.19559
50.5474 8.07369
50.7448 7.95537
50.9424 7.87348
51.1402 7.73591
51.3381 7.56295
51.5362 7.49208
51.7344 7.3477
51.9328 7.21589
52.1316 7.0603
52.3304 6.964
52.5293 6.88914
52.7284 6.76562
52.9276 6.64291
53.1271 6.56426
53.3267 6.40257
53.5265 6.30101
53.7264 6.18991
53.9266 6.10405
54.1269 6.00241
54.3274 5.90213
54.528 5.72848
54.7289 5.60434
54.9301 5.39149
55.1314 5.31942
55.3328 5.08148
55.5344 4.89929
55.7361 4.77284