File: XRD/Ni3Fe_FD0174.xy
TT I
1.27165 7.93145
1.45013 5.96513
1.62863 5.85549
1.80712 5.4142
1.98562 4.69429
2.16411 5.10171
2.34263 4.39456
2.52115 4.38457
2.69965 5.69336
2.87818 8.20907
3.05672 11.0034
3.23527 15.1113
3.4138 19.0316
3.59237 21.7857
3.77094 25.1726
3.9495 28.5155
4.12809 33.0284
4.30669 37.9654
4.4853 45.0075
4.6639 54.1254
4.84253 66.9512
5.02118 91.0256
5.19981 531.511
5.37848 411.49
5.55716 107.715
5.73586 95.6216
5.91455 104.782
6.09328 2874.57
6.27201 88.4456
6.45075 66.7142
6.62952 60.4974
6.8083 56.093
6.98711 53.7205
7.16591 53.0535
7.34475 52.3354
7.5236 55.7215
7.70247 54.4167
7.88135 56.7317
8.06026 61.0343
8.23919 68.3579
8.41812 84.2867
8.59709 916.214
8.77609 116.014
8.9551 85.9519
9.13412 82.0133
9.31318 86.1703
9.49226 84.6143
9.67134 89.2843
9.85047 99.4454
10.0296 538.884
10.2088 930.959
10.388 104.808
10.5672 343.071
10.7465 90.5676
10.9257 76.186
11.105 70.8181
11.2844 66.8593
11.4637 63.9717
11.6431 62.5238
11.8225 61.4615
12.002 65.3302
12.1814 121.295
12.3609 74.2679
12.5405 63.5086
12.72 65.6589
12.8996 70.3144
13.0792 79.8296
13.2589 209.881
13.4386 201.572
13.6183 199.086
13.7981 147.479
13.9779 76.5509
14.1577 74.1565
14.3376 69.5053
14.5175 68.9283
14.6974 70.1604
14.8774 121.494
15.0574 203.525
15.2374 69.361
15.4175 66.4552
15.5976 66.0754
15.7778 107.356
15.958 186.32
16.1382 61.8919
16.3185 57.8166
16.4988 55.5562
16.6792 54.5625
16.8596 54.6428
17.04 55.749
17.2205 65.6471
17.401 81.2683
17.5815 59.3385
17.7622 61.6419
17.9428 83.8598
18.1237 118.161
18.3044 89.019
18.4852 94.1365
18.666 61.4245
18.8469 58.5845
19.0278 57.0825
19.2088 62.0624
19.3898 70.036
19.5709 56.5303
19.752 53.6604
19.9332 58.3485
20.1144 67.9967
20.2957 61.6357
20.477 58.9398
20.6586 50.2126
20.84 49.2748
21.0215 49.2161
21.203 50.1671
21.3846 50.8015
21.5662 49.5466
21.7479 54.2843
21.9297 63.0419
22.1115 56.7345
22.2933 52.6262
22.4753 49.3336
22.6572 49.5647
22.8393 52.4537
23.0214 57.9208
23.2037 50.026
23.3859 52.1748
23.5682 54.404
23.7505 53.2202
23.9329 45.9877
24.1154 44.7474
24.2979 43.9445
24.4805 43.3717
24.6631 43.3131
24.8458 42.8126
25.0286 43.4021
25.2114 45.1971
25.3943 45.2262
25.5773 41.933
25.7605 41.0627
25.9436 41.3783
26.1268 42.0711
26.31 41.1272
26.4933 41.3005
26.6767 42.4314
26.8601 41.4509
27.0437 39.8225
27.2272 39.1859
27.4109 38.9576
27.5946 39.0695
27.7784 38.9113
27.9623 38.7127
28.1462 39.8546
28.3304 38.1692
28.5145 36.605
28.6987 36.2809
28.8829 35.9029
29.0673 35.4349
29.2517 34.7457
29.4361 34.5495
29.6207 33.7684
29.8053 33.365
29.99 33.1382
30.1748 32.7593
30.3597 32.9939
30.5447 32.5285
30.7297 32.5869
30.915 32.4186
31.1002 31.7497
31.2855 31.4284
31.4708 31.1804
31.6563 31.136
31.8418 30.659
32.0275 30.4804
32.2132 29.9816
32.399 29.4203
32.5848 28.9727
32.7708 28.6305
32.9569 28.4156
33.143 28.2022
33.3293 27.9061
33.5158 27.5504
33.7022 26.9829
33.8887 26.6762
34.0753 26.4395
34.262 26.1156
34.4488 25.6753
34.6357 25.324
34.8227 25.0807
35.0098 24.9077
35.1969 24.5896
35.3842 24.3082
35.5716 24.223
35.759 23.8123
35.9468 23.4672
36.1345 23.2948
36.3222 23.0716
36.5101 22.7894
36.6981 22.4732
36.8861 22.2283
37.0743 21.7966
37.2626 21.5596
37.451 21.2887
37.6395 21.213
37.8281 20.8971
38.0168 20.5356
38.2056 20.2507
38.3945 19.9963
38.5837 19.6855
38.7728 19.5087
38.9621 19.3162
39.1514 19.0187
39.3409 18.769
39.5304 18.4475
39.7201 18.3279
39.9099 18.1
40.0999 17.8875
40.2899 17.6238
40.48 17.3539
40.6703 17.1714
40.8607 17.0504
41.0512 16.7484
41.242 16.5251
41.4327 16.2717
41.6236 16.0567
41.8146 15.8586
42.0057 15.7115
42.1969 15.4684
42.3882 15.265
42.5797 15.0305
42.7713 14.8181
42.963 14.6531
43.1549 14.439
43.3468 14.2236
43.5389 14.0425
43.7312 13.806
43.9237 13.6149
44.1162 13.4743
44.3088 13.2964
44.5016 13.0718
44.6945 12.9045
44.8875 12.7164
45.0806 12.5303
45.2739 12.3719
45.4673 12.2142
45.6609 12.0229
45.8546 11.8531
46.0484 11.707
46.2424 11.5051
46.4365 11.382
46.631 11.1841
46.8254 11.0232
47.0199 10.8771
47.2146 10.7007
47.4095 10.5155
47.6044 10.4089
47.7996 10.2085
47.9948 10.0614
48.1902 9.9539
48.3858 9.79115
48.5815 9.66654
48.7774 9.51657
48.9734 9.38041
49.1696 9.22208
49.3661 9.10129
49.5626 8.94631
49.7592 8.85032
49.956 8.69597
50.153 8.54543
50.3501 8.43385
50.5474 8.31549
50.7448 8.21495
50.9424 8.05962
51.1402 7.94968
51.3381 7.78514
51.5362 7.66755
51.7344 7.52215
51.9328 7.41793
52.1316 7.27353
52.3304 7.21454
52.5293 7.06255
52.7284 6.9503
52.9276 6.7723
53.1271 6.73373
53.3267 6.6161
53.5265 6.48525
53.7264 6.38092
53.9266 6.23249
54.1269 6.12067
54.3274 6.01746
54.528 5.84297
54.7289 5.61573
54.9301 5.4862
55.1314 5.39724
55.3328 5.11694
55.5344 4.9775
55.7361 4.78356