File: XRD/Ni3Fe_FD0640.xy
TT I
1.27165 7.60016
1.45013 6.10308
1.62863 4.72425
1.80712 4.7685
1.98562 5.02382
2.16411 5.0162
2.34263 5.66662
2.52115 7.14115
2.69965 8.26103
2.87818 8.20643
3.05672 11.0891
3.23527 15.1055
3.4138 19.1557
3.59237 24.7964
3.77094 26.0174
3.9495 29.8412
4.12809 34.8868
4.30669 260.063
4.4853 69.7711
4.6639 55.455
4.84253 67.0465
5.02118 86.5516
5.19981 335.05
5.37848 197.059
5.55716 102.723
5.73586 91.9754
5.91455 93.8089
6.09328 4328.99
6.27201 84.0012
6.45075 67.6649
6.62952 63.7848
6.8083 59.1362
6.98711 56.4746
7.16591 56.1984
7.34475 101.856
7.5236 55.246
7.70247 56.3243
7.88135 58.0921
8.06026 62.2464
8.23919 69.7157
8.41812 85.503
8.59709 1105.65
8.77609 100.52
8.9551 93.4529
9.13412 82.1069
9.31318 82.8126
9.49226 84.6168
9.67134 101.104
9.85047 99.9089
10.0296 325.45
10.2088 440.308
10.388 105.138
10.5672 498.875
10.7465 86.9842
10.9257 79.1843
11.105 72.3316
11.2844 71.3591
11.4637 64.9205
11.6431 64.0698
11.8225 62.7089
12.002 63.505
12.1814 148.501
12.3609 72.8618
12.5405 64.8837
12.72 71.171
12.8996 71.1356
13.0792 78.634
13.2589 227.919
13.4386 128.225
13.6183 240.667
13.7981 100.915
13.9779 75.8743
14.1577 73.0079
14.3376 72.2531
14.5175 68.8892
14.6974 70.5018
14.8774 107.549
15.0574 152.455
15.2374 71.9403
15.4175 66.5559
15.5976 65.7421
15.7778 92.719
15.958 160.797
16.1382 63.5004
16.3185 59.27
16.4988 55.7336
16.6792 54.6507
16.8596 55.5393
17.04 55.8738
17.2205 66.5399
17.401 72.4167
17.5815 59.416
17.7622 61.2191
17.9428 73.0918
18.1237 138.508
18.3044 89.7429
18.4852 79.4089
18.666 60.6136
18.8469 58.1562
19.0278 57.0282
19.2088 59.6479
19.3898 76.8047
19.5709 54.3949
19.752 53.5436
19.9332 56.1923
20.1144 69.7909
20.2957 63.651
20.477 54.1451
20.6586 49.9052
20.84 48.8587
21.0215 48.6112
21.203 50.9377
21.3846 49.1666
21.5662 48.7787
21.7479 52.3727
21.9297 64.7945
22.1115 56.0518
22.2933 50.1744
22.4753 49.1982
22.6572 48.7664
22.8393 51.7835
23.0214 57.5997
23.2037 48.9684
23.3859 49.7107
23.5682 56.8867
23.7505 48.6202
23.9329 45.4501
24.1154 44.273
24.2979 43.6868
24.4805 42.9443
24.6631 43.0128
24.8458 42.3772
25.0286 42.8966
25.2114 44.7758
25.3943 44.9129
25.5773 41.0327
25.7605 40.5819
25.9436 40.9346
26.1268 41.7895
26.31 40.3067
26.4933 40.8402
26.6767 42.2286
26.8601 40.6352
27.0437 38.9786
27.2272 38.6448
27.4109 38.5872
27.5946 38.5134
27.7784 38.1429
27.9623 38.4169
28.1462 38.9803
28.3304 37.4179
28.5145 36.0243
28.6987 35.7568
28.8829 35.6241
29.0673 34.782
29.2517 34.4779
29.4361 34.2434
29.6207 33.2562
29.8053 33.0157
29.99 32.7759
30.1748 32.607
30.3597 32.4135
30.5447 32.2861
30.7297 32.2832
30.915 31.755
31.1002 31.2854
31.2855 30.9527
31.4708 30.9757
31.6563 30.474
31.8418 30.326
32.0275 30.0635
32.2132 29.4973
32.399 29.0165
32.5848 28.5748
32.7708 28.2775
32.9569 28.2248
33.143 27.9191
33.3293 27.536
33.5158 27.1291
33.7022 26.7802
33.8887 26.488
34.0753 26.0964
34.262 25.8281
34.4488 25.3811
34.6357 25.1172
34.8227 24.9374
35.0098 24.5785
35.1969 24.2511
35.3842 24.0754
35.5716 23.8707
35.759 23.5829
35.9468 23.1837
36.1345 22.9399
36.3222 22.7347
36.5101 22.4936
36.6981 22.191
36.8861 21.9382
37.0743 21.5499
37.2626 21.3799
37.451 21.0822
37.6395 20.9372
37.8281 20.5463
38.0168 20.362
38.2056 20.0596
38.3945 19.7368
38.5837 19.4874
38.7728 19.3431
38.9621 19.0555
39.1514 18.7645
39.3409 18.5268
39.5304 18.3404
39.7201 18.1407
39.9099 17.9548
40.0999 17.6419
40.2899 17.4357
40.48 17.2227
40.6703 16.9844
40.8607 16.7805
41.0512 16.5925
41.242 16.3356
41.4327 16.1168
41.6236 15.9012
41.8146 15.7487
42.0057 15.4763
42.1969 15.3217
42.3882 15.1524
42.5797 14.9071
42.7713 14.7108
42.963 14.483
43.1549 14.2964
43.3468 14.0698
43.5389 13.882
43.7312 13.691
43.9237 13.5344
44.1162 13.3364
44.3088 13.1357
44.5016 12.9627
44.6945 12.7877
44.8875 12.6372
45.0806 12.4687
45.2739 12.231
45.4673 12.1105
45.6609 11.9082
45.8546 11.766
46.0484 11.5932
46.2424 11.4049
46.4365 11.2304
46.631 11.0624
46.8254 10.9127
47.0199 10.7638
47.2146 10.6238
47.4095 10.4414
47.6044 10.3172
47.7996 10.1246
47.9948 9.98998
48.1902 9.87173
48.3858 9.70866
48.5815 9.56652
48.7774 9.43019
48.9734 9.26795
49.1696 9.17106
49.3661 9.00823
49.5626 8.86165
49.7592 8.74028
49.956 8.64312
50.153 8.49108
50.3501 8.3724
50.5474 8.2121
50.7448 8.10502
50.9424 7.96519
51.1402 7.86573
51.3381 7.72075
51.5362 7.6106
51.7344 7.45467
51.9328 7.35173
52.1316 7.23373
52.3304 7.10461
52.5293 6.99607
52.7284 6.89934
52.9276 6.78262
53.1271 6.67517
53.3267 6.56327
53.5265 6.38791
53.7264 6.32173
53.9266 6.17789
54.1269 6.10004
54.3274 5.96923
54.528 5.84348
54.7289 5.67527
54.9301 5.48671
55.1314 5.39246
55.3328 5.22898
55.5344 4.98847
55.7361 4.79987