File: XRD/Ni3Fe_FD0610.xy
TT I
1.27165 7.16023
1.45013 6.13264
1.62863 5.30241
1.80712 5.13812
1.98562 4.55744
2.16411 4.96038
2.34263 5.3295
2.52115 6.23582
2.69965 8.29165
2.87818 8.5606
3.05672 11.1711
3.23527 15.2675
3.4138 18.9059
3.59237 24.2715
3.77094 26.4895
3.9495 29.591
4.12809 34.9285
4.30669 183.429
4.4853 62.5497
4.6639 55.7
4.84253 67.775
5.02118 87.602
5.19981 367.438
5.37848 196.13
5.55716 103.33
5.73586 92.8281
5.91455 95.3532
6.09328 4355.63
6.27201 83.1441
6.45075 67.8059
6.62952 63.2778
6.8083 58.5828
6.98711 56.324
7.16591 55.2403
7.34475 85.3201
7.5236 55.0353
7.70247 56.2118
7.88135 58.248
8.06026 62.5786
8.23919 69.8561
8.41812 85.3169
8.59709 1212.16
8.77609 100.526
8.9551 90.9195
9.13412 82.5932
9.31318 83.0081
9.49226 85.2228
9.67134 97.9398
9.85047 100.493
10.0296 351.398
10.2088 419.5
10.388 105.388
10.5672 504.579
10.7465 87.2548
10.9257 78.6239
11.105 72.3172
11.2844 70.386
11.4637 65.2602
11.6431 63.9659
11.8225 62.8199
12.002 64.0963
12.1814 154.49
12.3609 70.2404
12.5405 64.7363
12.72 69.7819
12.8996 71.2711
13.0792 79.235
13.2589 244.2
13.4386 128.861
13.6183 250.307
13.7981 100.637
13.9779 76.3157
14.1577 72.8758
14.3376 71.8092
14.5175 69.384
14.6974 70.6015
14.8774 112.976
15.0574 153.146
15.2374 71.1471
15.4175 66.7738
15.5976 66.0826
15.7778 96.7272
15.958 155.436
16.1382 62.8799
16.3185 58.849
16.4988 55.8814
16.6792 54.8393
16.8596 55.456
17.04 56.1979
17.2205 67.1798
17.401 72.8479
17.5815 59.5288
17.7622 61.813
17.9428 74.3593
18.1237 138.352
18.3044 91.4277
18.4852 79.4065
18.666 61.0512
18.8469 58.3641
19.0278 57.2942
19.2088 59.9006
19.3898 76.1824
19.5709 54.6591
19.752 53.7522
19.9332 56.5839
20.1144 69.7412
20.2957 64.2755
20.477 54.2296
20.6586 50.0196
20.84 49.0659
21.0215 48.7863
21.203 50.9526
21.3846 49.2419
21.5662 49.0477
21.7479 53.1214
21.9297 64.3831
22.1115 56.3661
22.2933 50.2566
22.4753 49.1448
22.6572 48.8828
22.8393 52.4087
23.0214 57.4306
23.2037 49.0386
23.3859 49.9955
23.5682 57.0942
23.7505 48.7127
23.9329 45.604
24.1154 44.3942
24.2979 43.8245
24.4805 43.1981
24.6631 43.0145
24.8458 42.5138
25.0286 43.1451
25.2114 44.8868
25.3943 44.8762
25.5773 41.2218
25.7605 40.5482
25.9436 41.178
26.1268 41.8453
26.31 40.4272
26.4933 41.0376
26.6767 42.3477
26.8601 40.685
27.0437 39.0724
27.2272 38.6936
27.4109 38.6418
27.5946 38.6382
27.7784 38.2028
27.9623 38.6415
28.1462 39.0121
28.3304 37.3345
28.5145 36.0929
28.6987 35.7802
28.8829 35.6361
29.0673 34.8444
29.2517 34.5424
29.4361 34.3723
29.6207 33.3938
29.8053 33.1926
29.99 32.7887
30.1748 32.6257
30.3597 32.4211
30.5447 32.3886
30.7297 32.2893
30.915 31.8718
31.1002 31.2569
31.2855 31.1468
31.4708 30.9668
31.6563 30.5606
31.8418 30.3627
32.0275 30.1088
32.2132 29.6251
32.399 29.2202
32.5848 28.5899
32.7708 28.351
32.9569 28.2138
33.143 27.9447
33.3293 27.524
33.5158 27.2667
33.7022 26.7155
33.8887 26.5464
34.0753 26.2723
34.262 25.8615
34.4488 25.4845
34.6357 25.1572
34.8227 24.8667
35.0098 24.6481
35.1969 24.3812
35.3842 24.1693
35.5716 23.9434
35.759 23.6005
35.9468 23.2239
36.1345 23.0565
36.3222 22.8105
36.5101 22.5565
36.6981 22.3373
36.8861 21.9391
37.0743 21.7022
37.2626 21.3631
37.451 21.1053
37.6395 20.91
37.8281 20.6289
38.0168 20.3318
38.2056 20.1373
38.3945 19.7598
38.5837 19.5907
38.7728 19.3667
38.9621 19.0913
39.1514 18.8646
39.3409 18.5609
39.5304 18.3835
39.7201 18.23
39.9099 18.0037
40.0999 17.6865
40.2899 17.4931
40.48 17.2378
40.6703 17.0538
40.8607 16.8569
41.0512 16.6462
41.242 16.3458
41.4327 16.1302
41.6236 15.9538
41.8146 15.729
42.0057 15.4865
42.1969 15.2887
42.3882 15.0955
42.5797 14.8868
42.7713 14.7854
42.963 14.5017
43.1549 14.3031
43.3468 14.0724
43.5389 13.9071
43.7312 13.6924
43.9237 13.5539
44.1162 13.3464
44.3088 13.1764
44.5016 12.9648
44.6945 12.7929
44.8875 12.5768
45.0806 12.4566
45.2739 12.2688
45.4673 12.1546
45.6609 11.9529
45.8546 11.7526
46.0484 11.6422
46.2424 11.4436
46.4365 11.2893
46.631 11.0729
46.8254 10.8968
47.0199 10.754
47.2146 10.6144
47.4095 10.4585
47.6044 10.3303
47.7996 10.1404
47.9948 9.97292
48.1902 9.8608
48.3858 9.70609
48.5815 9.59212
48.7774 9.46795
48.9734 9.30262
49.1696 9.1423
49.3661 8.96301
49.5626 8.85
49.7592 8.75504
49.956 8.6034
50.153 8.45317
50.3501 8.31382
50.5474 8.24187
50.7448 8.11517
50.9424 7.97484
51.1402 7.81937
51.3381 7.73153
51.5362 7.60914
51.7344 7.47434
51.9328 7.35054
52.1316 7.22565
52.3304 7.12586
52.5293 6.98323
52.7284 6.9292
52.9276 6.75689
53.1271 6.66576
53.3267 6.54359
53.5265 6.40805
53.7264 6.29786
53.9266 6.18777
54.1269 6.07867
54.3274 5.98675
54.528 5.81966
54.7289 5.6694
54.9301 5.50827
55.1314 5.43216
55.3328 5.1729
55.5344 4.96614
55.7361 4.82639