File: XRD/Ni3Fe_FD0207.xy
TT I
1.27165 8.12321
1.45013 6.84712
1.62863 6.56937
1.80712 5.65181
1.98562 5.24089
2.16411 4.4157
2.34263 4.62059
2.52115 4.13836
2.69965 6.19094
2.87818 7.69494
3.05672 11.0616
3.23527 14.8098
3.4138 19.2651
3.59237 22.2157
3.77094 25.9255
3.9495 30.3876
4.12809 35.0199
4.30669 40.8874
4.4853 48.674
4.6639 58.3248
4.84253 72.0538
5.02118 97.5287
5.19981 890.188
5.37848 289.492
5.55716 113.192
5.73586 101.232
5.91455 111.496
6.09328 3575.06
6.27201 90.1956
6.45075 70.9806
6.62952 64.4068
6.8083 59.9249
6.98711 57.6398
7.16591 56.7349
7.34475 56.1034
7.5236 57.0351
7.70247 58.3477
7.88135 60.5334
8.06026 65.4031
8.23919 73.267
8.41812 91.1947
8.59709 1043.27
8.77609 112.593
8.9551 91.3026
9.13412 87.3843
9.31318 88.775
9.49226 90.0411
9.67134 96.0633
9.85047 107.362
10.0296 528.745
10.2088 603.499
10.388 114.39
10.5672 432.758
10.7465 93.0192
10.9257 80.9928
11.105 75.5652
11.2844 71.304
11.4637 67.9903
11.6431 66.6483
11.8225 65.7266
12.002 68.7485
12.1814 137.028
12.3609 70.9884
12.5405 67.8253
12.72 69.8949
12.8996 75.0668
13.0792 86.2718
13.2589 225.222
13.4386 153.954
13.6183 221.169
13.7981 115.327
13.9779 80.2333
14.1577 75.8438
14.3376 73.2678
14.5175 72.6931
14.6974 74.7326
14.8774 119.117
15.0574 178.25
15.2374 72.7179
15.4175 70.0176
15.5976 69.8369
15.7778 103.565
15.958 177.2
16.1382 64.2723
16.3185 60.4409
16.4988 58.1481
16.6792 57.3464
16.8596 57.3847
17.04 59.5042
17.2205 68.6463
17.401 78.1886
17.5815 62.4528
17.7622 64.8785
17.9428 83.6055
18.1237 136.919
18.3044 90.0333
18.4852 85.6422
18.666 63.5648
18.8469 61.2366
19.0278 59.8011
19.2088 63.062
19.3898 76.1788
19.5709 57.3968
19.752 56.1977
19.9332 59.7246
20.1144 72.5545
20.2957 64.3049
20.477 57.3567
20.6586 52.2004
20.84 51.589
21.0215 51.2644
21.203 52.7877
21.3846 51.8905
21.5662 52.056
21.7479 55.6558
21.9297 66.6581
22.1115 57.7317
22.2933 52.7488
22.4753 51.0359
22.6572 52.2418
22.8393 54.2031
23.0214 60.0173
23.2037 51.4168
23.3859 52.8616
23.5682 57.2943
23.7505 51.788
23.9329 47.5215
24.1154 46.2224
24.2979 45.5513
24.4805 45.0775
24.6631 44.9205
24.8458 44.4942
25.0286 45.2213
25.2114 46.6365
25.3943 46.911
25.5773 43.0997
25.7605 42.5346
25.9436 42.7449
26.1268 43.5148
26.31 42.2536
26.4933 42.5831
26.6767 44.0327
26.8601 42.5761
27.0437 40.9119
27.2272 40.4784
27.4109 40.2463
27.5946 40.3797
27.7784 39.9854
27.9623 40.0189
28.1462 40.7055
28.3304 39.1817
28.5145 37.8371
28.6987 37.3339
28.8829 37.077
29.0673 36.4267
29.2517 36.0221
29.4361 35.7377
29.6207 34.7555
29.8053 34.4995
29.99 34.1802
30.1748 33.9865
30.3597 34.0183
30.5447 33.7063
30.7297 33.7348
30.915 33.1845
31.1002 32.6249
31.2855 32.4082
31.4708 32.2706
31.6563 31.9547
31.8418 31.6768
32.0275 31.3844
32.2132 30.9124
32.399 30.4203
32.5848 29.9418
32.7708 29.6008
32.9569 29.3774
33.143 29.1464
33.3293 28.7842
33.5158 28.3319
33.7022 27.8704
33.8887 27.5316
34.0753 27.2373
34.262 26.8732
34.4488 26.4747
34.6357 26.2221
34.8227 25.8692
35.0098 25.6117
35.1969 25.3071
35.3842 25.1312
35.5716 24.9319
35.759 24.5401
35.9468 24.2549
36.1345 23.9875
36.3222 23.7364
36.5101 23.5374
36.6981 23.1245
36.8861 22.9221
37.0743 22.552
37.2626 22.3327
37.451 21.9591
37.6395 21.8194
37.8281 21.5111
38.0168 21.2127
38.2056 20.922
38.3945 20.6885
38.5837 20.3718
38.7728 20.1661
38.9621 19.847
39.1514 19.5933
39.3409 19.3314
39.5304 19.1706
39.7201 18.9741
39.9099 18.7915
40.0999 18.4196
40.2899 18.1447
40.48 17.9106
40.6703 17.7702
40.8607 17.5087
41.0512 17.3435
41.242 17.0131
41.4327 16.8726
41.6236 16.569
41.8146 16.4111
42.0057 16.1408
42.1969 15.9605
42.3882 15.7505
42.5797 15.5239
42.7713 15.3111
42.963 15.0773
43.1549 14.9224
43.3468 14.7143
43.5389 14.4693
43.7312 14.2549
43.9237 14.1089
44.1162 13.9278
44.3088 13.7652
44.5016 13.4825
44.6945 13.3007
44.8875 13.1602
45.0806 12.9024
45.2739 12.7512
45.4673 12.5794
45.6609 12.4011
45.8546 12.203
46.0484 12.0724
46.2424 11.8834
46.4365 11.742
46.631 11.5632
46.8254 11.3775
47.0199 11.2095
47.2146 11.0493
47.4095 10.8357
47.6044 10.662
47.7996 10.5343
47.9948 10.4083
48.1902 10.2698
48.3858 10.1024
48.5815 9.96013
48.7774 9.85691
48.9734 9.71322
49.1696 9.52782
49.3661 9.37423
49.5626 9.24241
49.7592 9.12163
49.956 8.98367
50.153 8.81867
50.3501 8.65815
50.5474 8.55463
50.7448 8.43136
50.9424 8.29926
51.1402 8.16439
51.3381 8.03431
51.5362 7.86706
51.7344 7.79237
51.9328 7.64102
52.1316 7.49858
52.3304 7.39259
52.5293 7.24778
52.7284 7.1429
52.9276 7.03639
53.1271 6.89716
53.3267 6.79709
53.5265 6.65035
53.7264 6.5729
53.9266 6.42635
54.1269 6.32215
54.3274 6.18497
54.528 6.05763
54.7289 5.79742
54.9301 5.65878
55.1314 5.55838
55.3328 5.29453
55.5344 5.07047
55.7361 4.95192