File: XRD/Ni3Fe_FD0437.xy
TT I
1.27165 7.18748
1.45013 5.61087
1.62863 4.67161
1.80712 5.08323
1.98562 5.00875
2.16411 4.95964
2.34263 4.58821
2.52115 6.44328
2.69965 7.79641
2.87818 8.49475
3.05672 11.3217
3.23527 14.6922
3.4138 18.9809
3.59237 24.3721
3.77094 26.1385
3.9495 30.2496
4.12809 35.0044
4.30669 183.967
4.4853 63.011
4.6639 55.8721
4.84253 68.3128
5.02118 89.4154
5.19981 454.237
5.37848 206.577
5.55716 104.377
5.73586 94.4654
5.91455 98.2963
6.09328 4246.99
6.27201 84.7953
6.45075 67.8614
6.62952 63.7626
6.8083 59.2422
6.98711 56.4189
7.16591 56.1587
7.34475 85.6731
7.5236 55.2114
7.70247 56.8677
7.88135 58.7231
8.06026 63.1158
8.23919 70.9355
8.41812 87.3827
8.59709 1224.07
8.77609 101.711
8.9551 91.9675
9.13412 83.1414
9.31318 84.1353
9.49226 85.8369
9.67134 98.9189
9.85047 101.72
10.0296 389.229
10.2088 430.774
10.388 106.951
10.5672 507.869
10.7465 88.2154
10.9257 79.4511
11.105 72.9617
11.2844 71.017
11.4637 65.9172
11.6431 64.561
11.8225 63.4014
12.002 64.7596
12.1814 153.233
12.3609 70.7249
12.5405 65.2715
12.72 70.5848
12.8996 72.2691
13.0792 80.8384
13.2589 243.389
13.4386 127.644
13.6183 248.615
13.7981 98.5659
13.9779 76.9539
14.1577 73.5247
14.3376 72.3954
14.5175 70.0326
14.6974 71.6956
14.8774 115.349
15.0574 152.998
15.2374 71.9065
15.4175 67.6231
15.5976 66.9059
15.7778 99.3926
15.958 159.01
16.1382 63.3063
16.3185 59.1546
16.4988 56.5999
16.6792 55.403
16.8596 56.0063
17.04 56.919
17.2205 67.939
17.401 72.3886
17.5815 60.2313
17.7622 62.5408
17.9428 76.4045
18.1237 139.326
18.3044 91.4759
18.4852 78.6138
18.666 61.407
18.8469 58.9758
19.0278 57.901
19.2088 60.7949
19.3898 77.1425
19.5709 55.1997
19.752 54.2566
19.9332 57.4454
20.1144 70.8413
20.2957 64.5381
20.477 54.5188
20.6586 50.549
20.84 49.6256
21.0215 49.4667
21.203 51.6711
21.3846 49.8484
21.5662 49.8127
21.7479 53.8646
21.9297 65.5895
22.1115 56.649
22.2933 50.8263
22.4753 49.7779
22.6572 49.764
22.8393 52.9304
23.0214 58.3663
23.2037 49.7144
23.3859 50.8523
23.5682 57.4321
23.7505 49.305
23.9329 45.9131
24.1154 44.9693
24.2979 44.0979
24.4805 43.7081
24.6631 43.5333
24.8458 42.9835
25.0286 43.73
25.2114 45.4085
25.3943 45.4548
25.5773 41.706
25.7605 41.1945
25.9436 41.678
26.1268 42.5593
26.31 40.9183
26.4933 41.5524
26.6767 42.8562
26.8601 41.1072
27.0437 39.6029
27.2272 39.2875
27.4109 39.0992
27.5946 39.0542
27.7784 38.7086
27.9623 39.0562
28.1462 39.4551
28.3304 37.8356
28.5145 36.6017
28.6987 36.3682
28.8829 36.0317
29.0673 35.2996
29.2517 34.9233
29.4361 34.6744
29.6207 33.7693
29.8053 33.5132
29.99 33.1652
30.1748 32.912
30.3597 32.7966
30.5447 32.6706
30.7297 32.7763
30.915 32.1703
31.1002 31.5881
31.2855 31.4547
31.4708 31.2585
31.6563 30.8958
31.8418 30.6857
32.0275 30.4601
32.2132 29.8983
32.399 29.4465
32.5848 28.9838
32.7708 28.6182
32.9569 28.4971
33.143 28.2788
33.3293 27.8508
33.5158 27.5278
33.7022 27.0306
33.8887 26.7725
34.0753 26.4639
34.262 26.0753
34.4488 25.7496
34.6357 25.3837
34.8227 25.1312
35.0098 24.9404
35.1969 24.6712
35.3842 24.4756
35.5716 24.1471
35.759 23.8853
35.9468 23.4605
36.1345 23.2395
36.3222 23.0602
36.5101 22.8014
36.6981 22.5433
36.8861 22.2022
37.0743 21.9044
37.2626 21.5996
37.451 21.3178
37.6395 21.1755
37.8281 20.8604
38.0168 20.5763
38.2056 20.2708
38.3945 20.0256
38.5837 19.7312
38.7728 19.5881
38.9621 19.3313
39.1514 19.0107
39.3409 18.7527
39.5304 18.5486
39.7201 18.4144
39.9099 18.1691
40.0999 17.8545
40.2899 17.6232
40.48 17.3887
40.6703 17.212
40.8607 17.0394
41.0512 16.7788
41.242 16.5424
41.4327 16.4049
41.6236 16.0914
41.8146 15.8843
42.0057 15.6714
42.1969 15.4317
42.3882 15.3131
42.5797 15.0931
42.7713 14.8671
42.963 14.654
43.1549 14.4963
43.3468 14.2489
43.5389 14.0729
43.7312 13.8762
43.9237 13.711
44.1162 13.4856
44.3088 13.2928
44.5016 13.125
44.6945 12.898
44.8875 12.7882
45.0806 12.5901
45.2739 12.3988
45.4673 12.2291
45.6609 12.0544
45.8546 11.8881
46.0484 11.7452
46.2424 11.5334
46.4365 11.4183
46.631 11.1974
46.8254 11.0332
47.0199 10.8752
47.2146 10.7704
47.4095 10.5415
47.6044 10.4075
47.7996 10.2637
47.9948 10.1196
48.1902 9.9821
48.3858 9.83437
48.5815 9.70076
48.7774 9.55575
48.9734 9.40159
49.1696 9.2728
49.3661 9.10469
49.5626 8.93847
49.7592 8.87807
49.956 8.69526
50.153 8.53634
50.3501 8.4289
50.5474 8.3294
50.7448 8.18267
50.9424 8.06582
51.1402 7.91025
51.3381 7.7945
51.5362 7.68143
51.7344 7.52197
51.9328 7.43842
52.1316 7.24444
52.3304 7.20184
52.5293 7.04155
52.7284 6.93093
52.9276 6.83921
53.1271 6.729
53.3267 6.58631
53.5265 6.46096
53.7264 6.38517
53.9266 6.25775
54.1269 6.1737
54.3274 6.05073
54.528 5.87309
54.7289 5.74757
54.9301 5.57678
55.1314 5.42559
55.3328 5.16584
55.5344 5.05442
55.7361 4.96655