File: XRD/Ni3Fe_FD0008.xy
TT I
1.27165 35.9345
1.45013 32.833
1.62863 28.5485
1.80712 26.3541
1.98562 25.5331
2.16411 25.6052
2.34263 26.0857
2.52115 25.9478
2.69965 30.0889
2.87818 40.4888
3.05672 65.9694
3.23527 81.1139
3.4138 45.7728
3.59237 39.73
3.77094 41.6848
3.9495 44.0045
4.12809 54.4639
4.30669 78.2056
4.4853 69.7745
4.6639 56.037
4.84253 60.9095
5.02118 91.3603
5.19981 251.307
5.37848 4109.72
5.55716 164.316
5.73586 100.257
5.91455 107.068
6.09328 400.774
6.27201 374.029
6.45075 73.8501
6.62952 54.9956
6.8083 52.0382
6.98711 48.6455
7.16591 52.029
7.34475 69.7185
7.5236 64.2663
7.70247 52.812
7.88135 39.8321
8.06026 40.0071
8.23919 44.1024
8.41812 54.6789
8.59709 139.73
8.77609 769.366
8.9551 81.5176
9.13412 58.7399
9.31318 237.103
9.49226 51.4831
9.67134 49.1668
9.85047 55.1425
10.0296 86.6845
10.2088 366.287
10.388 158.637
10.5672 87.881
10.7465 302.011
10.9257 49.1951
11.105 41.5053
11.2844 39.774
11.4637 38.6355
11.6431 37.3991
11.8225 36.8725
12.002 62.562
12.1814 46.1312
12.3609 84.832
12.5405 46.5179
12.72 39.0735
12.8996 38.9899
13.0792 40.8374
13.2589 61.6057
13.4386 116.703
13.6183 105.132
13.7981 124.838
13.9779 72.6069
14.1577 44.3966
14.3376 54.8317
14.5175 36.0615
14.6974 35.817
14.8774 40.1553
15.0574 54.2425
15.2374 118.714
15.4175 41.033
15.5976 37.0306
15.7778 38.9411
15.958 50.1243
16.1382 136.705
16.3185 41.3173
16.4988 32.5468
16.6792 30.6581
16.8596 30.4312
17.04 38.0598
17.2205 32.0367
17.401 34.2681
17.5815 52.4931
17.7622 33.8631
17.9428 41.3569
18.1237 41.8801
18.3044 75.8275
18.4852 61.9843
18.666 77.2693
18.8469 35.9946
19.0278 32.2081
19.2088 31.8568
19.3898 36.8577
19.5709 45.5542
19.752 38.6712
19.9332 30.7231
20.1144 31.47
20.2957 38.7769
20.477 40.8725
20.6586 44.0764
20.84 30.5926
21.0215 30.0866
21.203 27.5181
21.3846 27.7371
21.5662 32.671
21.7479 28.6422
21.9297 30.0256
22.1115 37.6997
22.2933 48.5135
22.4753 38.9715
22.6572 29.3874
22.8393 29.0876
23.0214 31.1102
23.2037 35.8167
23.3859 37.6183
23.5682 34.5337
23.7505 32.8568
23.9329 47.7409
24.1154 29.5615
24.2979 27.0614
24.4805 25.5567
24.6631 25.409
24.8458 27.8206
25.0286 25.5646
25.2114 25.3451
25.3943 27.847
25.5773 30.7389
25.7605 31.897
25.9436 26.4964
26.1268 25.2165
26.31 25.5854
26.4933 29.2088
26.6767 25.5717
26.8601 26.4986
27.0437 32.534
27.2272 28.4819
27.4109 24.4114
27.5946 23.9665
27.7784 24.3416
27.9623 25.7082
28.1462 25.2104
28.3304 26.5865
28.5145 29.3369
28.6987 26.3464
28.8829 22.9861
29.0673 22.1883
29.2517 23.0186
29.4361 22.2863
29.6207 21.666
29.8053 23.0764
29.99 21.2683
30.1748 20.9382
30.3597 21.0432
30.5447 20.9974
30.7297 21.3352
30.915 20.925
31.1002 23.2112
31.2855 22.8152
31.4708 20.5724
31.6563 20.3935
31.8418 21.3733
32.0275 21.2163
32.2132 20.478
32.399 21.5888
32.5848 20.2624
32.7708 18.8664
32.9569 18.5896
33.143 18.9011
33.3293 18.2713
33.5158 18.7001
33.7022 19.401
33.8887 18.4145
34.0753 17.7175
34.262 17.5518
34.4488 17.5081
34.6357 16.9038
34.8227 17.2126
35.0098 16.5437
35.1969 16.1722
35.3842 16.2284
35.5716 16.2314
35.759 16.5428
35.9468 17.2123
36.1345 16.5179
36.3222 15.7306
36.5101 15.5876
36.6981 15.8133
36.8861 15.2634
37.0743 15.4325
37.2626 15.1051
37.451 14.64
37.6395 14.4687
37.8281 14.2507
38.0168 14.1208
38.2056 14.0752
38.3945 13.7199
38.5837 13.4656
38.7728 13.4837
38.9621 13.3051
39.1514 13.3087
39.3409 13.0796
39.5304 12.7564
39.7201 12.5807
39.9099 12.5159
40.0999 12.3638
40.2899 12.3228
40.48 12.2298
40.6703 12.0203
40.8607 11.8948
41.0512 11.714
41.242 11.7428
41.4327 11.549
41.6236 11.3098
41.8146 11.1679
42.0057 10.9937
42.1969 10.9472
42.3882 10.9007
42.5797 10.6162
42.7713 10.4385
42.963 10.3289
43.1549 10.1354
43.3468 9.96726
43.5389 9.83478
43.7312 9.70362
43.9237 9.61215
44.1162 9.51965
44.3088 9.43898
44.5016 9.26969
44.6945 9.15926
44.8875 9.06614
45.0806 8.95849
45.2739 8.85805
45.4673 8.67269
45.6609 8.5808
45.8546 8.46111
46.0484 8.37084
46.2424 8.25166
46.4365 8.09887
46.631 8.01127
46.8254 7.87152
47.0199 7.80544
47.2146 7.70832
47.4095 7.54518
47.6044 7.45701
47.7996 7.34054
47.9948 7.23523
48.1902 7.12483
48.3858 7.04039
48.5815 6.92643
48.7774 6.79119
48.9734 6.72845
49.1696 6.6432
49.3661 6.5323
49.5626 6.4612
49.7592 6.38051
49.956 6.26864
50.153 6.17129
50.3501 6.10678
50.5474 6.04387
50.7448 5.95191
50.9424 5.85317
51.1402 5.76728
51.3381 5.68785
51.5362 5.58791
51.7344 5.50116
51.9328 5.43357
52.1316 5.3181
52.3304 5.24056
52.5293 5.13681
52.7284 5.07259
52.9276 5.02092
53.1271 4.93509
53.3267 4.85119
53.5265 4.73072
53.7264 4.67739
53.9266 4.57829
54.1269 4.4729
54.3274 4.38937
54.528 4.27963
54.7289 4.16417
54.9301 4.02853
55.1314 3.9428
55.3328 3.75065
55.5344 3.62278
55.7361 3.51547