File: XRD/Ni3Fe_FD0730.xy
TT I
1.27165 7.37963
1.45013 6.28771
1.62863 5.64541
1.80712 4.842
1.98562 4.8387
2.16411 5.10716
2.34263 5.86367
2.52115 6.80058
2.69965 7.87071
2.87818 8.19877
3.05672 11.492
3.23527 15.2505
3.4138 19.1127
3.59237 23.7123
3.77094 26.0724
3.9495 30.0423
4.12809 35.0968
4.30669 196.811
4.4853 63.5963
4.6639 55.5894
4.84253 67.1026
5.02118 86.1546
5.19981 327.613
5.37848 184.957
5.55716 101.45
5.73586 91.8576
5.91455 94.0779
6.09328 4530.43
6.27201 82.6195
6.45075 66.9181
6.62952 62.579
6.8083 58.3178
6.98711 55.4597
7.16591 55.0549
7.34475 86.0365
7.5236 54.5885
7.70247 56.0034
7.88135 57.3885
8.06026 62.0881
8.23919 69.4531
8.41812 84.4701
8.59709 1175.86
8.77609 99.3349
8.9551 90.5522
9.13412 81.6575
9.31318 82.0372
9.49226 84.2413
9.67134 97.2407
9.85047 99.524
10.0296 332.977
10.2088 408.72
10.388 103.87
10.5672 522.861
10.7465 86.539
10.9257 78.0491
11.105 71.6581
11.2844 69.7377
11.4637 64.7626
11.6431 63.7909
11.8225 62.2537
12.002 63.2455
12.1814 154.379
12.3609 69.8625
12.5405 64.4816
12.72 69.2672
12.8996 70.4863
13.0792 78.3728
13.2589 241.142
13.4386 126.411
13.6183 249.898
13.7981 97.2908
13.9779 75.5172
14.1577 72.2849
14.3376 71.2293
14.5175 68.5606
14.6974 70.1929
14.8774 110.352
15.0574 148.877
15.2374 70.7336
15.4175 66.2306
15.5976 65.6638
15.7778 94.3724
15.958 153.768
16.1382 62.1784
16.3185 58.3098
16.4988 55.3325
16.6792 54.3359
16.8596 55.1088
17.04 55.3607
17.2205 66.5999
17.401 70.5018
17.5815 58.9828
17.7622 61.0793
17.9428 73.1728
18.1237 138.787
18.3044 91.1307
18.4852 76.8636
18.666 60.2304
18.8469 57.9355
19.0278 56.7042
19.2088 59.2103
19.3898 75.9048
19.5709 54.1753
19.752 53.1844
19.9332 56.0264
20.1144 69.6718
20.2957 63.8148
20.477 53.5421
20.6586 49.3751
20.84 48.6286
21.0215 48.1997
21.203 50.855
21.3846 48.8626
21.5662 48.5685
21.7479 52.4088
21.9297 64.2831
22.1115 55.9552
22.2933 49.6279
22.4753 48.5583
22.6572 48.5169
22.8393 51.855
23.0214 56.9511
23.2037 48.6588
23.3859 49.4878
23.5682 56.7873
23.7505 48.2131
23.9329 44.8962
24.1154 44.0184
24.2979 43.3037
24.4805 42.7932
24.6631 42.7287
24.8458 41.928
25.0286 42.726
25.2114 44.6559
25.3943 44.3173
25.5773 40.7794
25.7605 40.3846
25.9436 40.5533
26.1268 41.5004
26.31 40.0192
26.4933 40.6531
26.6767 41.9898
26.8601 40.3182
27.0437 38.6597
27.2272 38.3572
27.4109 38.1889
27.5946 38.2364
27.7784 37.7745
27.9623 38.3878
28.1462 38.7191
28.3304 37.0161
28.5145 35.9075
28.6987 35.6163
28.8829 35.3489
29.0673 34.5981
29.2517 34.1916
29.4361 34.0323
29.6207 33.0193
29.8053 32.8617
29.99 32.6141
30.1748 32.3943
30.3597 32.1425
30.5447 32.0573
30.7297 32.1973
30.915 31.494
31.1002 31.1413
31.2855 30.6607
31.4708 30.632
31.6563 30.2907
31.8418 30.1399
32.0275 29.8993
32.2132 29.2463
32.399 28.8646
32.5848 28.3998
32.7708 28.072
32.9569 27.9365
33.143 27.7448
33.3293 27.3404
33.5158 26.9047
33.7022 26.4457
33.8887 26.2207
34.0753 25.9193
34.262 25.6295
34.4488 25.2133
34.6357 24.8802
34.8227 24.6318
35.0098 24.4862
35.1969 24.1457
35.3842 24.0153
35.5716 23.6644
35.759 23.3572
35.9468 23.0072
36.1345 22.8587
36.3222 22.6315
36.5101 22.3309
36.6981 22.0219
36.8861 21.7049
37.0743 21.4479
37.2626 21.2507
37.451 20.9764
37.6395 20.7599
37.8281 20.4239
38.0168 20.1118
38.2056 19.8556
38.3945 19.5848
38.5837 19.4569
38.7728 19.2411
38.9621 18.9324
39.1514 18.7157
39.3409 18.4
39.5304 18.2253
39.7201 18.0543
39.9099 17.7786
40.0999 17.548
40.2899 17.3212
40.48 17.1212
40.6703 16.906
40.8607 16.7115
41.0512 16.4639
41.242 16.1754
41.4327 16.0349
41.6236 15.7866
41.8146 15.5779
42.0057 15.4042
42.1969 15.1891
42.3882 15.0096
42.5797 14.7435
42.7713 14.6378
42.963 14.3546
43.1549 14.1707
43.3468 13.9476
43.5389 13.8296
43.7312 13.5502
43.9237 13.4125
44.1162 13.2207
44.3088 13.0324
44.5016 12.8435
44.6945 12.6896
44.8875 12.5624
45.0806 12.3683
45.2739 12.1781
45.4673 12.0177
45.6609 11.827
45.8546 11.6205
46.0484 11.5086
46.2424 11.3294
46.4365 11.2319
46.631 11.0053
46.8254 10.8314
47.0199 10.7046
47.2146 10.5166
47.4095 10.3591
47.6044 10.2054
47.7996 10.0399
47.9948 9.90774
48.1902 9.77511
48.3858 9.64016
48.5815 9.50424
48.7774 9.36442
48.9734 9.25333
49.1696 9.09198
49.3661 8.94422
49.5626 8.76866
49.7592 8.67633
49.956 8.56652
50.153 8.42185
50.3501 8.26973
50.5474 8.15284
50.7448 8.01746
50.9424 7.93146
51.1402 7.78576
51.3381 7.65243
51.5362 7.54258
51.7344 7.4236
51.9328 7.27636
52.1316 7.12405
52.3304 7.03082
52.5293 6.96254
52.7284 6.78424
52.9276 6.68772
53.1271 6.60347
53.3267 6.46293
53.5265 6.40081
53.7264 6.26368
53.9266 6.1405
54.1269 6.04686
54.3274 5.91314
54.528 5.7802
54.7289 5.59778
54.9301 5.43508
55.1314 5.31735
55.3328 5.12959
55.5344 4.94006
55.7361 4.79263