File: XRD/Ni3Fe_FD1070.xy
TT I
1.27165 7.0837
1.45013 5.45225
1.62863 4.80891
1.80712 4.37842
1.98562 4.61584
2.16411 4.19133
2.34263 4.53317
2.52115 7.32952
2.69965 8.22893
2.87818 8.73134
3.05672 10.9606
3.23527 14.5179
3.4138 18.2598
3.59237 21.3347
3.77094 24.606
3.9495 28.4027
4.12809 32.3404
4.30669 56.398
4.4853 46.0568
4.6639 52.8229
4.84253 64.7757
5.02118 83.2555
5.19981 230.383
5.37848 207.176
5.55716 97.7641
5.73586 87.844
5.91455 88.9861
6.09328 4514.52
6.27201 76.055
6.45075 63.5155
6.62952 57.8939
6.8083 54.6078
6.98711 52.398
7.16591 51.8736
7.34475 55.8395
7.5236 58.2668
7.70247 53.342
7.88135 54.6515
8.06026 59.0481
8.23919 65.9557
8.41812 77.5743
8.59709 1108.26
8.77609 94.5675
8.9551 82.7674
9.13412 78.9328
9.31318 88.5199
9.49226 81.2407
9.67134 86.4876
9.85047 94.1122
10.0296 349.694
10.2088 447.747
10.388 98.1473
10.5672 512.935
10.7465 86.0452
10.9257 73.6337
11.105 68.2701
11.2844 64.7803
11.4637 62.1851
11.6431 60.493
11.8225 59.825
12.002 66.0365
12.1814 147.501
12.3609 64.8303
12.5405 61.6841
12.72 64.3454
12.8996 67.9274
13.0792 76.8702
13.2589 230.241
13.4386 126.673
13.6183 237.265
13.7981 100.432
13.9779 73.3783
14.1577 74.8326
14.3376 67.4319
14.5175 66.521
14.6974 67.7284
14.8774 110.564
15.0574 159.234
15.2374 66.7604
15.4175 64.2147
15.5976 63.5956
15.7778 95.412
15.958 169.649
16.1382 59.9423
16.3185 55.765
16.4988 53.6094
16.6792 52.5709
16.8596 52.8852
17.04 53.9396
17.2205 65.0872
17.401 72.419
17.5815 57.431
17.7622 59.9135
17.9428 73.672
18.1237 142.654
18.3044 89.1578
18.4852 79.0877
18.666 59.082
18.8469 56.5608
19.0278 55.1817
19.2088 58.2342
19.3898 76.3894
19.5709 53.1412
19.752 51.9548
19.9332 55.1217
20.1144 70.3815
20.2957 63.6886
20.477 53.0338
20.6586 48.5743
20.84 48.0541
21.0215 47.5595
21.203 49.692
21.3846 48.2073
21.5662 47.7227
21.7479 52.0481
21.9297 65.5233
22.1115 56.0151
22.2933 49.2531
22.4753 47.6737
22.6572 47.6461
22.8393 51.2917
23.0214 57.6243
23.2037 48.0805
23.3859 49.529
23.5682 57.2448
23.7505 48.4231
23.9329 44.434
24.1154 43.3231
24.2979 42.5737
24.4805 42.0576
24.6631 42.1001
24.8458 41.2999
25.0286 42.1287
25.2114 44.2247
25.3943 44.4824
25.5773 40.4132
25.7605 39.7466
25.9436 40.0931
26.1268 41.403
26.31 39.5532
26.4933 40.1677
26.6767 42.1022
26.8601 40.2712
27.0437 38.3509
27.2272 38.0098
27.4109 37.8853
27.5946 37.9908
27.7784 37.3681
27.9623 38.1023
28.1462 38.8214
28.3304 36.8232
28.5145 35.3955
28.6987 35.0648
28.8829 34.9314
29.0673 34.244
29.2517 33.7863
29.4361 33.7763
29.6207 32.7114
29.8053 32.3693
29.99 32.1193
30.1748 31.9824
30.3597 31.8323
30.5447 31.7524
30.7297 31.902
30.915 31.2711
31.1002 30.8323
31.2855 30.5193
31.4708 30.5396
31.6563 30.0572
31.8418 29.7717
32.0275 29.6723
32.2132 29.078
32.399 28.6101
32.5848 28.1203
32.7708 27.7565
32.9569 27.6885
33.143 27.3895
33.3293 27.1061
33.5158 26.7483
33.7022 26.2765
33.8887 25.9964
34.0753 25.6222
34.262 25.3336
34.4488 24.9575
34.6357 24.6651
34.8227 24.313
35.0098 24.1972
35.1969 23.8961
35.3842 23.7428
35.5716 23.5532
35.759 23.232
35.9468 22.7959
36.1345 22.7066
36.3222 22.3984
36.5101 22.1967
36.6981 21.8334
36.8861 21.5113
37.0743 21.2076
37.2626 21.0394
37.451 20.7417
37.6395 20.5837
37.8281 20.2437
38.0168 19.9681
38.2056 19.7554
38.3945 19.4543
38.5837 19.1989
38.7728 18.9938
38.9621 18.6677
39.1514 18.472
39.3409 18.2445
39.5304 18.0243
39.7201 17.8834
39.9099 17.7237
40.0999 17.3577
40.2899 17.1571
40.48 16.9555
40.6703 16.7316
40.8607 16.5439
41.0512 16.2802
41.242 16.0891
41.4327 15.9199
41.6236 15.6334
41.8146 15.4292
42.0057 15.1883
42.1969 15.0084
42.3882 14.8179
42.5797 14.6042
42.7713 14.4848
42.963 14.2294
43.1549 14.0152
43.3468 13.8551
43.5389 13.6803
43.7312 13.484
43.9237 13.2729
44.1162 13.0502
44.3088 12.9386
44.5016 12.7685
44.6945 12.5624
44.8875 12.4388
45.0806 12.2231
45.2739 12.0551
45.4673 11.9015
45.6609 11.6849
45.8546 11.555
46.0484 11.4152
46.2424 11.2424
46.4365 11.0454
46.631 10.8872
46.8254 10.7372
47.0199 10.5879
47.2146 10.4569
47.4095 10.2837
47.6044 10.0873
47.7996 9.96943
47.9948 9.82868
48.1902 9.66066
48.3858 9.53094
48.5815 9.43835
48.7774 9.26662
48.9734 9.11587
49.1696 8.9856
49.3661 8.86117
49.5626 8.7225
49.7592 8.58968
49.956 8.47579
50.153 8.34004
50.3501 8.2195
50.5474 8.0625
50.7448 7.97315
50.9424 7.83618
51.1402 7.73001
51.3381 7.53879
51.5362 7.45177
51.7344 7.32026
51.9328 7.19371
52.1316 7.10342
52.3304 6.97754
52.5293 6.85121
52.7284 6.76109
52.9276 6.6532
53.1271 6.51547
53.3267 6.38744
53.5265 6.29939
53.7264 6.20096
53.9266 6.09402
54.1269 5.97873
54.3274 5.87073
54.528 5.7702
54.7289 5.55164
54.9301 5.45374
55.1314 5.30904
55.3328 5.08673
55.5344 4.92168
55.7361 4.79069