File: XRD/Ni3Fe_FD0594.xy
TT I
1.27165 7.57202
1.45013 6.29183
1.62863 5.31392
1.80712 5.2354
1.98562 4.92005
2.16411 4.66123
2.34263 5.1617
2.52115 6.22511
2.69965 7.2676
2.87818 8.83339
3.05672 11.2193
3.23527 14.9087
3.4138 18.8846
3.59237 23.0109
3.77094 25.9642
3.9495 29.9291
4.12809 34.1247
4.30669 107.922
4.4853 55.0098
4.6639 56.4744
4.84253 68.9049
5.02118 88.8059
5.19981 480.977
5.37848 202.885
5.55716 103.518
5.73586 93.6675
5.91455 97.5111
6.09328 4369.77
6.27201 81.6837
6.45075 69.4268
6.62952 63.0884
6.8083 59.3154
6.98711 55.9178
7.16591 55.9955
7.34475 68.9506
7.5236 54.512
7.70247 56.5922
7.88135 58.142
8.06026 63.2229
8.23919 70.216
8.41812 85.134
8.59709 1262.79
8.77609 99.6532
8.9551 89.7327
9.13412 83.5645
9.31318 85.1434
9.49226 85.7993
9.67134 95.7747
9.85047 102.464
10.0296 382.417
10.2088 364.026
10.388 106.979
10.5672 512.862
10.7465 87.278
10.9257 78.1235
11.105 72.0417
11.2844 69.4293
11.4637 65.1366
11.6431 64.0942
11.8225 62.9137
12.002 65.3745
12.1814 157.209
12.3609 67.5792
12.5405 65.2938
12.72 68.584
12.8996 72.0137
13.0792 81.9125
13.2589 253.433
13.4386 121.472
13.6183 256.187
13.7981 96.5899
13.9779 76.3807
14.1577 72.4808
14.3376 70.9162
14.5175 69.6805
14.6974 71.4909
14.8774 116.768
15.0574 143.35
15.2374 70.1163
15.4175 66.9601
15.5976 66.6731
15.7778 99.6945
15.958 149.83
16.1382 61.9791
16.3185 58.4287
16.4988 55.8792
16.6792 54.8509
16.8596 55.4797
17.04 56.5316
17.2205 68.0524
17.401 70.9372
17.5815 59.6526
17.7622 62.1687
17.9428 75.8666
18.1237 140.936
18.3044 92.193
18.4852 76.4822
18.666 60.5603
18.8469 58.4734
19.0278 57.2467
19.2088 60.0914
19.3898 76.1283
19.5709 54.5933
19.752 53.6054
19.9332 56.9989
20.1144 70.3346
20.2957 64.2634
20.477 53.3398
20.6586 50.0758
20.84 49.1031
21.0215 49.0598
21.203 51.0888
21.3846 49.1512
21.5662 49.5654
21.7479 53.4526
21.9297 65.0581
22.1115 56.3471
22.2933 49.9474
22.4753 49.0209
22.6572 49.402
22.8393 52.5803
23.0214 57.4308
23.2037 49.3246
23.3859 50.416
23.5682 57.3376
23.7505 48.3265
23.9329 45.5832
24.1154 44.2754
24.2979 43.7752
24.4805 43.1245
24.6631 43.0361
24.8458 42.5089
25.0286 43.2268
25.2114 44.8408
25.3943 44.8479
25.5773 41.158
25.7605 40.5804
25.9436 41.3226
26.1268 41.9796
26.31 40.3216
26.4933 40.9461
26.6767 42.4338
26.8601 40.6452
27.0437 39.1871
27.2272 38.6451
27.4109 38.6659
27.5946 38.5709
27.7784 38.2998
27.9623 38.6532
28.1462 39.0531
28.3304 37.3824
28.5145 36.2654
28.6987 35.8585
28.8829 35.6365
29.0673 34.8048
29.2517 34.5168
29.4361 34.4165
29.6207 33.237
29.8053 33.0924
29.99 32.7975
30.1748 32.6256
30.3597 32.489
30.5447 32.4375
30.7297 32.4119
30.915 31.8244
31.1002 31.3595
31.2855 31.0738
31.4708 31.0945
31.6563 30.5619
31.8418 30.4162
32.0275 30.0545
32.2132 29.6104
32.399 29.1798
32.5848 28.6625
32.7708 28.3174
32.9569 28.1739
33.143 27.9493
33.3293 27.4729
33.5158 27.2036
33.7022 26.7598
33.8887 26.5514
34.0753 26.1222
34.262 25.8519
34.4488 25.4646
34.6357 25.1
34.8227 24.8295
35.0098 24.6248
35.1969 24.3598
35.3842 24.1653
35.5716 23.9937
35.759 23.5609
35.9468 23.3567
36.1345 22.995
36.3222 22.8345
36.5101 22.5512
36.6981 22.2526
36.8861 22.0001
37.0743 21.6296
37.2626 21.3904
37.451 21.1448
37.6395 20.9485
37.8281 20.6113
38.0168 20.3037
38.2056 20.0835
38.3945 19.7644
38.5837 19.5585
38.7728 19.3452
38.9621 19.0414
39.1514 18.8379
39.3409 18.5562
39.5304 18.3701
39.7201 18.1642
39.9099 17.8843
40.0999 17.643
40.2899 17.4862
40.48 17.1982
40.6703 17.0369
40.8607 16.7814
41.0512 16.6091
41.242 16.288
41.4327 16.1351
41.6236 15.9646
41.8146 15.714
42.0057 15.4792
42.1969 15.2537
42.3882 15.137
42.5797 14.9147
42.7713 14.6835
42.963 14.4772
43.1549 14.2796
43.3468 14.0657
43.5389 13.9183
43.7312 13.6534
43.9237 13.4647
44.1162 13.3676
44.3088 13.1188
44.5016 12.938
44.6945 12.7717
44.8875 12.6053
45.0806 12.4254
45.2739 12.2591
45.4673 12.0829
45.6609 11.9116
45.8546 11.7601
46.0484 11.5854
46.2424 11.4195
46.4365 11.2424
46.631 11.0401
46.8254 10.9238
47.0199 10.741
47.2146 10.6467
47.4095 10.4715
47.6044 10.2655
47.7996 10.1176
47.9948 10.0114
48.1902 9.8519
48.3858 9.70937
48.5815 9.56982
48.7774 9.45113
48.9734 9.26877
49.1696 9.16738
49.3661 8.97995
49.5626 8.85477
49.7592 8.74864
49.956 8.62662
50.153 8.48836
50.3501 8.32293
50.5474 8.23931
50.7448 8.07316
50.9424 7.97842
51.1402 7.84622
51.3381 7.69848
51.5362 7.58095
51.7344 7.47698
51.9328 7.35416
52.1316 7.20937
52.3304 7.12598
52.5293 6.98548
52.7284 6.85444
52.9276 6.74837
53.1271 6.61563
53.3267 6.51976
53.5265 6.46412
53.7264 6.31028
53.9266 6.18996
54.1269 6.09058
54.3274 5.98368
54.528 5.85484
54.7289 5.67316
54.9301 5.51713
55.1314 5.38431
55.3328 5.18731
55.5344 4.97411
55.7361 4.82738