File: XRD/Ni3Fe_FD0167.xy
TT I
1.27165 8.48145
1.45013 6.7605
1.62863 5.30178
1.80712 5.48005
1.98562 4.62252
2.16411 4.16044
2.34263 4.64567
2.52115 4.39589
2.69965 6.15467
2.87818 7.70884
3.05672 11.5273
3.23527 15.1047
3.4138 18.9262
3.59237 21.9172
3.77094 25.6726
3.9495 28.7383
4.12809 33.2269
4.30669 37.9
4.4853 45.181
4.6639 54.0786
4.84253 66.8668
5.02118 90.7995
5.19981 529.435
5.37848 425.661
5.55716 107.394
5.73586 95.6206
5.91455 104.956
6.09328 2827.25
6.27201 88.8126
6.45075 66.7826
6.62952 59.9979
6.8083 55.8624
6.98711 53.735
7.16591 52.6471
7.34475 52.2412
7.5236 55.8683
7.70247 53.8751
7.88135 56.528
8.06026 60.8947
8.23919 68.4044
8.41812 83.6685
8.59709 906.1
8.77609 115.755
8.9551 85.5704
9.13412 81.4884
9.31318 86.2341
9.49226 83.8339
9.67134 88.7873
9.85047 98.9654
10.0296 539.078
10.2088 966.474
10.388 104.779
10.5672 342.408
10.7465 90.5766
10.9257 75.9512
11.105 70.401
11.2844 66.3033
11.4637 63.8202
11.6431 62.4256
11.8225 61.3677
12.002 65.3697
12.1814 120.124
12.3609 75.147
12.5405 63.2819
12.72 65.2921
12.8996 69.8758
13.0792 79.4038
13.2589 208.06
13.4386 207.525
13.6183 196.625
13.7981 154.716
13.9779 76.3451
14.1577 74.4091
14.3376 69.0426
14.5175 68.4996
14.6974 69.947
14.8774 121.444
15.0574 206.31
15.2374 69.343
15.4175 66.5747
15.5976 66.1143
15.7778 107.521
15.958 186.426
16.1382 61.9941
16.3185 57.5987
16.4988 55.245
16.6792 54.3879
16.8596 54.5488
17.04 55.5164
17.2205 65.4934
17.401 81.4241
17.5815 59.243
17.7622 61.6013
17.9428 83.764
18.1237 117.137
18.3044 88.9975
18.4852 94.9692
18.666 60.8918
18.8469 58.5337
19.0278 56.9375
19.2088 61.886
19.3898 69.8266
19.5709 56.4321
19.752 53.563
19.9332 58.2205
20.1144 67.6564
20.2957 61.6052
20.477 59.0978
20.6586 50.2459
20.84 49.1574
21.0215 49.2274
21.203 49.9181
21.3846 50.7798
21.5662 49.2126
21.7479 54.3728
21.9297 62.7245
22.1115 56.7571
22.2933 52.7117
22.4753 49.259
22.6572 49.3157
22.8393 52.3916
23.0214 57.7883
23.2037 50.1274
23.3859 51.8851
23.5682 54.1594
23.7505 53.3254
23.9329 45.8592
24.1154 44.6438
24.2979 43.9313
24.4805 43.0508
24.6631 43.4012
24.8458 42.6366
25.0286 43.3121
25.2114 44.98
25.3943 45.2847
25.5773 42.0251
25.7605 40.91
25.9436 41.1599
26.1268 41.989
26.31 41.1451
26.4933 41.137
26.6767 42.3242
26.8601 41.5439
27.0437 39.764
27.2272 39.1808
27.4109 38.9663
27.5946 39.0364
27.7784 38.7181
27.9623 38.6502
28.1462 39.7015
28.3304 38.2075
28.5145 36.5082
28.6987 36.1075
28.8829 35.6464
29.0673 35.3888
29.2517 34.6751
29.4361 34.4886
29.6207 33.7697
29.8053 33.2771
29.99 33.0019
30.1748 32.8471
30.3597 32.8495
30.5447 32.5271
30.7297 32.622
30.915 32.3318
31.1002 31.6802
31.2855 31.4232
31.4708 31.2141
31.6563 31.0887
31.8418 30.5449
32.0275 30.3361
32.2132 29.9536
32.399 29.3608
32.5848 28.7774
32.7708 28.516
32.9569 28.4851
33.143 28.1655
33.3293 27.8723
33.5158 27.5747
33.7022 26.9561
33.8887 26.6042
34.0753 26.3226
34.262 26.0032
34.4488 25.6608
34.6357 25.2915
34.8227 25.0106
35.0098 24.8663
35.1969 24.4955
35.3842 24.2733
35.5716 24.1092
35.759 23.8585
35.9468 23.4155
36.1345 23.1862
36.3222 22.943
36.5101 22.6917
36.6981 22.4815
36.8861 22.116
37.0743 21.7666
37.2626 21.5464
37.451 21.2839
37.6395 21.1797
37.8281 20.8497
38.0168 20.5027
38.2056 20.2489
38.3945 19.9756
38.5837 19.6761
38.7728 19.5259
38.9621 19.2265
39.1514 18.9595
39.3409 18.7379
39.5304 18.5075
39.7201 18.2799
39.9099 18.1282
40.0999 17.8121
40.2899 17.5986
40.48 17.3497
40.6703 17.1215
40.8607 16.9508
41.0512 16.7114
41.242 16.4533
41.4327 16.2712
41.6236 16.0454
41.8146 15.8349
42.0057 15.6428
42.1969 15.4445
42.3882 15.2376
42.5797 15.0466
42.7713 14.8323
42.963 14.6099
43.1549 14.4392
43.3468 14.1557
43.5389 14.0597
43.7312 13.883
43.9237 13.6158
44.1162 13.3993
44.3088 13.2398
44.5016 13.0405
44.6945 12.9457
44.8875 12.6953
45.0806 12.5433
45.2739 12.3451
45.4673 12.221
45.6609 11.9847
45.8546 11.8571
46.0484 11.7056
46.2424 11.4877
46.4365 11.361
46.631 11.1703
46.8254 10.988
47.0199 10.8359
47.2146 10.6877
47.4095 10.5672
47.6044 10.3366
47.7996 10.1885
47.9948 10.029
48.1902 9.92215
48.3858 9.76223
48.5815 9.62063
48.7774 9.53177
48.9734 9.34623
49.1696 9.19971
49.3661 9.09824
49.5626 8.92821
49.7592 8.82139
49.956 8.69175
50.153 8.54673
50.3501 8.41332
50.5474 8.28222
50.7448 8.1667
50.9424 8.05912
51.1402 7.88159
51.3381 7.75595
51.5362 7.66421
51.7344 7.49559
51.9328 7.39763
52.1316 7.27154
52.3304 7.20372
52.5293 7.03541
52.7284 6.93592
52.9276 6.81348
53.1271 6.73182
53.3267 6.60513
53.5265 6.42254
53.7264 6.38281
53.9266 6.26006
54.1269 6.10266
54.3274 5.9808
54.528 5.8284
54.7289 5.58795
54.9301 5.49606
55.1314 5.34118
55.3328 5.07037
55.5344 4.936
55.7361 4.85771