File: XRD/Ni3Fe_FD0128.xy
TT I
1.27165 7.95949
1.45013 6.52343
1.62863 5.81517
1.80712 5.57906
1.98562 4.95981
2.16411 4.44998
2.34263 4.52639
2.52115 4.50873
2.69965 5.12364
2.87818 7.79491
3.05672 11.6013
3.23527 14.9424
3.4138 19.0988
3.59237 22.2333
3.77094 24.5725
3.9495 28.7784
4.12809 32.4537
4.30669 37.0643
4.4853 44.4419
4.6639 53.6321
4.84253 65.8858
5.02118 90.9421
5.19981 582.896
5.37848 505.952
5.55716 108.141
5.73586 95.7661
5.91455 106.421
6.09328 2553.1
6.27201 90.5593
6.45075 66.5209
6.62952 59.2896
6.8083 55.3752
6.98711 53.2197
7.16591 52.062
7.34475 51.8173
7.5236 56.3943
7.70247 53.5649
7.88135 55.4983
8.06026 60.2569
8.23919 67.6042
8.41812 83.5648
8.59709 846.579
8.77609 118.447
8.9551 85.3095
9.13412 80.8815
9.31318 87.945
9.49226 83.1602
9.67134 87.8297
9.85047 98.2397
10.0296 556.256
10.2088 1030.54
10.388 104.22
10.5672 311.71
10.7465 91.3984
10.9257 75.3354
11.105 69.7922
11.2844 65.6869
11.4637 63.1515
11.6431 61.5053
11.8225 60.6703
12.002 65.8174
12.1814 113.722
12.3609 76.0565
12.5405 62.779
12.72 64.6627
12.8996 69.1013
13.0792 79.439
13.2589 198.274
13.4386 223.053
13.6183 184.892
13.7981 161.506
13.9779 75.5726
14.1577 74.3928
14.3376 68.4013
14.5175 67.9211
14.6974 69.0623
14.8774 120.471
15.0574 205.489
15.2374 68.679
15.4175 65.5831
15.5976 65.3241
15.7778 107.357
15.958 183.25
16.1382 61.679
16.3185 56.7885
16.4988 54.4688
16.6792 53.5869
16.8596 53.7134
17.04 55.0845
17.2205 64.5994
17.401 80.8382
17.5815 58.5457
17.7622 60.8797
17.9428 83.7358
18.1237 110.584
18.3044 87.6354
18.4852 96.0951
18.666 60.4019
18.8469 57.8025
19.0278 56.2163
19.2088 61.6067
19.3898 67.5951
19.5709 56.3856
19.752 52.9813
19.9332 57.8975
20.1144 65.9106
20.2957 60.3081
20.477 59.5142
20.6586 49.5477
20.84 48.5902
21.0215 48.6298
21.203 49.1471
21.3846 50.2433
21.5662 48.6024
21.7479 53.6477
21.9297 61.0094
22.1115 56.0374
22.2933 52.4565
22.4753 48.651
22.6572 48.6513
22.8393 51.6144
23.0214 56.2964
23.2037 49.6671
23.3859 51.5509
23.5682 52.7094
23.7505 53.4432
23.9329 45.4032
24.1154 44.0028
24.2979 43.3711
24.4805 42.7826
24.6631 42.8674
24.8458 42.1993
25.0286 42.65
25.2114 44.1787
25.3943 44.4098
25.5773 41.6278
25.7605 40.6437
25.9436 40.7052
26.1268 41.2202
26.31 40.8404
26.4933 40.6074
26.6767 41.6913
26.8601 41.2078
27.0437 39.3475
27.2272 38.7922
27.4109 38.3843
27.5946 38.3866
27.7784 38.3331
27.9623 38.2173
28.1462 39.0282
28.3304 37.7148
28.5145 36.105
28.6987 35.6562
28.8829 35.2869
29.0673 34.9739
29.2517 34.2539
29.4361 34.0249
29.6207 33.3672
29.8053 32.7723
29.99 32.6299
30.1748 32.4086
30.3597 32.4584
30.5447 32.1257
30.7297 32.0722
30.915 31.9451
31.1002 31.3217
31.2855 30.8715
31.4708 30.7608
31.6563 30.7718
31.8418 30.1044
32.0275 29.9874
32.2132 29.5643
32.399 28.9768
32.5848 28.5074
32.7708 28.2171
32.9569 28.0313
33.143 27.7591
33.3293 27.3627
33.5158 27.1003
33.7022 26.6274
33.8887 26.3569
34.0753 26.0457
34.262 25.5961
34.4488 25.2396
34.6357 24.9738
34.8227 24.7067
35.0098 24.4253
35.1969 24.1993
35.3842 23.932
35.5716 23.8505
35.759 23.5011
35.9468 23.1498
36.1345 22.8765
36.3222 22.6296
36.5101 22.4226
36.6981 22.2329
36.8861 21.8126
37.0743 21.5305
37.2626 21.267
37.451 20.9874
37.6395 20.8625
37.8281 20.5492
38.0168 20.1758
38.2056 19.9385
38.3945 19.6673
38.5837 19.469
38.7728 19.2416
38.9621 19.0001
39.1514 18.6608
39.3409 18.4709
39.5304 18.2017
39.7201 18.0513
39.9099 17.8966
40.0999 17.5923
40.2899 17.3599
40.48 17.109
40.6703 16.8781
40.8607 16.7594
41.0512 16.5438
41.242 16.2363
41.4327 16.0232
41.6236 15.8247
41.8146 15.6743
42.0057 15.441
42.1969 15.2645
42.3882 15.0637
42.5797 14.8015
42.7713 14.6213
42.963 14.4182
43.1549 14.2277
43.3468 13.992
43.5389 13.8421
43.7312 13.6155
43.9237 13.4887
44.1162 13.2816
44.3088 13.1097
44.5016 12.8384
44.6945 12.7412
44.8875 12.5722
45.0806 12.3608
45.2739 12.2185
45.4673 12.0338
45.6609 11.8581
45.8546 11.6678
46.0484 11.4979
46.2424 11.3378
46.4365 11.1981
46.631 11.0246
46.8254 10.8749
47.0199 10.7035
47.2146 10.5474
47.4095 10.3859
47.6044 10.2291
47.7996 10.1121
47.9948 9.95229
48.1902 9.82665
48.3858 9.63648
48.5815 9.54861
48.7774 9.37457
48.9734 9.26642
49.1696 9.12395
49.3661 8.93681
49.5626 8.83066
49.7592 8.71135
49.956 8.60688
50.153 8.46282
50.3501 8.29827
50.5474 8.2124
50.7448 8.06946
50.9424 7.92943
51.1402 7.83848
51.3381 7.70096
51.5362 7.55715
51.7344 7.42263
51.9328 7.32729
52.1316 7.17605
52.3304 7.10759
52.5293 6.97094
52.7284 6.844
52.9276 6.75059
53.1271 6.64961
53.3267 6.52952
53.5265 6.3343
53.7264 6.27777
53.9266 6.18142
54.1269 6.04247
54.3274 5.89376
54.528 5.74335
54.7289 5.5725
54.9301 5.40456
55.1314 5.2421
55.3328 4.99181
55.5344 4.82077
55.7361 4.71915