File: XRD/Ni3Fe_FD0666.xy
TT I
1.27165 6.88357
1.45013 6.09533
1.62863 5.28783
1.80712 4.66344
1.98562 5.36094
2.16411 4.68758
2.34263 6.12816
2.52115 6.81687
2.69965 8.08856
2.87818 9.53513
3.05672 11.1912
3.23527 15.3156
3.4138 18.9332
3.59237 23.8686
3.77094 26.1477
3.9495 29.9573
4.12809 34.804
4.30669 182.918
4.4853 61.8855
4.6639 54.9901
4.84253 67.5122
5.02118 87.0289
5.19981 359.627
5.37848 181.448
5.55716 102.048
5.73586 91.8781
5.91455 94.7608
6.09328 4493.4
6.27201 82.4814
6.45075 66.9814
6.62952 62.3756
6.8083 58.0828
6.98711 55.6629
7.16591 54.9589
7.34475 84.7107
7.5236 54.5894
7.70247 55.9064
7.88135 57.9
8.06026 61.9228
8.23919 69.4107
8.41812 85.221
8.59709 1201.28
8.77609 98.6239
8.9551 90.235
9.13412 81.9762
9.31318 82.3739
9.49226 84.4718
9.67134 96.8474
9.85047 99.7392
10.0296 353.66
10.2088 369.816
10.388 104.112
10.5672 512.704
10.7465 86.0338
10.9257 77.8166
11.105 71.5085
11.2844 69.7584
11.4637 64.7941
11.6431 63.4955
11.8225 62.1094
12.002 63.6002
12.1814 154.145
12.3609 69.1187
12.5405 64.3815
12.72 69.0805
12.8996 70.8769
13.0792 79.103
13.2589 243.952
13.4386 121.561
13.6183 253.143
13.7981 94.7168
13.9779 75.4262
14.1577 72.12
14.3376 70.9274
14.5175 68.7159
14.6974 70.3991
14.8774 111.285
15.0574 142.551
15.2374 70.7231
15.4175 66.236
15.5976 65.7789
15.7778 95.4853
15.958 153.591
16.1382 62.02
16.3185 58.2719
16.4988 55.4034
16.6792 54.3545
16.8596 55.0698
17.04 55.6455
17.2205 66.9133
17.401 70.1256
17.5815 59.1559
17.7622 61.2681
17.9428 74.1465
18.1237 142.733
18.3044 90.9566
18.4852 75.8389
18.666 60.1885
18.8469 57.8757
19.0278 56.8235
19.2088 59.5823
19.3898 76.7919
19.5709 54.0224
19.752 52.9113
19.9332 56.3135
20.1144 69.9347
20.2957 64.1364
20.477 53.0802
20.6586 49.5853
20.84 48.7991
21.0215 48.4641
21.203 50.6194
21.3846 48.7589
21.5662 48.6603
21.7479 52.7235
21.9297 64.6939
22.1115 56.1054
22.2933 49.6314
22.4753 48.7695
22.6572 48.8718
22.8393 52.0074
23.0214 57.1426
23.2037 48.6835
23.3859 49.8014
23.5682 57.0972
23.7505 47.8841
23.9329 45.1089
24.1154 44.0398
24.2979 43.399
24.4805 42.8626
24.6631 42.5903
24.8458 42.0494
25.0286 42.7987
25.2114 44.6623
25.3943 44.5669
25.5773 40.7306
25.7605 40.4244
25.9436 40.8199
26.1268 41.7656
26.31 39.9242
26.4933 40.8289
26.6767 42.0729
26.8601 40.2838
27.0437 38.8561
27.2272 38.4779
27.4109 38.4682
27.5946 38.3554
27.7784 37.7682
27.9623 38.341
28.1462 38.8441
28.3304 36.9561
28.5145 35.9463
28.6987 35.6307
28.8829 35.4197
29.0673 34.5774
29.2517 34.3057
29.4361 34.176
29.6207 33.0774
29.8053 32.8732
29.99 32.5174
30.1748 32.3766
30.3597 32.3279
30.5447 32.1736
30.7297 32.3122
30.915 31.5659
31.1002 31.1479
31.2855 30.8981
31.4708 30.8439
31.6563 30.306
31.8418 30.0874
32.0275 29.9174
32.2132 29.3503
32.399 28.8719
32.5848 28.449
32.7708 28.1748
32.9569 27.9883
33.143 27.7792
33.3293 27.3672
33.5158 27.0461
33.7022 26.5501
33.8887 26.3398
34.0753 26.0404
34.262 25.6086
34.4488 25.193
34.6357 24.9126
34.8227 24.6378
35.0098 24.4978
35.1969 24.1792
35.3842 23.9756
35.5716 23.7227
35.759 23.4728
35.9468 23.0391
36.1345 22.8631
36.3222 22.5904
36.5101 22.4167
36.6981 22.0801
36.8861 21.7909
37.0743 21.5187
37.2626 21.2242
37.451 20.9107
37.6395 20.8271
37.8281 20.4622
38.0168 20.2007
38.2056 19.9645
38.3945 19.6683
38.5837 19.4669
38.7728 19.1637
38.9621 18.9424
39.1514 18.644
39.3409 18.4386
39.5304 18.2299
39.7201 18.0261
39.9099 17.7668
40.0999 17.5952
40.2899 17.3087
40.48 17.2019
40.6703 16.9122
40.8607 16.7099
41.0512 16.4946
41.242 16.2521
41.4327 16.063
41.6236 15.8449
41.8146 15.6027
42.0057 15.353
42.1969 15.2241
42.3882 15.0427
42.5797 14.8182
42.7713 14.6165
42.963 14.4
43.1549 14.2261
43.3468 13.9702
43.5389 13.8548
43.7312 13.6154
43.9237 13.3959
44.1162 13.3122
44.3088 13.0669
44.5016 12.8689
44.6945 12.7301
44.8875 12.5707
45.0806 12.3574
45.2739 12.1611
45.4673 12.0163
45.6609 11.8938
45.8546 11.7545
46.0484 11.5044
46.2424 11.3567
46.4365 11.2001
46.631 11.038
46.8254 10.8337
47.0199 10.6924
47.2146 10.531
47.4095 10.412
47.6044 10.2044
47.7996 10.0938
47.9948 9.91266
48.1902 9.77333
48.3858 9.64682
48.5815 9.52432
48.7774 9.33908
48.9734 9.24577
49.1696 9.07226
49.3661 8.95457
49.5626 8.79591
49.7592 8.67829
49.956 8.55468
50.153 8.41956
50.3501 8.25436
50.5474 8.18756
50.7448 8.03119
50.9424 7.94536
51.1402 7.801
51.3381 7.6611
51.5362 7.54937
51.7344 7.41155
51.9328 7.28777
52.1316 7.16231
52.3304 7.05918
52.5293 6.94777
52.7284 6.85338
52.9276 6.66889
53.1271 6.58882
53.3267 6.47969
53.5265 6.39307
53.7264 6.25623
53.9266 6.18573
54.1269 6.03561
54.3274 5.97385
54.528 5.80634
54.7289 5.6074
54.9301 5.49865
55.1314 5.33958
55.3328 5.21161
55.5344 4.95639
55.7361 4.78317