File: XRD/Ni3Fe_FD0719.xy
TT I
1.27165 7.4914
1.45013 6.95352
1.62863 4.89185
1.80712 4.86995
1.98562 4.62455
2.16411 4.89948
2.34263 5.92221
2.52115 6.81776
2.69965 8.42809
2.87818 8.84566
3.05672 11.231
3.23527 15.138
3.4138 19.0234
3.59237 23.7591
3.77094 25.8072
3.9495 29.9901
4.12809 34.6901
4.30669 141.631
4.4853 57.9977
4.6639 55.9288
4.84253 68.1255
5.02118 87.2781
5.19981 365.998
5.37848 193.171
5.55716 102.537
5.73586 92.642
5.91455 94.6347
6.09328 4446.73
6.27201 81.2367
6.45075 68.0911
6.62952 62.532
6.8083 58.6926
6.98711 55.7703
7.16591 55.7952
7.34475 75.1293
7.5236 54.5583
7.70247 56.1968
7.88135 57.7442
8.06026 62.6795
8.23919 69.2398
8.41812 84.4317
8.59709 1225.32
8.77609 99.2202
8.9551 89.8732
9.13412 82.3485
9.31318 83.517
9.49226 84.7207
9.67134 95.9525
9.85047 100.446
10.0296 355.607
10.2088 409.653
10.388 104.301
10.5672 498.022
10.7465 86.6708
10.9257 78.1549
11.105 71.6805
11.2844 69.0381
11.4637 64.9817
11.6431 63.6749
11.8225 62.5504
12.002 63.732
12.1814 154.298
12.3609 68.8019
12.5405 64.68
12.72 68.5394
12.8996 71.2409
13.0792 79.3468
13.2589 247.495
13.4386 126.451
13.6183 254.599
13.7981 97.5407
13.9779 75.7927
14.1577 71.8628
14.3376 70.7505
14.5175 68.6167
14.6974 70.6319
14.8774 113.027
15.0574 147.517
15.2374 70.2969
15.4175 66.177
15.5976 65.7224
15.7778 96.6248
15.958 153.864
16.1382 61.855
16.3185 58.2073
16.4988 55.3095
16.6792 54.3536
16.8596 54.8863
17.04 55.8872
17.2205 67.1188
17.401 70.7678
17.5815 59.1116
17.7622 61.2261
17.9428 74.148
18.1237 138.066
18.3044 91.4458
18.4852 77.191
18.666 60.3224
18.8469 57.6781
19.0278 56.7255
19.2088 59.621
19.3898 75.4392
19.5709 54.0384
19.752 53.2694
19.9332 56.1086
20.1144 69.2486
20.2957 63.8502
20.477 53.7127
20.6586 49.6654
20.84 48.8639
21.0215 48.6236
21.203 50.8596
21.3846 48.7583
21.5662 48.7925
21.7479 52.7282
21.9297 64.2109
22.1115 55.802
22.2933 49.8032
22.4753 48.7427
22.6572 48.9438
22.8393 52.0859
23.0214 57.1928
23.2037 48.7966
23.3859 49.818
23.5682 56.7697
23.7505 48.3961
23.9329 45.122
24.1154 44.0202
24.2979 43.4101
24.4805 42.8027
24.6631 42.6734
24.8458 42.0953
25.0286 42.7655
25.2114 44.6905
25.3943 44.3561
25.5773 40.9616
25.7605 40.4686
25.9436 40.937
26.1268 41.55
26.31 39.9564
26.4933 40.755
26.6767 42.1071
26.8601 40.3348
27.0437 38.8304
27.2272 38.4983
27.4109 38.4603
27.5946 38.3343
27.7784 37.8704
27.9623 38.449
28.1462 38.6386
28.3304 37.2466
28.5145 35.9086
28.6987 35.5918
28.8829 35.369
29.0673 34.6336
29.2517 34.3264
29.4361 34.0359
29.6207 33.0676
29.8053 32.8841
29.99 32.5507
30.1748 32.4979
30.3597 32.3228
30.5447 32.0781
30.7297 32.2052
30.915 31.539
31.1002 31.1287
31.2855 30.8068
31.4708 30.7412
31.6563 30.2912
31.8418 30.0395
32.0275 29.8713
32.2132 29.3043
32.399 28.9478
32.5848 28.3614
32.7708 28.0617
32.9569 27.9916
33.143 27.7486
33.3293 27.296
33.5158 26.9994
33.7022 26.6138
33.8887 26.2139
34.0753 25.9832
34.262 25.5668
34.4488 25.2942
34.6357 24.9608
34.8227 24.6196
35.0098 24.4825
35.1969 24.1346
35.3842 23.9117
35.5716 23.7206
35.759 23.4861
35.9468 23.1531
36.1345 22.8609
36.3222 22.633
36.5101 22.3454
36.6981 22.0889
36.8861 21.7546
37.0743 21.4723
37.2626 21.1668
37.451 20.9477
37.6395 20.8308
37.8281 20.3971
38.0168 20.1414
38.2056 19.9126
38.3945 19.6755
38.5837 19.4384
38.7728 19.1732
38.9621 18.9326
39.1514 18.6875
39.3409 18.4235
39.5304 18.2346
39.7201 18.0383
39.9099 17.8214
40.0999 17.5742
40.2899 17.3493
40.48 17.1134
40.6703 16.868
40.8607 16.7353
41.0512 16.4918
41.242 16.2616
41.4327 16.0966
41.6236 15.8089
41.8146 15.6194
42.0057 15.3473
42.1969 15.194
42.3882 15.0141
42.5797 14.7755
42.7713 14.5736
42.963 14.4349
43.1549 14.1972
43.3468 14.0239
43.5389 13.7993
43.7312 13.59
43.9237 13.4267
44.1162 13.2254
44.3088 13.1131
44.5016 12.8944
44.6945 12.6894
44.8875 12.5305
45.0806 12.3622
45.2739 12.1858
45.4673 11.9735
45.6609 11.8098
45.8546 11.6735
46.0484 11.5006
46.2424 11.3307
46.4365 11.2119
46.631 11.0183
46.8254 10.8658
47.0199 10.7165
47.2146 10.5442
47.4095 10.3662
47.6044 10.2066
47.7996 10.0757
47.9948 9.92625
48.1902 9.75577
48.3858 9.62703
48.5815 9.54038
48.7774 9.35355
48.9734 9.22799
49.1696 9.09681
49.3661 8.9212
49.5626 8.77052
49.7592 8.66869
49.956 8.55512
50.153 8.41631
50.3501 8.27238
50.5474 8.20079
50.7448 8.00274
50.9424 7.91477
51.1402 7.79608
51.3381 7.68635
51.5362 7.52271
51.7344 7.39496
51.9328 7.30162
52.1316 7.1775
52.3304 7.06265
52.5293 6.94724
52.7284 6.82331
52.9276 6.70561
53.1271 6.62356
53.3267 6.52536
53.5265 6.38965
53.7264 6.29631
53.9266 6.17837
54.1269 6.02845
54.3274 5.96637
54.528 5.80948
54.7289 5.67966
54.9301 5.43931
55.1314 5.38814
55.3328 5.1729
55.5344 4.93906
55.7361 4.8573