File: XRD/Ni3Fe_FD0040.xy
TT I
1.27165 32.5784
1.45013 27.6149
1.62863 24.1995
1.80712 21.7017
1.98562 21.1934
2.16411 21.7014
2.34263 22.4074
2.52115 22.0202
2.69965 26.6307
2.87818 36.8622
3.05672 63.6289
3.23527 70.1312
3.4138 35.8233
3.59237 30.3505
3.77094 28.5329
3.9495 27.9853
4.12809 32.2224
4.30669 51.7959
4.4853 41.5288
4.6639 41.5631
4.84253 52.3295
5.02118 89.9116
5.19981 296.912
5.37848 3508.49
5.55716 153.149
5.73586 101.19
5.91455 115.198
6.09328 525.205
6.27201 254.548
6.45075 65.8844
6.62952 48.4686
6.8083 44.2926
6.98711 39.5359
7.16591 40.4152
7.34475 50.082
7.5236 52.1786
7.70247 42.9631
7.88135 37.1531
8.06026 38.9425
8.23919 44.1469
8.41812 56.5847
8.59709 178.535
8.77609 483.532
8.9551 75.5059
9.13412 61.9737
9.31318 325.309
9.49226 55.8429
9.67134 55.2881
9.85047 60.9708
10.0296 110.213
10.2088 620.386
10.388 110.052
10.5672 95.8109
10.7465 231.157
10.9257 49.8055
11.105 43.0893
11.2844 40.922
11.4637 38.2401
11.6431 37.87
11.8225 37.7756
12.002 101.285
12.1814 48.8628
12.3609 92.1515
12.5405 42.3714
12.72 39.892
12.8996 39.7943
13.0792 44.7299
13.2589 67.808
13.4386 178.597
13.6183 84.7381
13.7981 183.55
13.9779 56.4843
14.1577 55.0517
14.3376 46.4556
14.5175 40.0889
14.6974 40.0265
14.8774 46.695
15.0574 68.7878
15.2374 70.2977
15.4175 41.358
15.5976 39.4539
15.7778 43.9525
15.958 59.3828
16.1382 94.3284
16.3185 38.5725
16.4988 34.1158
16.6792 32.8223
16.8596 32.7517
17.04 42.9704
17.2205 34.8671
17.401 38.6388
17.5815 41.7742
17.7622 36.5804
17.9428 40.5259
18.1237 44.493
18.3044 91.1582
18.4852 54.8134
18.666 54.0619
18.8469 36.6176
19.0278 34.7428
19.2088 34.8234
19.3898 44.7242
19.5709 46.5079
19.752 34.4165
19.9332 32.648
20.1144 33.4298
20.2957 44.0991
20.477 38.9799
20.6586 34.6387
20.84 33.7469
21.0215 30.024
21.203 29.5348
21.3846 30.3812
21.5662 31.7092
21.7479 30.5895
21.9297 31.865
22.1115 41.9539
22.2933 39.3959
22.4753 32.6878
22.6572 30.1117
22.8393 31.5178
23.0214 31.5158
23.2037 39.0618
23.3859 32.1133
23.5682 34.4793
23.7505 35.1115
23.9329 34.3085
24.1154 29.3485
24.2979 27.7344
24.4805 27.1088
24.6631 27.0827
24.8458 27.6923
25.0286 26.6315
25.2114 26.8481
25.3943 28.9994
25.5773 29.9309
25.7605 26.9689
25.9436 26.9271
26.1268 25.7878
26.31 26.9031
26.4933 26.5189
26.6767 25.9147
26.8601 27.5858
27.0437 28.4979
27.2272 25.8012
27.4109 24.8446
27.5946 24.8146
27.7784 24.9984
27.9623 24.752
28.1462 25.6543
28.3304 26.5733
28.5145 25.6436
28.6987 24.1655
28.8829 22.9733
29.0673 22.6852
29.2517 22.9725
29.4361 22.1172
29.6207 22.0786
29.8053 21.917
29.99 21.404
30.1748 21.4618
30.3597 21.0044
30.5447 21.2449
30.7297 20.8991
30.915 21.2394
31.1002 21.726
31.2855 20.8562
31.4708 20.3472
31.6563 20.5025
31.8418 20.6974
32.0275 20.0313
32.2132 20.2806
32.399 19.9417
32.5848 19.271
32.7708 18.9203
32.9569 18.7979
33.143 18.6225
33.3293 18.331
33.5158 18.5446
33.7022 18.2051
33.8887 17.7527
34.0753 17.5224
34.262 17.3716
34.4488 17.1369
34.6357 16.9161
34.8227 16.6323
35.0098 16.4522
35.1969 16.2509
35.3842 16.1875
35.5716 16.0448
35.759 16.2141
35.9468 15.956
36.1345 15.7178
36.3222 15.5242
36.5101 15.3412
36.6981 15.1487
36.8861 15.0115
37.0743 14.7838
37.2626 14.4777
37.451 14.358
37.6395 14.2533
37.8281 14.0224
38.0168 13.794
38.2056 13.6981
38.3945 13.4435
38.5837 13.3218
38.7728 13.1884
38.9621 12.9756
39.1514 12.8721
39.3409 12.6832
39.5304 12.5174
39.7201 12.3949
39.9099 12.2287
40.0999 12.1718
40.2899 12.0204
40.48 11.8514
40.6703 11.6987
40.8607 11.5955
41.0512 11.4689
41.242 11.2857
41.4327 11.1872
41.6236 11.0142
41.8146 10.8884
42.0057 10.7396
42.1969 10.6041
42.3882 10.4691
42.5797 10.2875
42.7713 10.1904
42.963 10.0687
43.1549 9.88429
43.3468 9.76626
43.5389 9.66471
43.7312 9.50399
43.9237 9.41421
44.1162 9.30517
44.3088 9.17915
44.5016 9.007
44.6945 8.94282
44.8875 8.78473
45.0806 8.66523
45.2739 8.6075
45.4673 8.45312
45.6609 8.31236
45.8546 8.22765
46.0484 8.11517
46.2424 7.9913
46.4365 7.96486
46.631 7.76643
46.8254 7.63986
47.0199 7.55346
47.2146 7.46822
47.4095 7.36578
47.6044 7.19497
47.7996 7.12595
47.9948 7.02664
48.1902 6.91699
48.3858 6.85677
48.5815 6.71829
48.7774 6.63106
48.9734 6.60069
49.1696 6.43839
49.3661 6.37788
49.5626 6.27264
49.7592 6.19526
49.956 6.10409
50.153 6.00775
50.3501 5.94147
50.5474 5.85164
50.7448 5.75027
50.9424 5.66698
51.1402 5.59518
51.3381 5.47942
51.5362 5.44102
51.7344 5.33005
51.9328 5.22149
52.1316 5.13386
52.3304 5.10754
52.5293 5.0317
52.7284 4.96691
52.9276 4.86473
53.1271 4.79944
53.3267 4.71076
53.5265 4.63755
53.7264 4.56225
53.9266 4.45702
54.1269 4.33386
54.3274 4.30564
54.528 4.14161
54.7289 4.03692
54.9301 3.89296
55.1314 3.82308
55.3328 3.64277
55.5344 3.4978
55.7361 3.39939