File: XRD/Ni3Fe_FD0238.xy
TT I
1.27165 7.86654
1.45013 6.11175
1.62863 5.59181
1.80712 5.40499
1.98562 4.85897
2.16411 4.37165
2.34263 4.90848
2.52115 5.05521
2.69965 6.92465
2.87818 8.0689
3.05672 11.3237
3.23527 14.6888
3.4138 18.4707
3.59237 22.3815
3.77094 26.26
3.9495 29.7753
4.12809 34.7089
4.30669 40.7814
4.4853 48.7503
4.6639 58.0349
4.84253 71.4869
5.02118 96.5166
5.19981 890.512
5.37848 270.771
5.55716 111.695
5.73586 100.666
5.91455 110.215
6.09328 3666.06
6.27201 88.6678
6.45075 71.1716
6.62952 64.5377
6.8083 59.9684
6.98711 57.418
7.16591 56.5349
7.34475 56.0266
7.5236 56.1646
7.70247 58.1739
7.88135 60.3578
8.06026 65.2867
8.23919 73.3089
8.41812 90.3857
8.59709 1081.22
8.77609 110.783
8.9551 90.8492
9.13412 87.1461
9.31318 88.2446
9.49226 89.6021
9.67134 95.869
9.85047 106.931
10.0296 515.801
10.2088 541.31
10.388 115.648
10.5672 454.805
10.7465 92.2841
10.9257 80.7236
11.105 74.5894
11.2844 70.881
11.4637 67.7986
11.6431 66.5086
11.8225 65.2439
12.002 68.6494
12.1814 142.021
12.3609 70.0153
12.5405 67.4894
12.72 69.6743
12.8996 74.777
13.0792 86.4567
13.2589 231.467
13.4386 149.194
13.6183 228.14
13.7981 109.684
13.9779 80.2355
14.1577 75.306
14.3376 73.0539
14.5175 72.4254
14.6974 74.6072
14.8774 120.023
15.0574 169.623
15.2374 72.1383
15.4175 69.8438
15.5976 69.7699
15.7778 103.78
15.958 173.499
16.1382 63.7526
16.3185 60.1894
16.4988 58.0083
16.6792 57.1048
16.8596 57.3638
17.04 59.3846
17.2205 68.978
17.401 76.4123
17.5815 62.1784
17.7622 64.4859
17.9428 82.6212
18.1237 139.16
18.3044 90.5781
18.4852 83.1094
18.666 63.4385
18.8469 60.8108
19.0278 59.5404
19.2088 62.8246
19.3898 76.3064
19.5709 56.9656
19.752 56.0768
19.9332 59.5505
20.1144 72.6936
20.2957 64.3756
20.477 56.4731
20.6586 51.9982
20.84 51.0244
21.0215 51.0264
21.203 52.6682
21.3846 51.5086
21.5662 51.9374
21.7479 55.4336
21.9297 66.6349
22.1115 57.6071
22.2933 52.3493
22.4753 50.9641
22.6572 51.9706
22.8393 54.1532
23.0214 60.0086
23.2037 51.3291
23.3859 52.6839
23.5682 57.6512
23.7505 51.0398
23.9329 47.274
24.1154 46.0314
24.2979 45.5702
24.4805 44.7592
24.6631 44.7342
24.8458 44.4766
25.0286 44.965
25.2114 46.5203
25.3943 46.6425
25.5773 42.8122
25.7605 42.4728
25.9436 42.7328
26.1268 43.4976
26.31 42.2188
26.4933 42.5308
26.6767 43.823
26.8601 42.1815
27.0437 40.6912
27.2272 40.4035
27.4109 40.1228
27.5946 40.2021
27.7784 39.6768
27.9623 40.0138
28.1462 40.4813
28.3304 38.9278
28.5145 37.693
28.6987 37.1918
28.8829 36.9924
29.0673 36.2344
29.2517 35.778
29.4361 35.6844
29.6207 34.5763
29.8053 34.3961
29.99 34.0207
30.1748 33.9675
30.3597 33.7504
30.5447 33.6647
30.7297 33.6476
30.915 33.0928
31.1002 32.5131
31.2855 32.3003
31.4708 32.1894
31.6563 31.7529
31.8418 31.4749
32.0275 31.3389
32.2132 30.7723
32.399 30.2291
32.5848 29.7972
32.7708 29.4541
32.9569 29.2882
33.143 28.9851
33.3293 28.617
33.5158 28.2591
33.7022 27.8643
33.8887 27.5198
34.0753 27.111
34.262 26.7351
34.4488 26.4544
34.6357 26.1454
34.8227 25.7957
35.0098 25.5294
35.1969 25.3253
35.3842 25.0194
35.5716 24.8478
35.759 24.528
35.9468 24.1241
36.1345 24.0446
36.3222 23.6417
36.5101 23.4001
36.6981 23.1619
36.8861 22.7269
37.0743 22.4806
37.2626 22.2289
37.451 21.9063
37.6395 21.8272
37.8281 21.4286
38.0168 21.1374
38.2056 20.8529
38.3945 20.5328
38.5837 20.3198
38.7728 20.087
38.9621 19.7686
39.1514 19.5001
39.3409 19.3363
39.5304 19.1335
39.7201 18.8489
39.9099 18.5882
40.0999 18.3344
40.2899 18.118
40.48 17.8387
40.6703 17.6922
40.8607 17.4375
41.0512 17.3005
41.242 16.9887
41.4327 16.7665
41.6236 16.5455
41.8146 16.3853
42.0057 16.109
42.1969 15.9105
42.3882 15.6875
42.5797 15.4682
42.7713 15.2996
42.963 15.0408
43.1549 14.8145
43.3468 14.6694
43.5389 14.4576
43.7312 14.1895
43.9237 14.0613
44.1162 13.8272
44.3088 13.637
44.5016 13.4484
44.6945 13.2922
44.8875 13.094
45.0806 12.902
45.2739 12.7383
45.4673 12.531
45.6609 12.3537
45.8546 12.1614
46.0484 12.0216
46.2424 11.8021
46.4365 11.7027
46.631 11.5084
46.8254 11.3151
47.0199 11.1603
47.2146 10.9735
47.4095 10.8349
47.6044 10.6896
47.7996 10.5418
47.9948 10.3849
48.1902 10.2207
48.3858 10.0182
48.5815 9.93901
48.7774 9.79067
48.9734 9.64451
49.1696 9.46306
49.3661 9.3297
49.5626 9.14922
49.7592 9.06736
49.956 8.94093
50.153 8.77419
50.3501 8.62347
50.5474 8.50306
50.7448 8.38781
50.9424 8.24737
51.1402 8.13418
51.3381 7.99183
51.5362 7.859
51.7344 7.70543
51.9328 7.59481
52.1316 7.46971
52.3304 7.37695
52.5293 7.2466
52.7284 7.09933
52.9276 6.97892
53.1271 6.89239
53.3267 6.78454
53.5265 6.60518
53.7264 6.54258
53.9266 6.41572
54.1269 6.27206
54.3274 6.18265
54.528 6.00237
54.7289 5.82653
54.9301 5.67508
55.1314 5.53352
55.3328 5.33024
55.5344 5.10642
55.7361 5.02585