File: XRD/Ni3Fe_FD0262.xy
TT I
1.27165 7.36817
1.45013 6.81936
1.62863 5.85384
1.80712 5.3092
1.98562 5.07617
2.16411 4.88768
2.34263 4.62151
2.52115 5.06848
2.69965 6.82809
2.87818 8.50098
3.05672 11.3407
3.23527 15.0279
3.4138 19.4089
3.59237 23.6465
3.77094 26.3633
3.9495 30.41
4.12809 35.6659
4.30669 145.685
4.4853 59.6053
4.6639 57.541
4.84253 70.4575
5.02118 93.9647
5.19981 560.448
5.37848 275.217
5.55716 110.309
5.73586 98.6054
5.91455 104.483
6.09328 3671.05
6.27201 89.9171
6.45075 71.0853
6.62952 64.9672
6.8083 61.2763
6.98711 57.4697
7.16591 57.6783
7.34475 79.5268
7.5236 56.6652
7.70247 58.2659
7.88135 60.3631
8.06026 65.1178
8.23919 72.9821
8.41812 89.3234
8.59709 1108.14
8.77609 110.062
8.9551 93.8635
9.13412 86.3023
9.31318 87.7357
9.49226 88.4111
9.67134 99.6126
9.85047 105.547
10.0296 457.086
10.2088 593.836
10.388 110.849
10.5672 448.298
10.7465 92.0859
10.9257 81.4277
11.105 74.7898
11.2844 72.4618
11.4637 67.5563
11.6431 66.4187
11.8225 65.353
12.002 66.6325
12.1814 143.798
12.3609 73.1311
12.5405 67.3783
12.72 71.724
12.8996 74.2009
13.0792 83.3399
13.2589 233.177
13.4386 152.256
13.6183 231.316
13.7981 114.981
13.9779 79.4884
14.1577 75.2477
14.3376 73.9077
14.5175 72.1891
14.6974 73.7683
14.8774 118.74
15.0574 176.131
15.2374 73.2688
15.4175 69.4129
15.5976 68.9374
15.7778 103.141
15.958 174.803
16.1382 64.9308
16.3185 60.8957
16.4988 57.9742
16.6792 56.9586
16.8596 57.3632
17.04 58.2611
17.2205 68.9333
17.401 77.981
17.5815 62.0211
17.7622 63.9583
17.9428 81.2016
18.1237 134.888
18.3044 91.6189
18.4852 85.2503
18.666 63.2531
18.8469 60.7267
19.0278 59.3253
19.2088 62.9923
19.3898 76.41
19.5709 57.1283
19.752 55.6522
19.9332 59.3398
20.1144 71.5241
20.2957 64.6807
20.477 57.204
20.6586 51.9349
20.84 50.9007
21.0215 50.8937
21.203 52.5525
21.3846 51.6244
21.5662 51.1175
21.7479 55.1483
21.9297 66.1204
22.1115 57.8122
22.2933 52.6404
22.4753 51.0154
22.6572 51.1411
22.8393 54.0947
23.0214 59.6598
23.2037 51.0292
23.3859 52.3731
23.5682 57.4708
23.7505 51.4391
23.9329 47.4045
24.1154 46.1598
24.2979 45.2271
24.4805 44.7358
24.6631 44.7214
24.8458 44.1333
25.0286 44.7702
25.2114 46.3439
25.3943 46.5016
25.5773 42.828
25.7605 42.3277
25.9436 42.3764
26.1268 43.1946
26.31 42.1441
26.4933 42.454
26.6767 43.82
26.8601 42.2675
27.0437 40.6935
27.2272 40.1862
27.4109 40.0345
27.5946 40.0485
27.7784 39.6675
27.9623 39.7976
28.1462 40.4989
28.3304 38.9669
28.5145 37.6285
28.6987 37.1515
28.8829 36.8702
29.0673 36.2549
29.2517 35.6847
29.4361 35.5119
29.6207 34.6158
29.8053 34.2737
29.99 33.9124
30.1748 33.7393
30.3597 33.742
30.5447 33.5858
30.7297 33.4907
30.915 33.066
31.1002 32.508
31.2855 32.1078
31.4708 32.1346
31.6563 31.7605
31.8418 31.4094
32.0275 31.2196
32.2132 30.7096
32.399 30.1113
32.5848 29.779
32.7708 29.4121
32.9569 29.1952
33.143 28.9671
33.3293 28.5924
33.5158 28.2286
33.7022 27.7737
33.8887 27.3484
34.0753 27.1593
34.262 26.8525
34.4488 26.3958
34.6357 26.1251
34.8227 25.8155
35.0098 25.5254
35.1969 25.2988
35.3842 24.984
35.5716 24.7915
35.759 24.453
35.9468 24.0708
36.1345 23.9337
36.3222 23.6963
36.5101 23.3826
36.6981 23.0716
36.8861 22.7486
37.0743 22.3685
37.2626 22.19
37.451 21.9304
37.6395 21.7012
37.8281 21.3497
38.0168 21.1301
38.2056 20.8145
38.3945 20.4933
38.5837 20.296
38.7728 20.0076
38.9621 19.7948
39.1514 19.4886
39.3409 19.242
39.5304 19.1239
39.7201 18.8748
39.9099 18.6189
40.0999 18.3538
40.2899 18.1198
40.48 17.8302
40.6703 17.6181
40.8607 17.4594
41.0512 17.1631
41.242 16.9512
41.4327 16.75
41.6236 16.4796
41.8146 16.3165
42.0057 16.119
42.1969 15.8743
42.3882 15.7211
42.5797 15.4416
42.7713 15.2338
42.963 15.0726
43.1549 14.8074
43.3468 14.5854
43.5389 14.4084
43.7312 14.1981
43.9237 14.0467
44.1162 13.8447
44.3088 13.644
44.5016 13.4358
44.6945 13.2363
44.8875 13.0628
45.0806 12.8321
45.2739 12.7644
45.4673 12.559
45.6609 12.3343
45.8546 12.218
46.0484 12.0194
46.2424 11.8767
46.4365 11.6689
46.631 11.4911
46.8254 11.3103
47.0199 11.1758
47.2146 10.9698
47.4095 10.7946
47.6044 10.6484
47.7996 10.5115
47.9948 10.3362
48.1902 10.1962
48.3858 10.057
48.5815 9.93594
48.7774 9.76434
48.9734 9.63814
49.1696 9.53037
49.3661 9.36819
49.5626 9.14787
49.7592 9.04935
49.956 8.90673
50.153 8.81749
50.3501 8.64206
50.5474 8.5219
50.7448 8.41594
50.9424 8.26152
51.1402 8.1578
51.3381 8.02572
51.5362 7.88097
51.7344 7.70082
51.9328 7.60098
52.1316 7.46088
52.3304 7.37636
52.5293 7.22629
52.7284 7.12425
52.9276 6.98765
53.1271 6.88892
53.3267 6.77865
53.5265 6.62318
53.7264 6.52994
53.9266 6.38851
54.1269 6.28263
54.3274 6.17535
54.528 6.03492
54.7289 5.83125
54.9301 5.72602
55.1314 5.57149
55.3328 5.33634
55.5344 5.13185
55.7361 4.97687