File: XRD/Ni3Fe_FD0454.xy
TT I
1.27165 7.4821
1.45013 6.39104
1.62863 5.64065
1.80712 4.55843
1.98562 4.87251
2.16411 4.53586
2.34263 4.99828
2.52115 6.30307
2.69965 7.71238
2.87818 8.56908
3.05672 10.9966
3.23527 15.3721
3.4138 19.0107
3.59237 23.7194
3.77094 25.9698
3.9495 29.7722
4.12809 34.9649
4.30669 141.944
4.4853 58.4236
4.6639 56.8321
4.84253 68.717
5.02118 90.4512
5.19981 510.174
5.37848 203.162
5.55716 104.35
5.73586 94.5425
5.91455 98.9225
6.09328 4240.24
6.27201 84.0321
6.45075 68.4729
6.62952 63.3873
6.8083 59.1468
6.98711 56.5467
7.16591 56.073
7.34475 76.8064
7.5236 55.3981
7.70247 57.0737
7.88135 58.3317
8.06026 63.28
8.23919 70.9389
8.41812 86.822
8.59709 1232.52
8.77609 101.948
8.9551 90.885
9.13412 83.7489
9.31318 84.678
9.49226 86.3692
9.67134 96.95
9.85047 102.362
10.0296 408.062
10.2088 413.003
10.388 107.948
10.5672 493.948
10.7465 88.034
10.9257 79.2457
11.105 72.6126
11.2844 70.3041
11.4637 65.9065
11.6431 64.5815
11.8225 63.5739
12.002 65.3743
12.1814 155.764
12.3609 69.601
12.5405 65.3596
12.72 69.7518
12.8996 72.5114
13.0792 81.5959
13.2589 250.237
13.4386 125.443
13.6183 252.338
13.7981 98.0832
13.9779 77.2781
14.1577 73.3952
14.3376 71.9784
14.5175 70.1844
14.6974 72.1283
14.8774 117.93
15.0574 149.25
15.2374 71.3061
15.4175 67.5781
15.5976 67.1463
15.7778 101.341
15.958 156.677
16.1382 62.9346
16.3185 58.9166
16.4988 56.4251
16.6792 55.3407
16.8596 56.099
17.04 57.0857
17.2205 68.5167
17.401 71.7158
17.5815 60.3861
17.7622 62.3892
17.9428 77.3024
18.1237 139.137
18.3044 91.83
18.4852 78.1627
18.666 61.3031
18.8469 59.0244
19.0278 57.959
19.2088 61.1077
19.3898 76.6851
19.5709 55.0664
19.752 54.2715
19.9332 57.8119
20.1144 70.9407
20.2957 64.4502
20.477 54.5078
20.6586 50.5459
20.84 49.6308
21.0215 49.3774
21.203 51.5707
21.3846 49.8633
21.5662 49.8676
21.7479 53.8825
21.9297 65.3649
22.1115 56.6268
22.2933 50.6373
22.4753 49.4839
22.6572 49.9019
22.8393 53.1024
23.0214 58.1245
23.2037 49.716
23.3859 50.8026
23.5682 57.381
23.7505 49.0926
23.9329 46.1189
24.1154 44.8203
24.2979 44.1665
24.4805 43.6306
24.6631 43.5919
24.8458 42.9196
25.0286 43.6763
25.2114 45.3846
25.3943 45.2126
25.5773 41.5437
25.7605 41.1652
25.9436 41.5562
26.1268 42.3236
26.31 40.8153
26.4933 41.4426
26.6767 42.8568
26.8601 41.0012
27.0437 39.5317
27.2272 39.0556
27.4109 38.935
27.5946 39.0395
27.7784 38.4986
27.9623 39.0155
28.1462 39.4975
28.3304 37.7555
28.5145 36.6667
28.6987 36.2361
28.8829 36.0248
29.0673 35.3122
29.2517 34.8323
29.4361 34.6218
29.6207 33.6616
29.8053 33.4448
29.99 33.091
30.1748 32.9593
30.3597 32.7863
30.5447 32.7107
30.7297 32.6444
30.915 32.1797
31.1002 31.586
31.2855 31.3168
31.4708 31.3512
31.6563 30.8109
31.8418 30.6093
32.0275 30.357
32.2132 29.9096
32.399 29.333
32.5848 29.0169
32.7708 28.5845
32.9569 28.3913
33.143 28.2956
33.3293 27.8336
33.5158 27.52
33.7022 27.02
33.8887 26.7346
34.0753 26.4308
34.262 26.0516
34.4488 25.7039
34.6357 25.3472
34.8227 25.1236
35.0098 24.8837
35.1969 24.536
35.3842 24.3841
35.5716 24.149
35.759 23.8488
35.9468 23.4148
36.1345 23.2804
36.3222 23.0194
36.5101 22.7455
36.6981 22.4686
36.8861 22.1483
37.0743 21.7992
37.2626 21.586
37.451 21.2921
37.6395 21.129
37.8281 20.8401
38.0168 20.579
38.2056 20.2457
38.3945 20.0418
38.5837 19.7513
38.7728 19.5335
38.9621 19.2639
39.1514 19.0358
39.3409 18.7285
39.5304 18.4953
39.7201 18.3274
39.9099 18.1116
40.0999 17.8916
40.2899 17.6165
40.48 17.4075
40.6703 17.2468
40.8607 17.0263
41.0512 16.7444
41.242 16.5122
41.4327 16.263
41.6236 16.151
41.8146 15.9003
42.0057 15.6657
42.1969 15.4051
42.3882 15.284
42.5797 15.0455
42.7713 14.8986
42.963 14.6374
43.1549 14.4674
43.3468 14.2182
43.5389 14.0688
43.7312 13.8684
43.9237 13.65
44.1162 13.4555
44.3088 13.2631
44.5016 13.0657
44.6945 12.9326
44.8875 12.7839
45.0806 12.5478
45.2739 12.4487
45.4673 12.1856
45.6609 12.0223
45.8546 11.8605
46.0484 11.6975
46.2424 11.5347
46.4365 11.3752
46.631 11.1623
46.8254 11.0112
47.0199 10.8986
47.2146 10.7521
47.4095 10.5721
47.6044 10.3775
47.7996 10.2367
47.9948 10.1096
48.1902 9.91936
48.3858 9.8105
48.5815 9.65592
48.7774 9.50355
48.9734 9.41328
49.1696 9.26169
49.3661 9.07929
49.5626 8.93765
49.7592 8.81752
49.956 8.68034
50.153 8.54429
50.3501 8.44501
50.5474 8.29891
50.7448 8.20871
50.9424 8.05189
51.1402 7.9219
51.3381 7.78059
51.5362 7.67918
51.7344 7.54173
51.9328 7.40965
52.1316 7.27954
52.3304 7.20781
52.5293 7.05656
52.7284 6.94127
52.9276 6.82565
53.1271 6.69917
53.3267 6.58518
53.5265 6.47958
53.7264 6.37784
53.9266 6.27355
54.1269 6.14232
54.3274 6.07777
54.528 5.87465
54.7289 5.72748
54.9301 5.54175
55.1314 5.4656
55.3328 5.23207
55.5344 5.02284
55.7361 4.86749