File: XRD/Ni3Fe_FD0623.xy
TT I
1.27165 6.96123
1.45013 6.51473
1.62863 5.2844
1.80712 4.38841
1.98562 3.93774
2.16411 4.84209
2.34263 5.24676
2.52115 7.22567
2.69965 7.59517
2.87818 9.14115
3.05672 11.0627
3.23527 15.0021
3.4138 18.9631
3.59237 23.9823
3.77094 26.0735
3.9495 30.2457
4.12809 35.1447
4.30669 218.911
4.4853 65.8395
4.6639 55.6562
4.84253 67.4271
5.02118 87.0881
5.19981 349.267
5.37848 194.507
5.55716 102.826
5.73586 92.8283
5.91455 94.0779
6.09328 4378.0
6.27201 83.6358
6.45075 67.8431
6.62952 63.1567
6.8083 59.2421
6.98711 56.268
7.16591 55.5925
7.34475 92.6981
7.5236 55.18
7.70247 56.6793
7.88135 57.86
8.06026 62.0678
8.23919 69.5909
8.41812 85.7142
8.59709 1171.22
8.77609 100.59
8.9551 92.1627
9.13412 81.9001
9.31318 82.5993
9.49226 84.6711
9.67134 99.5233
9.85047 100.218
10.0296 337.373
10.2088 422.913
10.388 105.218
10.5672 503.822
10.7465 87.2317
10.9257 78.9726
11.105 72.3581
11.2844 70.6657
11.4637 65.3449
11.6431 63.9544
11.8225 62.885
12.002 63.7372
12.1814 152.454
12.3609 71.2473
12.5405 65.0369
12.72 70.4881
12.8996 70.9782
13.0792 79.07
13.2589 236.795
13.4386 128.296
13.6183 247.209
13.7981 100.321
13.9779 76.0462
14.1577 72.7433
14.3376 72.0722
14.5175 69.2255
14.6974 70.5646
14.8774 110.578
15.0574 151.194
15.2374 71.6857
15.4175 66.5725
15.5976 65.888
15.7778 94.6697
15.958 156.778
16.1382 63.1019
16.3185 59.2252
16.4988 55.8614
16.6792 54.715
16.8596 55.6031
17.04 56.0084
17.2205 66.9528
17.401 72.8366
17.5815 59.43
17.7622 61.6207
17.9428 73.7465
18.1237 138.935
18.3044 90.8711
18.4852 78.7032
18.666 60.8097
18.8469 58.4263
19.0278 57.2623
19.2088 59.6618
19.3898 76.4804
19.5709 54.4496
19.752 53.5693
19.9332 56.3446
20.1144 69.8785
20.2957 64.1723
20.477 54.2207
20.6586 49.8758
20.84 49.0702
21.0215 48.9603
21.203 51.0228
21.3846 49.3332
21.5662 48.9777
21.7479 52.8765
21.9297 64.3055
22.1115 56.2811
22.2933 50.1762
22.4753 49.0625
22.6572 49.0318
22.8393 52.1568
23.0214 57.5119
23.2037 48.952
23.3859 50.0644
23.5682 57.1866
23.7505 48.7981
23.9329 45.4494
24.1154 44.389
24.2979 43.6244
24.4805 43.108
24.6631 43.0287
24.8458 42.4021
25.0286 43.1236
25.2114 44.7713
25.3943 44.9133
25.5773 41.2698
25.7605 40.6559
25.9436 41.1159
26.1268 41.7167
26.31 40.3599
26.4933 40.9829
26.6767 42.395
26.8601 40.7122
27.0437 39.1258
27.2272 38.6576
27.4109 38.6056
27.5946 38.5585
27.7784 38.0962
27.9623 38.5892
28.1462 39.0038
28.3304 37.3443
28.5145 36.173
28.6987 35.7264
28.8829 35.5369
29.0673 34.8466
29.2517 34.4727
29.4361 34.3343
29.6207 33.3262
29.8053 33.0221
29.99 32.7624
30.1748 32.5986
30.3597 32.4899
30.5447 32.2578
30.7297 32.3776
30.915 31.881
31.1002 31.2579
31.2855 31.0324
31.4708 31.0197
31.6563 30.4344
31.8418 30.3185
32.0275 29.9855
32.2132 29.4693
32.399 29.1708
32.5848 28.6242
32.7708 28.3466
32.9569 28.173
33.143 27.9476
33.3293 27.521
33.5158 27.1591
33.7022 26.8315
33.8887 26.4974
34.0753 26.0967
34.262 25.741
34.4488 25.4868
34.6357 25.1976
34.8227 24.8964
35.0098 24.7182
35.1969 24.3282
35.3842 24.0672
35.5716 23.965
35.759 23.5842
35.9468 23.1885
36.1345 23.0401
36.3222 22.8
36.5101 22.608
36.6981 22.2803
36.8861 21.9409
37.0743 21.6085
37.2626 21.3214
37.451 21.1342
37.6395 20.9363
37.8281 20.5728
38.0168 20.3153
38.2056 20.0165
38.3945 19.8037
38.5837 19.5644
38.7728 19.3548
38.9621 19.0767
39.1514 18.8272
39.3409 18.5574
39.5304 18.287
39.7201 18.1705
39.9099 17.8854
40.0999 17.6865
40.2899 17.4641
40.48 17.2299
40.6703 17.046
40.8607 16.8816
41.0512 16.5979
41.242 16.37
41.4327 16.086
41.6236 15.9145
41.8146 15.7682
42.0057 15.5376
42.1969 15.3015
42.3882 15.1366
42.5797 14.9244
42.7713 14.7339
42.963 14.4884
43.1549 14.2948
43.3468 14.1045
43.5389 13.9368
43.7312 13.7066
43.9237 13.504
44.1162 13.321
44.3088 13.1512
44.5016 12.9336
44.6945 12.7822
44.8875 12.5777
45.0806 12.479
45.2739 12.2632
45.4673 12.1005
45.6609 11.8983
45.8546 11.7902
46.0484 11.5845
46.2424 11.3969
46.4365 11.2978
46.631 11.0458
46.8254 10.9194
47.0199 10.7972
47.2146 10.6009
47.4095 10.4178
47.6044 10.2722
47.7996 10.1149
47.9948 9.97462
48.1902 9.85172
48.3858 9.7241
48.5815 9.5857
48.7774 9.44293
48.9734 9.29706
49.1696 9.15867
49.3661 9.032
49.5626 8.85951
49.7592 8.74602
49.956 8.62619
50.153 8.5048
50.3501 8.34482
50.5474 8.22301
50.7448 8.07331
50.9424 7.955
51.1402 7.82197
51.3381 7.73559
51.5362 7.60882
51.7344 7.46252
51.9328 7.3189
52.1316 7.1846
52.3304 7.10867
52.5293 6.98613
52.7284 6.88605
52.9276 6.73368
53.1271 6.63774
53.3267 6.56048
53.5265 6.3839
53.7264 6.30332
53.9266 6.18345
54.1269 6.09578
54.3274 5.94965
54.528 5.79789
54.7289 5.67491
54.9301 5.50832
55.1314 5.32886
55.3328 5.19714
55.5344 5.02392
55.7361 4.85472