File: XRD/Ni3Fe_FD0248.xy
TT I
1.27165 7.58588
1.45013 5.98849
1.62863 5.88352
1.80712 4.61627
1.98562 4.86423
2.16411 4.46536
2.34263 5.28357
2.52115 5.53693
2.69965 6.39722
2.87818 7.14387
3.05672 11.0917
3.23527 14.4516
3.4138 18.6813
3.59237 22.2136
3.77094 26.0324
3.9495 30.1218
4.12809 34.5287
4.30669 40.6007
4.4853 48.4737
4.6639 58.2141
4.84253 71.7185
5.02118 96.1465
5.19981 892.394
5.37848 264.208
5.55716 111.719
5.73586 100.267
5.91455 109.279
6.09328 3723.67
6.27201 88.4921
6.45075 71.1971
6.62952 64.0973
6.8083 60.1178
6.98711 57.2952
7.16591 56.8857
7.34475 55.8094
7.5236 56.0139
7.70247 57.9966
7.88135 60.047
8.06026 65.3144
8.23919 73.1281
8.41812 89.9368
8.59709 1086.65
8.77609 109.426
8.9551 90.4056
9.13412 86.643
9.31318 88.225
9.49226 89.4717
9.67134 95.1912
9.85047 106.654
10.0296 510.686
10.2088 526.167
10.388 115.365
10.5672 451.638
10.7465 91.9484
10.9257 80.7203
11.105 74.6724
11.2844 70.5807
11.4637 67.4267
11.6431 66.2247
11.8225 65.0173
12.002 68.9039
12.1814 141.24
12.3609 69.8026
12.5405 67.0129
12.72 69.4182
12.8996 74.4608
13.0792 86.4636
13.2589 231.931
13.4386 147.527
13.6183 228.71
13.7981 109.485
13.9779 79.7632
14.1577 74.9282
14.3376 72.8422
14.5175 72.4751
14.6974 74.4649
14.8774 119.95
15.0574 167.189
15.2374 72.183
15.4175 69.3122
15.5976 69.7054
15.7778 103.716
15.958 170.126
16.1382 63.6329
16.3185 59.929
16.4988 57.8306
16.6792 56.7219
16.8596 57.2974
17.04 59.1716
17.2205 68.9556
17.401 76.9311
17.5815 62.1248
17.7622 64.5748
17.9428 82.4943
18.1237 139.098
18.3044 90.4799
18.4852 82.9299
18.666 63.2619
18.8469 61.0502
19.0278 59.2285
19.2088 62.8496
19.3898 76.5278
19.5709 56.8529
19.752 56.0761
19.9332 59.4524
20.1144 72.451
20.2957 64.4873
20.477 56.3504
20.6586 51.8028
20.84 51.0558
21.0215 51.109
21.203 52.4903
21.3846 51.4875
21.5662 51.6403
21.7479 55.5453
21.9297 66.7345
22.1115 57.6049
22.2933 52.223
22.4753 50.8383
22.6572 51.8019
22.8393 54.0444
23.0214 59.8069
23.2037 51.3186
23.3859 52.562
23.5682 57.721
23.7505 51.0653
23.9329 47.2822
24.1154 46.2331
24.2979 45.4834
24.4805 44.795
24.6631 44.7939
24.8458 44.328
25.0286 44.9612
25.2114 46.3366
25.3943 46.3897
25.5773 42.7205
25.7605 42.3271
25.9436 42.4682
26.1268 43.5169
26.31 42.0716
26.4933 42.4265
26.6767 43.9401
26.8601 42.2885
27.0437 40.6701
27.2272 40.278
27.4109 40.0736
27.5946 40.0266
27.7784 39.5289
27.9623 39.959
28.1462 40.466
28.3304 38.8304
28.5145 37.5125
28.6987 37.1206
28.8829 36.8701
29.0673 36.1717
29.2517 35.7383
29.4361 35.6285
29.6207 34.6303
29.8053 34.3532
29.99 33.9574
30.1748 33.7814
30.3597 33.7756
30.5447 33.5419
30.7297 33.5844
30.915 32.9654
31.1002 32.5708
31.2855 32.1938
31.4708 32.1066
31.6563 31.6855
31.8418 31.304
32.0275 31.2244
32.2132 30.6784
32.399 30.2304
32.5848 29.6935
32.7708 29.4355
32.9569 29.2899
33.143 28.9995
33.3293 28.5579
33.5158 28.1873
33.7022 27.7609
33.8887 27.5067
34.0753 27.0554
34.262 26.7601
34.4488 26.3779
34.6357 26.0655
34.8227 25.7526
35.0098 25.5592
35.1969 25.2071
35.3842 25.021
35.5716 24.8324
35.759 24.5237
35.9468 24.1164
36.1345 23.814
36.3222 23.6306
36.5101 23.2752
36.6981 23.0699
36.8861 22.7375
37.0743 22.4476
37.2626 22.1652
37.451 21.848
37.6395 21.7322
37.8281 21.3199
38.0168 21.0805
38.2056 20.8149
38.3945 20.5251
38.5837 20.2447
38.7728 20.0596
38.9621 19.8037
39.1514 19.4893
39.3409 19.3047
39.5304 19.0401
39.7201 18.8261
39.9099 18.6048
40.0999 18.3291
40.2899 18.0703
40.48 17.8572
40.6703 17.5718
40.8607 17.45
41.0512 17.2296
41.242 16.9901
41.4327 16.7405
41.6236 16.4347
41.8146 16.347
42.0057 16.0476
42.1969 15.8887
42.3882 15.6696
42.5797 15.4601
42.7713 15.274
42.963 15.0156
43.1549 14.8141
43.3468 14.6567
43.5389 14.3824
43.7312 14.1963
43.9237 14.0468
44.1162 13.8247
44.3088 13.652
44.5016 13.4113
44.6945 13.251
44.8875 13.087
45.0806 12.8791
45.2739 12.7018
45.4673 12.5519
45.6609 12.3361
45.8546 12.1461
46.0484 11.9429
46.2424 11.7874
46.4365 11.6553
46.631 11.4623
46.8254 11.2995
47.0199 11.1444
47.2146 10.9942
47.4095 10.7843
47.6044 10.6309
47.7996 10.4959
47.9948 10.3177
48.1902 10.183
48.3858 10.0708
48.5815 9.92811
48.7774 9.77113
48.9734 9.61816
49.1696 9.47758
49.3661 9.32502
49.5626 9.14156
49.7592 9.04449
49.956 8.90673
50.153 8.80607
50.3501 8.62379
50.5474 8.52874
50.7448 8.4001
50.9424 8.24513
51.1402 8.11569
51.3381 7.99835
51.5362 7.86991
51.7344 7.68811
51.9328 7.56538
52.1316 7.46322
52.3304 7.37036
52.5293 7.19551
52.7284 7.09172
52.9276 6.95887
53.1271 6.85795
53.3267 6.77637
53.5265 6.61318
53.7264 6.52627
53.9266 6.39589
54.1269 6.29355
54.3274 6.1542
54.528 6.01045
54.7289 5.86217
54.9301 5.70655
55.1314 5.54436
55.3328 5.29981
55.5344 5.11333
55.7361 4.96124