File: XRD/Ni3Fe_FD0309.xy
TT I
1.27165 7.76824
1.45013 6.42665
1.62863 5.22854
1.80712 5.38294
1.98562 4.71905
2.16411 5.11154
2.34263 4.85782
2.52115 5.89999
2.69965 6.52998
2.87818 8.22991
3.05672 11.2343
3.23527 14.905
3.4138 19.4587
3.59237 25.4597
3.77094 27.3685
3.9495 30.5569
4.12809 36.2611
4.30669 332.786
4.4853 79.213
4.6639 56.6631
4.84253 68.6087
5.02118 90.2223
5.19981 479.292
5.37848 254.599
5.55716 106.389
5.73586 95.2905
5.91455 99.1369
6.09328 3587.14
6.27201 89.7536
6.45075 70.3113
6.62952 65.9044
6.8083 61.6081
6.98711 58.2369
7.16591 58.0849
7.34475 119.561
7.5236 57.0738
7.70247 58.3049
7.88135 59.8505
8.06026 64.2152
8.23919 71.9255
8.41812 89.3855
8.59709 950.495
8.77609 107.592
8.9551 98.549
9.13412 84.0474
9.31318 84.9944
9.49226 86.323
9.67134 107.081
9.85047 102.94
10.0296 363.631
10.2088 597.895
10.388 110.992
10.5672 441.018
10.7465 90.6715
10.9257 82.0034
11.105 74.4206
11.2844 74.5161
11.4637 67.2788
11.6431 65.8039
11.8225 64.6435
12.002 65.8936
12.1814 135.101
12.3609 78.1624
12.5405 66.9701
12.72 74.7205
12.8996 73.1509
13.0792 81.3747
13.2589 206.538
13.4386 150.924
13.6183 208.476
13.7981 112.014
13.9779 78.3923
14.1577 75.4645
14.3376 75.1976
14.5175 70.8602
14.6974 72.7456
14.8774 107.272
15.0574 177.002
15.2374 74.9725
15.4175 68.72
15.5976 67.8131
15.7778 93.6905
15.958 182.488
16.1382 66.7303
16.3185 61.5084
16.4988 57.5035
16.6792 56.36
16.8596 57.2555
17.04 57.8257
17.2205 66.6781
17.401 77.6676
17.5815 61.2124
17.7622 63.2721
17.9428 76.3386
18.1237 137.073
18.3044 87.9081
18.4852 86.2681
18.666 62.5538
18.8469 60.0169
19.0278 59.1391
19.2088 61.7132
19.3898 78.0983
19.5709 56.5058
19.752 55.098
19.9332 57.9162
20.1144 71.1777
20.2957 63.4632
20.477 56.9704
20.6586 51.568
20.84 50.5491
21.0215 50.3059
21.203 51.9639
21.3846 50.9798
21.5662 50.5686
21.7479 53.9457
21.9297 66.2493
22.1115 57.2023
22.2933 52.1259
22.4753 50.8696
22.6572 50.3865
22.8393 52.9326
23.0214 60.0533
23.2037 50.6545
23.3859 51.33
23.5682 56.9426
23.7505 51.1602
23.9329 46.8617
24.1154 45.7748
24.2979 44.9591
24.4805 44.318
24.6631 44.4573
24.8458 43.5827
25.0286 44.1673
25.2114 46.052
25.3943 46.3463
25.5773 42.5069
25.7605 42.0101
25.9436 41.9869
26.1268 43.1046
26.31 41.5931
26.4933 41.9131
26.6767 43.4635
26.8601 41.9762
27.0437 40.322
27.2272 39.9055
27.4109 39.5485
27.5946 39.7182
27.7784 39.2719
27.9623 39.4242
28.1462 40.2833
28.3304 38.6485
28.5145 37.1583
28.6987 36.9176
28.8829 36.6418
29.0673 35.9587
29.2517 35.4503
29.4361 35.3432
29.6207 34.3287
29.8053 34.0462
29.99 33.6893
30.1748 33.5313
30.3597 33.4671
30.5447 33.2473
30.7297 33.2803
30.915 32.6939
31.1002 32.1634
31.2855 31.9557
31.4708 31.8824
31.6563 31.4541
31.8418 31.0953
32.0275 30.956
32.2132 30.497
32.399 29.9566
32.5848 29.508
32.7708 29.0874
32.9569 28.9799
33.143 28.6481
33.3293 28.3385
33.5158 28.0524
33.7022 27.4875
33.8887 27.2595
34.0753 26.9264
34.262 26.661
34.4488 26.268
34.6357 25.8175
34.8227 25.6178
35.0098 25.3143
35.1969 24.9781
35.3842 24.8423
35.5716 24.6297
35.759 24.3185
35.9468 23.8977
36.1345 23.7345
36.3222 23.532
36.5101 23.1916
36.6981 22.8983
36.8861 22.5983
37.0743 22.2645
37.2626 22.1183
37.451 21.708
37.6395 21.5395
37.8281 21.2584
38.0168 20.8999
38.2056 20.6284
38.3945 20.4031
38.5837 20.1331
38.7728 19.9678
38.9621 19.684
39.1514 19.3882
39.3409 19.0923
39.5304 18.8614
39.7201 18.6512
39.9099 18.4605
40.0999 18.2407
40.2899 18.0228
40.48 17.7285
40.6703 17.5308
40.8607 17.3032
41.0512 17.1083
41.242 16.8667
41.4327 16.6184
41.6236 16.3655
41.8146 16.2797
42.0057 15.9621
42.1969 15.7706
42.3882 15.5681
42.5797 15.3716
42.7713 15.1231
42.963 14.9573
43.1549 14.7108
43.3468 14.4347
43.5389 14.3385
43.7312 14.197
43.9237 13.9619
44.1162 13.7529
44.3088 13.5673
44.5016 13.3628
44.6945 13.1922
44.8875 13.015
45.0806 12.7651
45.2739 12.6562
45.4673 12.504
45.6609 12.2798
45.8546 12.066
46.0484 11.9733
46.2424 11.7413
46.4365 11.6182
46.631 11.3944
46.8254 11.2592
47.0199 11.0786
47.2146 10.9439
47.4095 10.7665
47.6044 10.6009
47.7996 10.3881
47.9948 10.2911
48.1902 10.1883
48.3858 10.0166
48.5815 9.89881
48.7774 9.73676
48.9734 9.57142
49.1696 9.44353
49.3661 9.25872
49.5626 9.12158
49.7592 9.01472
49.956 8.87067
50.153 8.73944
50.3501 8.61746
50.5474 8.47792
50.7448 8.33629
50.9424 8.23268
51.1402 8.09961
51.3381 7.93224
51.5362 7.85447
51.7344 7.64914
51.9328 7.56536
52.1316 7.42343
52.3304 7.33214
52.5293 7.18285
52.7284 7.06012
52.9276 6.9573
53.1271 6.84652
53.3267 6.75483
53.5265 6.59563
53.7264 6.49104
53.9266 6.40575
54.1269 6.26789
54.3274 6.16402
54.528 5.99079
54.7289 5.80989
54.9301 5.65997
55.1314 5.52602
55.3328 5.28899
55.5344 5.10481
55.7361 4.96956