File: XRD/Ni3Fe_FD0165.xy
TT I
1.27165 7.84467
1.45013 6.62038
1.62863 5.96208
1.80712 5.13855
1.98562 5.03872
2.16411 4.52209
2.34263 3.66896
2.52115 4.18758
2.69965 5.64402
2.87818 7.42239
3.05672 11.4907
3.23527 15.1465
3.4138 18.9776
3.59237 21.7704
3.77094 24.9749
3.9495 28.3686
4.12809 33.0049
4.30669 38.279
4.4853 45.2193
4.6639 54.3089
4.84253 66.4638
5.02118 90.4158
5.19981 536.813
5.37848 420.11
5.55716 107.623
5.73586 95.4047
5.91455 105.25
6.09328 2809.59
6.27201 88.7392
6.45075 66.4467
6.62952 60.0584
6.8083 55.8842
6.98711 54.0585
7.16591 52.4684
7.34475 52.3792
7.5236 55.9648
7.70247 54.2097
7.88135 56.1725
8.06026 60.8214
8.23919 68.4037
8.41812 83.6311
8.59709 907.89
8.77609 115.044
8.9551 85.5177
9.13412 81.6661
9.31318 86.1643
9.49226 83.8279
9.67134 89.4229
9.85047 98.8702
10.0296 542.487
10.2088 960.406
10.388 104.933
10.5672 341.393
10.7465 90.8541
10.9257 76.0775
11.105 70.3853
11.2844 66.3807
11.4637 63.9704
11.6431 62.3781
11.8225 61.2382
12.002 65.0436
12.1814 119.575
12.3609 74.9084
12.5405 63.1934
12.72 65.5319
12.8996 70.0551
13.0792 79.5197
13.2589 207.517
13.4386 205.314
13.6183 196.133
13.7981 152.346
13.9779 76.1699
14.1577 74.0451
14.3376 69.4846
14.5175 68.6773
14.6974 70.0703
14.8774 121.048
15.0574 204.859
15.2374 69.2034
15.4175 66.485
15.5976 65.901
15.7778 107.327
15.958 186.168
16.1382 62.0716
16.3185 57.4141
16.4988 55.2035
16.6792 54.2609
16.8596 54.4524
17.04 55.4502
17.2205 65.6804
17.401 80.7595
17.5815 59.3505
17.7622 61.4431
17.9428 83.7385
18.1237 116.699
18.3044 88.5014
18.4852 94.8739
18.666 60.9709
18.8469 58.6261
19.0278 57.0759
19.2088 61.7821
19.3898 69.7562
19.5709 56.2251
19.752 53.4939
19.9332 58.5045
20.1144 67.5658
20.2957 61.3264
20.477 59.088
20.6586 49.9596
20.84 49.2919
21.0215 49.119
21.203 50.0152
21.3846 50.6125
21.5662 49.1738
21.7479 54.3402
21.9297 62.6578
22.1115 56.7303
22.2933 52.5053
22.4753 49.2912
22.6572 49.2769
22.8393 52.4674
23.0214 57.551
23.2037 50.0048
23.3859 51.8283
23.5682 54.1282
23.7505 53.0044
23.9329 45.8603
24.1154 44.6074
24.2979 43.7373
24.4805 43.0888
24.6631 43.3813
24.8458 42.7271
25.0286 43.2184
25.2114 44.9586
25.3943 45.0099
25.5773 41.9798
25.7605 40.8124
25.9436 41.1179
26.1268 41.8498
26.31 41.1329
26.4933 41.1495
26.6767 42.3655
26.8601 41.5677
27.0437 39.7607
27.2272 39.1859
27.4109 38.8563
27.5946 38.9886
27.7784 38.7246
27.9623 38.6687
28.1462 39.5915
28.3304 38.134
28.5145 36.384
28.6987 36.1681
28.8829 35.7219
29.0673 35.3299
29.2517 34.7083
29.4361 34.4706
29.6207 33.6189
29.8053 33.244
29.99 32.8545
30.1748 32.7085
30.3597 32.7076
30.5447 32.5322
30.7297 32.5372
30.915 32.3423
31.1002 31.6142
31.2855 31.3735
31.4708 31.139
31.6563 31.0252
31.8418 30.3704
32.0275 30.3325
32.2132 29.8622
32.399 29.3406
32.5848 28.7897
32.7708 28.5757
32.9569 28.4001
33.143 28.1512
33.3293 27.8289
33.5158 27.4249
33.7022 27.0076
33.8887 26.6489
34.0753 26.3917
34.262 25.9936
34.4488 25.658
34.6357 25.3446
34.8227 24.9668
35.0098 24.7951
35.1969 24.5187
35.3842 24.2693
35.5716 24.153
35.759 23.7919
35.9468 23.3423
36.1345 23.2241
36.3222 22.9114
36.5101 22.696
36.6981 22.4088
36.8861 22.0975
37.0743 21.6811
37.2626 21.5044
37.451 21.2641
37.6395 21.0541
37.8281 20.7576
38.0168 20.4166
38.2056 20.1883
38.3945 19.9699
38.5837 19.6449
38.7728 19.4491
38.9621 19.2234
39.1514 18.9205
39.3409 18.6736
39.5304 18.4976
39.7201 18.2558
39.9099 18.0756
40.0999 17.8306
40.2899 17.5588
40.48 17.2945
40.6703 17.1152
40.8607 16.9101
41.0512 16.6608
41.242 16.4349
41.4327 16.2747
41.6236 16.0059
41.8146 15.83
42.0057 15.6029
42.1969 15.3504
42.3882 15.2294
42.5797 14.994
42.7713 14.7862
42.963 14.5517
43.1549 14.3563
43.3468 14.1581
43.5389 14.0338
43.7312 13.8118
43.9237 13.6446
44.1162 13.4434
44.3088 13.1987
44.5016 13.0937
44.6945 12.866
44.8875 12.7027
45.0806 12.4777
45.2739 12.3477
45.4673 12.1883
45.6609 11.9793
45.8546 11.8585
46.0484 11.6883
46.2424 11.4795
46.4365 11.3304
46.631 11.138
46.8254 10.9895
47.0199 10.8269
47.2146 10.6949
47.4095 10.5253
47.6044 10.3554
47.7996 10.2183
47.9948 10.0406
48.1902 9.89818
48.3858 9.75598
48.5815 9.66623
48.7774 9.50097
48.9734 9.36901
49.1696 9.19613
49.3661 9.08986
49.5626 8.94555
49.7592 8.80368
49.956 8.66515
50.153 8.53018
50.3501 8.37576
50.5474 8.28439
50.7448 8.16122
50.9424 8.01749
51.1402 7.9058
51.3381 7.79167
51.5362 7.64177
51.7344 7.53549
51.9328 7.42169
52.1316 7.27056
52.3304 7.17813
52.5293 7.04758
52.7284 6.93971
52.9276 6.81306
53.1271 6.74084
53.3267 6.58422
53.5265 6.42688
53.7264 6.35838
53.9266 6.24889
54.1269 6.10487
54.3274 5.96066
54.528 5.78121
54.7289 5.64416
54.9301 5.46879
55.1314 5.36054
55.3328 5.17295
55.5344 4.94377
55.7361 4.80268