File: XRD/Ni3Fe_FD0586.xy
TT I
1.27165 7.46706
1.45013 6.2283
1.62863 5.23392
1.80712 5.09418
1.98562 4.69684
2.16411 4.80608
2.34263 5.391
2.52115 6.89583
2.69965 8.11415
2.87818 8.92011
3.05672 11.025
3.23527 15.0417
3.4138 18.683
3.59237 23.1466
3.77094 25.8238
3.9495 29.4062
4.12809 34.4809
4.30669 116.811
4.4853 55.7971
4.6639 55.7568
4.84253 68.8888
5.02118 88.8088
5.19981 477.493
5.37848 200.75
5.55716 103.763
5.73586 93.5916
5.91455 97.1629
6.09328 4415.22
6.27201 82.4429
6.45075 68.947
6.62952 63.0263
6.8083 59.3255
6.98711 56.0474
7.16591 55.7832
7.34475 70.8403
7.5236 54.75
7.70247 56.9764
7.88135 58.4101
8.06026 62.9516
8.23919 69.9835
8.41812 85.1954
8.59709 1249.81
8.77609 100.004
8.9551 89.8329
9.13412 83.2493
9.31318 84.6318
9.49226 85.9694
9.67134 95.8051
9.85047 102.136
10.0296 382.861
10.2088 367.129
10.388 107.068
10.5672 518.226
10.7465 87.3983
10.9257 78.1424
11.105 71.6514
11.2844 69.0732
11.4637 65.6662
11.6431 63.5003
11.8225 63.1744
12.002 64.9492
12.1814 156.04
12.3609 67.8301
12.5405 65.1977
12.72 68.6504
12.8996 72.1471
13.0792 81.4999
13.2589 254.146
13.4386 121.233
13.6183 255.917
13.7981 96.6387
13.9779 76.3281
14.1577 72.6381
14.3376 70.904
14.5175 69.5139
14.6974 71.3273
14.8774 116.63
15.0574 144.209
15.2374 70.1264
15.4175 66.9556
15.5976 66.4087
15.7778 99.419
15.958 150.024
16.1382 61.9934
16.3185 58.2449
16.4988 55.8789
16.6792 54.8209
16.8596 55.3261
17.04 56.7616
17.2205 68.0777
17.401 70.8738
17.5815 59.75
17.7622 61.9524
17.9428 75.4519
18.1237 141.963
18.3044 92.2525
18.4852 76.494
18.666 60.8564
18.8469 58.6061
19.0278 57.0478
19.2088 60.1951
19.3898 76.0515
19.5709 54.4705
19.752 53.8259
19.9332 56.9298
20.1144 70.2275
20.2957 64.1804
20.477 53.5739
20.6586 49.8758
20.84 49.0006
21.0215 49.0973
21.203 51.1117
21.3846 49.2708
21.5662 49.4789
21.7479 53.335
21.9297 65.0716
22.1115 56.5156
22.2933 49.979
22.4753 49.0444
22.6572 49.3836
22.8393 52.6804
23.0214 57.611
23.2037 49.2248
23.3859 50.3687
23.5682 57.2725
23.7505 48.2534
23.9329 45.5273
24.1154 44.3172
24.2979 43.6521
24.4805 43.2331
24.6631 42.9782
24.8458 42.5324
25.0286 43.1829
25.2114 44.9954
25.3943 44.8317
25.5773 41.1671
25.7605 40.6268
25.9436 41.2208
26.1268 42.0398
26.31 40.4818
26.4933 41.0507
26.6767 42.4306
26.8601 40.6021
27.0437 39.1529
27.2272 38.7956
27.4109 38.7117
27.5946 38.7071
27.7784 38.1079
27.9623 38.6572
28.1462 38.9662
28.3304 37.3734
28.5145 36.2538
28.6987 35.7477
28.8829 35.6136
29.0673 34.7251
29.2517 34.5457
29.4361 34.3583
29.6207 33.267
29.8053 33.1333
29.99 32.7483
30.1748 32.7046
30.3597 32.4774
30.5447 32.4122
30.7297 32.3041
30.915 31.7713
31.1002 31.3699
31.2855 31.0409
31.4708 31.0062
31.6563 30.5355
31.8418 30.3047
32.0275 30.1193
32.2132 29.5671
32.399 29.1493
32.5848 28.6738
32.7708 28.3075
32.9569 28.2168
33.143 27.9671
33.3293 27.6054
33.5158 27.1726
33.7022 26.8498
33.8887 26.5228
34.0753 26.1587
34.262 25.7807
34.4488 25.4303
34.6357 25.1352
34.8227 24.8594
35.0098 24.6803
35.1969 24.3355
35.3842 24.1308
35.5716 23.9278
35.759 23.6657
35.9468 23.2284
36.1345 23.1243
36.3222 22.819
36.5101 22.642
36.6981 22.2708
36.8861 21.9077
37.0743 21.5608
37.2626 21.3774
37.451 21.0977
37.6395 21.0278
37.8281 20.6044
38.0168 20.2851
38.2056 20.1072
38.3945 19.8222
38.5837 19.5462
38.7728 19.3332
38.9621 19.0639
39.1514 18.7659
39.3409 18.5867
39.5304 18.3811
39.7201 18.1453
39.9099 17.9182
40.0999 17.6688
40.2899 17.4874
40.48 17.2095
40.6703 16.9983
40.8607 16.8149
41.0512 16.6403
41.242 16.3707
41.4327 16.148
41.6236 15.9479
41.8146 15.7634
42.0057 15.4967
42.1969 15.2789
42.3882 15.1176
42.5797 14.8839
42.7713 14.7012
42.963 14.4761
43.1549 14.3239
43.3468 14.0729
43.5389 13.9165
43.7312 13.6963
43.9237 13.5202
44.1162 13.3375
44.3088 13.1591
44.5016 12.9459
44.6945 12.8011
44.8875 12.6401
45.0806 12.411
45.2739 12.2364
45.4673 12.1115
45.6609 11.909
45.8546 11.7303
46.0484 11.6343
46.2424 11.4478
46.4365 11.2398
46.631 11.0751
46.8254 10.9235
47.0199 10.7291
47.2146 10.5543
47.4095 10.4361
47.6044 10.2622
47.7996 10.1255
47.9948 9.98139
48.1902 9.83722
48.3858 9.71306
48.5815 9.56765
48.7774 9.43468
48.9734 9.30229
49.1696 9.16265
49.3661 8.98161
49.5626 8.86969
49.7592 8.74153
49.956 8.60039
50.153 8.47421
50.3501 8.33927
50.5474 8.20595
50.7448 8.09204
50.9424 7.98523
51.1402 7.8507
51.3381 7.72532
51.5362 7.60716
51.7344 7.49048
51.9328 7.32237
52.1316 7.20888
52.3304 7.14233
52.5293 6.99266
52.7284 6.89269
52.9276 6.75644
53.1271 6.65077
53.3267 6.51991
53.5265 6.37321
53.7264 6.29261
53.9266 6.20026
54.1269 6.07047
54.3274 5.98164
54.528 5.80795
54.7289 5.68008
54.9301 5.5554
55.1314 5.40939
55.3328 5.18597
55.5344 5.00049
55.7361 4.8716