File: XRD/Ni3Fe_FD0565.xy
TT I
1.27165 7.26347
1.45013 5.73034
1.62863 5.31255
1.80712 5.15906
1.98562 4.74404
2.16411 4.93921
2.34263 5.55231
2.52115 5.83082
2.69965 8.11118
2.87818 8.40784
3.05672 11.0245
3.23527 15.1058
3.4138 18.7771
3.59237 23.6866
3.77094 25.8219
3.9495 30.1737
4.12809 34.6218
4.30669 144.466
4.4853 58.7795
4.6639 56.358
4.84253 67.9729
5.02118 89.3224
5.19981 440.397
5.37848 196.678
5.55716 102.662
5.73586 93.6759
5.91455 97.1482
6.09328 4444.21
6.27201 82.4372
6.45075 68.2224
6.62952 62.7628
6.8083 58.6098
6.98711 55.6915
7.16591 55.6486
7.34475 77.7658
7.5236 54.6102
7.70247 56.3639
7.88135 58.0817
8.06026 62.7453
8.23919 69.9868
8.41812 85.8595
8.59709 1232.78
8.77609 99.7668
8.9551 90.254
9.13412 83.095
9.31318 83.3996
9.49226 85.0649
9.67134 96.2832
9.85047 101.072
10.0296 378.215
10.2088 391.228
10.388 106.063
10.5672 522.437
10.7465 87.2349
10.9257 78.7566
11.105 72.1219
11.2844 69.2642
11.4637 65.3618
11.6431 63.7824
11.8225 62.6444
12.002 64.6042
12.1814 155.128
12.3609 68.6309
12.5405 64.6361
12.72 68.9978
12.8996 71.8359
13.0792 80.3644
13.2589 249.432
13.4386 122.188
13.6183 254.352
13.7981 96.4788
13.9779 76.2451
14.1577 72.5855
14.3376 71.3137
14.5175 69.4995
14.6974 70.9741
14.8774 115.642
15.0574 144.317
15.2374 70.4849
15.4175 66.8943
15.5976 66.5278
15.7778 98.8403
15.958 152.893
16.1382 62.4089
16.3185 58.4887
16.4988 55.7364
16.6792 54.7588
16.8596 55.4204
17.04 56.4529
17.2205 68.0059
17.401 71.0748
17.5815 59.5862
17.7622 61.6735
17.9428 75.56
18.1237 141.548
18.3044 92.1302
18.4852 77.2019
18.666 60.722
18.8469 58.4085
19.0278 57.147
19.2088 60.1315
19.3898 76.4259
19.5709 54.3864
19.752 53.5256
19.9332 56.933
20.1144 70.4614
20.2957 64.433
20.477 53.6717
20.6586 49.9729
20.84 49.1719
21.0215 48.968
21.203 51.1131
21.3846 49.3309
21.5662 49.293
21.7479 53.5112
21.9297 65.1284
22.1115 56.3207
22.2933 50.0853
22.4753 49.1399
22.6572 49.274
22.8393 52.4944
23.0214 57.4811
23.2037 49.1356
23.3859 50.22
23.5682 57.3833
23.7505 48.4408
23.9329 45.4476
24.1154 44.4814
24.2979 43.5876
24.4805 43.1512
24.6631 43.0601
24.8458 42.5429
25.0286 43.2102
25.2114 45.1025
25.3943 44.8509
25.5773 41.1647
25.7605 40.6793
25.9436 41.0496
26.1268 42.0286
26.31 40.3354
26.4933 41.0005
26.6767 42.5663
26.8601 40.5903
27.0437 39.1485
27.2272 38.7742
27.4109 38.5964
27.5946 38.614
27.7784 38.1007
27.9623 38.7002
28.1462 39.0239
28.3304 37.3995
28.5145 36.1319
28.6987 35.9347
28.8829 35.7068
29.0673 34.858
29.2517 34.5628
29.4361 34.4192
29.6207 33.2744
29.8053 33.0911
29.99 32.7931
30.1748 32.6316
30.3597 32.4418
30.5447 32.4068
30.7297 32.4579
30.915 31.8172
31.1002 31.3143
31.2855 31.0326
31.4708 31.0084
31.6563 30.5433
31.8418 30.315
32.0275 30.1267
32.2132 29.5851
32.399 29.0932
32.5848 28.5168
32.7708 28.3642
32.9569 28.2059
33.143 27.9826
33.3293 27.5958
33.5158 27.1489
33.7022 26.7431
33.8887 26.4957
34.0753 26.1386
34.262 25.8179
34.4488 25.4844
34.6357 25.1632
34.8227 24.7865
35.0098 24.6554
35.1969 24.3072
35.3842 24.0914
35.5716 23.8998
35.759 23.6223
35.9468 23.2655
36.1345 23.02
36.3222 22.7729
36.5101 22.5949
36.6981 22.2692
36.8861 21.931
37.0743 21.5971
37.2626 21.394
37.451 21.1034
37.6395 20.9938
37.8281 20.5726
38.0168 20.4089
38.2056 20.1046
38.3945 19.7899
38.5837 19.5511
38.7728 19.3468
38.9621 19.1122
39.1514 18.7722
39.3409 18.5189
39.5304 18.3393
39.7201 18.2044
39.9099 17.941
40.0999 17.6887
40.2899 17.4583
40.48 17.1961
40.6703 17.0412
40.8607 16.8414
41.0512 16.6281
41.242 16.3211
41.4327 16.1578
41.6236 15.9252
41.8146 15.7498
42.0057 15.5631
42.1969 15.2879
42.3882 15.0881
42.5797 14.9098
42.7713 14.6698
42.963 14.5
43.1549 14.3452
43.3468 14.0815
43.5389 13.9025
43.7312 13.6965
43.9237 13.5665
44.1162 13.358
44.3088 13.1715
44.5016 12.9971
44.6945 12.846
44.8875 12.5934
45.0806 12.432
45.2739 12.2824
45.4673 12.1372
45.6609 11.9366
45.8546 11.7632
46.0484 11.6031
46.2424 11.3944
46.4365 11.2309
46.631 11.0684
46.8254 10.8985
47.0199 10.7886
47.2146 10.6153
47.4095 10.4291
47.6044 10.311
47.7996 10.1191
47.9948 10.0112
48.1902 9.8374
48.3858 9.67076
48.5815 9.60525
48.7774 9.44869
48.9734 9.31222
49.1696 9.15839
49.3661 8.98599
49.5626 8.85139
49.7592 8.77986
49.956 8.60698
50.153 8.47176
50.3501 8.33341
50.5474 8.20478
50.7448 8.1064
50.9424 8.00741
51.1402 7.82776
51.3381 7.70136
51.5362 7.58304
51.7344 7.47417
51.9328 7.31169
52.1316 7.24116
52.3304 7.10231
52.5293 6.99058
52.7284 6.85753
52.9276 6.75455
53.1271 6.6895
53.3267 6.52898
53.5265 6.42916
53.7264 6.35588
53.9266 6.18807
54.1269 6.05016
54.3274 5.93281
54.528 5.84018
54.7289 5.64236
54.9301 5.53937
55.1314 5.39119
55.3328 5.14727
55.5344 4.99642
55.7361 4.82987