File: XRD/Ni3Fe_FD0841.xy
TT I
1.27165 7.49939
1.45013 6.02805
1.62863 5.84787
1.80712 5.3688
1.98562 5.20626
2.16411 4.99137
2.34263 5.65508
2.52115 7.01973
2.69965 8.55119
2.87818 8.62833
3.05672 11.2597
3.23527 14.5602
3.4138 18.6121
3.59237 23.6706
3.77094 25.9285
3.9495 29.7302
4.12809 34.3108
4.30669 174.781
4.4853 60.8171
4.6639 55.1695
4.84253 66.7437
5.02118 85.8885
5.19981 318.601
5.37848 179.258
5.55716 101.259
5.73586 91.4176
5.91455 92.4671
6.09328 4361.28
6.27201 80.7221
6.45075 66.6891
6.62952 61.9924
6.8083 57.7135
6.98711 55.4286
7.16591 54.7026
7.34475 81.9524
7.5236 54.5553
7.70247 55.48
7.88135 57.4458
8.06026 61.6332
8.23919 68.6763
8.41812 83.4725
8.59709 1170.19
8.77609 97.3414
8.9551 89.4353
9.13412 81.0477
9.31318 82.2766
9.49226 83.5919
9.67134 95.879
9.85047 98.8404
10.0296 322.671
10.2088 404.426
10.388 102.877
10.5672 526.856
10.7465 85.4222
10.9257 77.4483
11.105 70.8278
11.2844 68.8398
11.4637 64.2215
11.6431 62.7957
11.8225 61.785
12.002 62.6935
12.1814 156.735
12.3609 68.3939
12.5405 63.6612
12.72 68.472
12.8996 70.2505
13.0792 77.9591
13.2589 242.42
13.4386 121.942
13.6183 252.267
13.7981 96.0168
13.9779 74.6848
14.1577 71.3807
14.3376 70.4284
14.5175 68.0184
14.6974 69.3859
14.8774 109.05
15.0574 146.2
15.2374 69.5604
15.4175 65.4004
15.5976 64.8332
15.7778 93.1763
15.958 150.163
16.1382 61.3576
16.3185 57.681
16.4988 54.8323
16.6792 53.7719
16.8596 54.5159
17.04 55.0361
17.2205 66.1431
17.401 70.1123
17.5815 58.4822
17.7622 60.4137
17.9428 72.306
18.1237 137.648
18.3044 90.8601
18.4852 76.0391
18.666 59.8801
18.8469 57.3791
19.0278 56.1232
19.2088 58.585
19.3898 75.3383
19.5709 53.4819
19.752 52.4422
19.9332 55.4067
20.1144 69.0794
20.2957 63.6233
20.477 52.9705
20.6586 48.9074
20.84 48.3854
21.0215 47.8324
21.203 50.4118
21.3846 48.4481
21.5662 48.268
21.7479 51.9264
21.9297 63.4609
22.1115 55.4747
22.2933 49.1769
22.4753 48.1698
22.6572 48.26
22.8393 51.3829
23.0214 56.3017
23.2037 48.2525
23.3859 49.2572
23.5682 56.5712
23.7505 47.8179
23.9329 44.7315
24.1154 43.6204
24.2979 43.0141
24.4805 42.4102
24.6631 42.4279
24.8458 41.689
25.0286 42.4784
25.2114 44.1172
25.3943 43.99
25.5773 40.303
25.7605 40.0078
25.9436 40.454
26.1268 41.1488
26.31 39.6726
26.4933 40.3907
26.6767 41.6652
26.8601 39.8718
27.0437 38.3484
27.2272 38.1239
27.4109 37.897
27.5946 37.9828
27.7784 37.4938
27.9623 38.1229
28.1462 38.3112
28.3304 36.7653
28.5145 35.5475
28.6987 35.2152
28.8829 35.0674
29.0673 34.2862
29.2517 34.0172
29.4361 33.7072
29.6207 32.8451
29.8053 32.4574
29.99 32.1933
30.1748 32.0714
30.3597 31.9142
30.5447 31.7447
30.7297 31.8405
30.915 31.2837
31.1002 30.7403
31.2855 30.5309
31.4708 30.5124
31.6563 30.075
31.8418 29.7804
32.0275 29.6383
32.2132 29.0339
32.399 28.6196
32.5848 28.0891
32.7708 27.8337
32.9569 27.6494
33.143 27.5389
33.3293 27.0854
33.5158 26.7115
33.7022 26.3412
33.8887 26.1158
34.0753 25.6663
34.262 25.2819
34.4488 24.9766
34.6357 24.7062
34.8227 24.4024
35.0098 24.2277
35.1969 23.9914
35.3842 23.7804
35.5716 23.5111
35.759 23.2357
35.9468 22.8472
36.1345 22.6032
36.3222 22.4337
36.5101 22.1631
36.6981 21.9087
36.8861 21.4916
37.0743 21.2105
37.2626 21.0021
37.451 20.7273
37.6395 20.6455
37.8281 20.3461
38.0168 20.0236
38.2056 19.7758
38.3945 19.5003
38.5837 19.2787
38.7728 18.995
38.9621 18.7127
39.1514 18.5229
39.3409 18.3367
39.5304 18.0479
39.7201 17.8855
39.9099 17.6001
40.0999 17.4788
40.2899 17.1595
40.48 16.9723
40.6703 16.7568
40.8607 16.5225
41.0512 16.2962
41.242 16.0626
41.4327 15.9312
41.6236 15.6513
41.8146 15.5079
42.0057 15.2506
42.1969 15.0278
42.3882 14.8364
42.5797 14.6932
42.7713 14.4881
42.963 14.3102
43.1549 14.1037
43.3468 13.8714
43.5389 13.7065
43.7312 13.4703
43.9237 13.306
44.1162 13.1426
44.3088 12.9346
44.5016 12.7395
44.6945 12.6254
44.8875 12.4264
45.0806 12.2612
45.2739 12.0444
45.4673 11.9081
45.6609 11.7364
45.8546 11.5464
46.0484 11.4077
46.2424 11.2263
46.4365 11.1041
46.631 10.9059
46.8254 10.7461
47.0199 10.586
47.2146 10.4356
47.4095 10.2453
47.6044 10.116
47.7996 9.9451
47.9948 9.80184
48.1902 9.66966
48.3858 9.55458
48.5815 9.394
48.7774 9.28485
48.9734 9.14621
49.1696 9.00098
49.3661 8.87479
49.5626 8.70909
49.7592 8.60805
49.956 8.45503
50.153 8.34737
50.3501 8.19041
50.5474 8.10735
50.7448 7.97744
50.9424 7.84033
51.1402 7.746
51.3381 7.56437
51.5362 7.46996
51.7344 7.35
51.9328 7.196
52.1316 7.10389
52.3304 7.01062
52.5293 6.89124
52.7284 6.77128
52.9276 6.63441
53.1271 6.56211
53.3267 6.4318
53.5265 6.3069
53.7264 6.2087
53.9266 6.11027
54.1269 6.01175
54.3274 5.86715
54.528 5.75179
54.7289 5.63165
54.9301 5.43614
55.1314 5.28751
55.3328 5.07572
55.5344 4.91743
55.7361 4.76738