File: XRD/Ni3Fe_FD1057.xy
TT I
1.27165 7.16245
1.45013 5.74314
1.62863 4.40948
1.80712 4.18733
1.98562 4.01791
2.16411 4.44641
2.34263 5.63588
2.52115 7.37014
2.69965 8.78977
2.87818 8.78344
3.05672 10.3859
3.23527 14.9738
3.4138 18.2228
3.59237 21.0338
3.77094 24.6035
3.9495 28.374
4.12809 32.5042
4.30669 55.9922
4.4853 46.2677
4.6639 52.5643
4.84253 64.2197
5.02118 83.3453
5.19981 233.169
5.37848 210.796
5.55716 97.4916
5.73586 87.9931
5.91455 89.0199
6.09328 4520.7
6.27201 76.0775
6.45075 63.9404
6.62952 57.8616
6.8083 54.5369
6.98711 52.5142
7.16591 51.7772
7.34475 56.3616
7.5236 58.8696
7.70247 52.9268
7.88135 54.7666
8.06026 58.6108
8.23919 65.5322
8.41812 78.0915
8.59709 1093.85
8.77609 95.1404
8.9551 82.7264
9.13412 79.0293
9.31318 88.8742
9.49226 81.3771
9.67134 86.2465
9.85047 94.2339
10.0296 351.598
10.2088 437.302
10.388 98.1025
10.5672 509.843
10.7465 86.2419
10.9257 73.8234
11.105 68.3931
11.2844 65.2892
11.4637 62.0422
11.6431 60.598
11.8225 59.8139
12.002 66.3319
12.1814 145.829
12.3609 64.5957
12.5405 61.4442
12.72 63.953
12.8996 67.9773
13.0792 76.6011
13.2589 229.428
13.4386 127.092
13.6183 237.869
13.7981 99.899
13.9779 73.6362
14.1577 75.341
14.3376 67.2763
14.5175 66.4234
14.6974 67.3022
14.8774 110.257
15.0574 160.104
15.2374 66.5714
15.4175 64.1451
15.5976 63.3456
15.7778 94.7694
15.958 168.687
16.1382 59.957
16.3185 55.6496
16.4988 53.3725
16.6792 52.5904
16.8596 52.9163
17.04 53.9422
17.2205 64.896
17.401 71.9194
17.5815 57.409
17.7622 59.8618
17.9428 73.4757
18.1237 142.474
18.3044 88.9527
18.4852 78.8603
18.666 58.9954
18.8469 56.4759
19.0278 54.9287
19.2088 58.2925
19.3898 76.0953
19.5709 52.9648
19.752 51.8485
19.9332 55.129
20.1144 70.3772
20.2957 63.7225
20.477 52.8411
20.6586 48.4652
20.84 47.882
21.0215 47.3439
21.203 49.6244
21.3846 47.9353
21.5662 47.7053
21.7479 51.9557
21.9297 65.3618
22.1115 55.7925
22.2933 49.1264
22.4753 47.5007
22.6572 47.7312
22.8393 51.2491
23.0214 57.4425
23.2037 47.9858
23.3859 49.2807
23.5682 57.1542
23.7505 48.2531
23.9329 44.2636
24.1154 43.1891
24.2979 42.4459
24.4805 42.0651
24.6631 42.0203
24.8458 41.1975
25.0286 42.0056
25.2114 44.1226
25.3943 44.3845
25.5773 40.1209
25.7605 39.5724
25.9436 40.2542
26.1268 41.2449
26.31 39.3483
26.4933 40.1551
26.6767 41.9549
26.8601 40.1596
27.0437 38.3971
27.2272 37.9374
27.4109 37.8019
27.5946 37.9658
27.7784 37.417
27.9623 37.9579
28.1462 38.8348
28.3304 36.8351
28.5145 35.3186
28.6987 35.1402
28.8829 34.9529
29.0673 34.1675
29.2517 33.8323
29.4361 33.636
29.6207 32.6317
29.8053 32.3245
29.99 31.9961
30.1748 32.0639
30.3597 31.7414
30.5447 31.7308
30.7297 31.7981
30.915 31.3246
31.1002 30.5952
31.2855 30.4218
31.4708 30.3063
31.6563 29.9403
31.8418 29.6414
32.0275 29.6102
32.2132 29.0451
32.399 28.4401
32.5848 28.0558
32.7708 27.7832
32.9569 27.5977
33.143 27.4242
33.3293 27.1035
33.5158 26.6644
33.7022 26.1471
33.8887 25.8454
34.0753 25.6134
34.262 25.2791
34.4488 24.8713
34.6357 24.6417
34.8227 24.2753
35.0098 24.174
35.1969 23.7977
35.3842 23.6913
35.5716 23.4812
35.759 23.1825
35.9468 22.837
36.1345 22.6082
36.3222 22.3627
36.5101 22.1441
36.6981 21.786
36.8861 21.5145
37.0743 21.204
37.2626 20.9705
37.451 20.7448
37.6395 20.5415
37.8281 20.2301
38.0168 19.8932
38.2056 19.704
38.3945 19.3052
38.5837 19.1841
38.7728 18.9415
38.9621 18.7033
39.1514 18.405
39.3409 18.1881
39.5304 17.9483
39.7201 17.8147
39.9099 17.5866
40.0999 17.3138
40.2899 17.1175
40.48 16.9017
40.6703 16.6533
40.8607 16.4788
41.0512 16.2467
41.242 16.022
41.4327 15.7849
41.6236 15.5786
41.8146 15.4473
42.0057 15.2471
42.1969 15.0236
42.3882 14.8103
42.5797 14.5815
42.7713 14.3506
42.963 14.1889
43.1549 14.0017
43.3468 13.8367
43.5389 13.6116
43.7312 13.4642
43.9237 13.2468
44.1162 13.0639
44.3088 12.8801
44.5016 12.7313
44.6945 12.5477
44.8875 12.3996
45.0806 12.1677
45.2739 12.0185
45.4673 11.8387
45.6609 11.6656
45.8546 11.5178
46.0484 11.396
46.2424 11.1654
46.4365 11.042
46.631 10.8591
46.8254 10.7026
47.0199 10.5315
47.2146 10.4011
47.4095 10.2523
47.6044 10.1025
47.7996 9.94191
47.9948 9.78955
48.1902 9.65691
48.3858 9.48721
48.5815 9.39875
48.7774 9.23964
48.9734 9.09636
49.1696 8.96019
49.3661 8.81886
49.5626 8.64749
49.7592 8.5615
49.956 8.42142
50.153 8.33142
50.3501 8.19235
50.5474 8.09438
50.7448 7.91047
50.9424 7.81169
51.1402 7.70399
51.3381 7.58036
51.5362 7.42839
51.7344 7.2857
51.9328 7.19064
52.1316 7.04443
52.3304 6.9565
52.5293 6.83653
52.7284 6.75238
52.9276 6.60097
53.1271 6.53394
53.3267 6.40287
53.5265 6.31956
53.7264 6.16572
53.9266 6.1062
54.1269 5.99822
54.3274 5.85472
54.528 5.76684
54.7289 5.56343
54.9301 5.41258
55.1314 5.27342
55.3328 5.12143
55.5344 4.92081
55.7361 4.77265