File: XRD/Ni3Fe_FD0503.xy
TT I
1.27165 7.54971
1.45013 6.25095
1.62863 5.36298
1.80712 4.56796
1.98562 4.40605
2.16411 4.65629
2.34263 5.0995
2.52115 7.13268
2.69965 7.28342
2.87818 8.91365
3.05672 10.7344
3.23527 15.2874
3.4138 18.8628
3.59237 24.6091
3.77094 26.3979
3.9495 29.863
4.12809 35.0741
4.30669 208.406
4.4853 65.4353
4.6639 55.7996
4.84253 68.3473
5.02118 88.3761
5.19981 395.222
5.37848 205.202
5.55716 103.993
5.73586 93.732
5.91455 96.3679
6.09328 4148.7
6.27201 85.3365
6.45075 68.3802
6.62952 63.6707
6.8083 59.5481
6.98711 56.4573
7.16591 56.1945
7.34475 90.3357
7.5236 55.6385
7.70247 56.9869
7.88135 58.5721
8.06026 63.0565
8.23919 70.3924
8.41812 86.4944
8.59709 1173.21
8.77609 101.907
8.9551 92.5075
9.13412 82.8041
9.31318 83.6343
9.49226 85.8131
9.67134 99.6592
9.85047 101.211
10.0296 360.546
10.2088 445.228
10.388 106.429
10.5672 500.355
10.7465 88.0451
10.9257 79.4204
11.105 72.7189
11.2844 71.1858
11.4637 65.8927
11.6431 64.4089
11.8225 63.0318
12.002 64.4525
12.1814 153.978
12.3609 71.8935
12.5405 65.3794
12.72 70.6261
12.8996 71.8737
13.0792 80.1696
13.2589 238.8
13.4386 131.988
13.6183 245.214
13.7981 102.918
13.9779 76.8918
14.1577 73.1641
14.3376 72.6441
14.5175 69.875
14.6974 71.3704
14.8774 112.43
15.0574 155.66
15.2374 71.8548
15.4175 67.4286
15.5976 66.6657
15.7778 96.6243
15.958 160.272
16.1382 63.6261
16.3185 59.5474
16.4988 56.3281
16.6792 55.1465
16.8596 55.9822
17.04 56.5021
17.2205 67.4514
17.401 72.966
17.5815 59.904
17.7622 62.1872
17.9428 75.0688
18.1237 136.606
18.3044 91.3886
18.4852 80.4943
18.666 61.4115
18.8469 58.9038
19.0278 57.5339
19.2088 60.2745
19.3898 76.5676
19.5709 54.9711
19.752 54.1136
19.9332 57.1592
20.1144 70.2006
20.2957 64.002
20.477 54.8138
20.6586 50.2826
20.84 49.5374
21.0215 49.3869
21.203 51.3626
21.3846 49.7244
21.5662 49.435
21.7479 53.2341
21.9297 64.8247
22.1115 56.5214
22.2933 50.65
22.4753 49.7104
22.6572 49.4847
22.8393 52.7682
23.0214 57.9891
23.2037 49.5277
23.3859 50.5144
23.5682 57.0707
23.7505 49.1733
23.9329 45.9119
24.1154 44.6681
24.2979 44.0365
24.4805 43.562
24.6631 43.4683
24.8458 42.9392
25.0286 43.5095
25.2114 45.2509
25.3943 45.1844
25.5773 41.5786
25.7605 41.1042
25.9436 41.5331
26.1268 42.2779
26.31 40.6703
26.4933 41.2322
26.6767 42.7207
26.8601 41.0776
27.0437 39.4032
27.2272 39.0585
27.4109 38.8805
27.5946 39.0207
27.7784 38.4682
27.9623 38.8652
28.1462 39.3837
28.3304 37.7209
28.5145 36.4551
28.6987 36.2373
28.8829 35.905
29.0673 35.1887
29.2517 34.834
29.4361 34.5953
29.6207 33.6766
29.8053 33.3557
29.99 33.0627
30.1748 32.8704
30.3597 32.7613
30.5447 32.6689
30.7297 32.5841
30.915 32.0699
31.1002 31.5693
31.2855 31.2576
31.4708 31.2242
31.6563 30.7617
31.8418 30.5531
32.0275 30.2832
32.2132 29.7786
32.399 29.2058
32.5848 28.8578
32.7708 28.5168
32.9569 28.422
33.143 28.1801
33.3293 27.7913
33.5158 27.4711
33.7022 27.0009
33.8887 26.7147
34.0753 26.4145
34.262 25.9939
34.4488 25.6566
34.6357 25.4247
34.8227 24.9648
35.0098 24.8304
35.1969 24.5468
35.3842 24.2554
35.5716 24.0356
35.759 23.7818
35.9468 23.3572
36.1345 23.2375
36.3222 22.9986
36.5101 22.7065
36.6981 22.4368
36.8861 22.1177
37.0743 21.7523
37.2626 21.5708
37.451 21.3396
37.6395 21.1408
37.8281 20.7403
38.0168 20.4922
38.2056 20.2327
38.3945 19.9787
38.5837 19.7698
38.7728 19.4938
38.9621 19.1706
39.1514 19.0109
39.3409 18.6927
39.5304 18.5425
39.7201 18.2552
39.9099 18.1017
40.0999 17.8472
40.2899 17.5752
40.48 17.3628
40.6703 17.1678
40.8607 17.005
41.0512 16.7334
41.242 16.4265
41.4327 16.3315
41.6236 16.0431
41.8146 15.8357
42.0057 15.6052
42.1969 15.4311
42.3882 15.2741
42.5797 15.0395
42.7713 14.7847
42.963 14.6104
43.1549 14.441
43.3468 14.1566
43.5389 14.0647
43.7312 13.8449
43.9237 13.6629
44.1162 13.4391
44.3088 13.2801
44.5016 13.0595
44.6945 12.9103
44.8875 12.7592
45.0806 12.467
45.2739 12.3917
45.4673 12.1594
45.6609 11.9955
45.8546 11.8798
46.0484 11.6695
46.2424 11.5191
46.4365 11.3868
46.631 11.1377
46.8254 11.016
47.0199 10.8585
47.2146 10.6962
47.4095 10.5092
47.6044 10.3487
47.7996 10.2166
47.9948 10.0488
48.1902 9.93205
48.3858 9.81357
48.5815 9.63723
48.7774 9.51799
48.9734 9.39632
49.1696 9.20606
49.3661 9.07746
49.5626 8.91277
49.7592 8.82613
49.956 8.65751
50.153 8.55528
50.3501 8.42344
50.5474 8.27167
50.7448 8.15488
50.9424 8.03733
51.1402 7.91915
51.3381 7.77477
51.5362 7.66633
51.7344 7.49262
51.9328 7.38181
52.1316 7.25781
52.3304 7.18377
52.5293 7.08524
52.7284 6.92611
52.9276 6.76785
53.1271 6.69703
53.3267 6.57969
53.5265 6.46066
53.7264 6.35577
53.9266 6.25216
54.1269 6.11408
54.3274 6.01715
54.528 5.89018
54.7289 5.71047
54.9301 5.53618
55.1314 5.43687
55.3328 5.18367
55.5344 5.04122
55.7361 4.84415