File: XRD/Ni3Fe_FD0965.xy
TT I
1.27165 7.24447
1.45013 6.02713
1.62863 5.35704
1.80712 4.78838
1.98562 5.03677
2.16411 4.98728
2.34263 6.02526
2.52115 7.47512
2.69965 8.5874
2.87818 8.77433
3.05672 11.433
3.23527 15.0025
3.4138 18.6107
3.59237 23.8398
3.77094 26.0324
3.9495 29.3607
4.12809 34.7022
4.30669 193.424
4.4853 62.4708
4.6639 54.5617
4.84253 66.2578
5.02118 84.5932
5.19981 282.886
5.37848 172.957
5.55716 99.8373
5.73586 90.1181
5.91455 91.0231
6.09328 4633.22
6.27201 80.6662
6.45075 65.9983
6.62952 62.0457
6.8083 57.7079
6.98711 54.8339
7.16591 54.4329
7.34475 85.6829
7.5236 54.0072
7.70247 55.5609
7.88135 56.8406
8.06026 60.9597
8.23919 68.1993
8.41812 83.054
8.59709 1153.25
8.77609 96.2313
8.9551 89.489
9.13412 80.5086
9.31318 80.8071
9.49226 83.1085
9.67134 95.7611
9.85047 97.7383
10.0296 302.828
10.2088 358.204
10.388 101.582
10.5672 524.757
10.7465 84.529
10.9257 76.8281
11.105 70.3226
11.2844 68.813
11.4637 63.5089
11.6431 62.4755
11.8225 61.1222
12.002 61.9832
12.1814 155.179
12.3609 68.663
12.5405 63.2033
12.72 68.2298
12.8996 69.3889
13.0792 76.8382
13.2589 235.293
13.4386 118.858
13.6183 248.482
13.7981 94.2203
13.9779 74.2986
14.1577 70.9059
14.3376 69.9252
14.5175 67.5373
14.6974 69.0107
14.8774 106.257
15.0574 146.231
15.2374 69.3415
15.4175 64.9522
15.5976 64.4699
15.7778 91.0439
15.958 149.46
16.1382 61.0875
16.3185 57.4377
16.4988 54.3768
16.6792 53.3377
16.8596 54.267
17.04 54.5766
17.2205 65.2664
17.401 69.2264
17.5815 57.8889
17.7622 59.8924
17.9428 70.8668
18.1237 136.887
18.3044 89.858
18.4852 74.9245
18.666 59.2217
18.8469 56.9189
19.0278 55.8925
19.2088 58.0351
19.3898 74.7146
19.5709 53.1346
19.752 52.186
19.9332 54.7613
20.1144 68.7561
20.2957 63.5159
20.477 52.5055
20.6586 48.6208
20.84 47.9388
21.0215 47.6584
21.203 49.9952
21.3846 48.0227
21.5662 47.6856
21.7479 51.5183
21.9297 63.4928
22.1115 55.2894
22.2933 48.7794
22.4753 47.7948
22.6572 47.7633
22.8393 50.8082
23.0214 55.9695
23.2037 47.7066
23.3859 48.6492
23.5682 56.4133
23.7505 47.3554
23.9329 44.3499
24.1154 43.3412
24.2979 42.6131
24.4805 42.1095
24.6631 41.9735
24.8458 41.3932
25.0286 42.054
25.2114 43.7954
25.3943 43.7398
25.5773 40.1341
25.7605 39.6468
25.9436 40.0236
26.1268 40.9075
26.31 39.3143
26.4933 39.963
26.6767 41.5038
26.8601 39.7677
27.0437 38.2457
27.2272 37.8649
27.4109 37.7901
27.5946 37.731
27.7784 37.1471
27.9623 37.7667
28.1462 38.1551
28.3304 36.4557
28.5145 35.1858
28.6987 35.0208
28.8829 34.8097
29.0673 34.0329
29.2517 33.8001
29.4361 33.4832
29.6207 32.5887
29.8053 32.2843
29.99 32.0493
30.1748 31.8367
30.3597 31.6663
30.5447 31.5274
30.7297 31.6063
30.915 31.0781
31.1002 30.6086
31.2855 30.4107
31.4708 30.213
31.6563 29.7621
31.8418 29.6794
32.0275 29.3602
32.2132 28.8424
32.399 28.4809
32.5848 28.0501
32.7708 27.6199
32.9569 27.4793
33.143 27.3824
33.3293 26.9197
33.5158 26.6368
33.7022 26.1574
33.8887 25.9078
34.0753 25.5245
34.262 25.1768
34.4488 24.8593
34.6357 24.6079
34.8227 24.296
35.0098 24.0559
35.1969 23.7814
35.3842 23.5828
35.5716 23.3333
35.759 23.0206
35.9468 22.6884
36.1345 22.5065
36.3222 22.2465
36.5101 22.0243
36.6981 21.8134
36.8861 21.4431
37.0743 21.1683
37.2626 20.9153
37.451 20.5918
37.6395 20.4907
37.8281 20.1237
38.0168 19.8777
38.2056 19.582
38.3945 19.3351
38.5837 19.0748
38.7728 18.8969
38.9621 18.5913
39.1514 18.3294
39.3409 18.1689
39.5304 17.9025
39.7201 17.7344
39.9099 17.566
40.0999 17.27
40.2899 17.0465
40.48 16.7918
40.6703 16.6074
40.8607 16.4643
41.0512 16.1942
41.242 15.9238
41.4327 15.764
41.6236 15.6049
41.8146 15.3666
42.0057 15.204
42.1969 14.9321
42.3882 14.7523
42.5797 14.5595
42.7713 14.4052
42.963 14.2126
43.1549 14.0178
43.3468 13.7712
43.5389 13.576
43.7312 13.3872
43.9237 13.1872
44.1162 13.0992
44.3088 12.8473
44.5016 12.6602
44.6945 12.5568
44.8875 12.3857
45.0806 12.1492
45.2739 12.0039
45.4673 11.851
45.6609 11.6341
45.8546 11.5037
46.0484 11.3005
46.2424 11.1501
46.4365 11.0435
46.631 10.8223
46.8254 10.6707
47.0199 10.4865
47.2146 10.4003
47.4095 10.2182
47.6044 10.0896
47.7996 9.92146
47.9948 9.76531
48.1902 9.65401
48.3858 9.52251
48.5815 9.38317
48.7774 9.24027
48.9734 9.05632
49.1696 8.99142
49.3661 8.84661
49.5626 8.68362
49.7592 8.56057
49.956 8.42438
50.153 8.30318
50.3501 8.16574
50.5474 8.02608
50.7448 7.94491
50.9424 7.77888
51.1402 7.66664
51.3381 7.52902
51.5362 7.43119
51.7344 7.30398
51.9328 7.16988
52.1316 7.06177
52.3304 6.96041
52.5293 6.81408
52.7284 6.75608
52.9276 6.61229
53.1271 6.56445
53.3267 6.39435
53.5265 6.25526
53.7264 6.17071
53.9266 6.07473
54.1269 6.00326
54.3274 5.86126
54.528 5.70397
54.7289 5.50432
54.9301 5.37933
55.1314 5.25005
55.3328 5.02179
55.5344 4.92782
55.7361 4.70167