File: XRD/Ni3Fe_FD0654.xy
TT I
1.27165 7.07752
1.45013 6.33279
1.62863 5.13171
1.80712 5.03525
1.98562 4.77688
2.16411 5.03026
2.34263 5.81588
2.52115 7.18908
2.69965 8.3151
2.87818 8.86665
3.05672 10.4933
3.23527 15.0918
3.4138 19.2062
3.59237 24.985
3.77094 26.6883
3.9495 29.8952
4.12809 35.1864
4.30669 293.402
4.4853 72.4682
4.6639 55.0765
4.84253 67.1084
5.02118 86.004
5.19981 326.543
5.37848 197.478
5.55716 102.066
5.73586 91.5353
5.91455 92.9007
6.09328 4270.15
6.27201 84.2249
6.45075 67.4419
6.62952 63.4753
6.8083 59.1835
6.98711 56.252
7.16591 56.3399
7.34475 108.368
7.5236 54.9269
7.70247 56.6742
7.88135 58.2437
8.06026 62.3524
8.23919 69.4685
8.41812 85.7288
8.59709 1069.11
8.77609 100.469
8.9551 94.0223
9.13412 81.8905
9.31318 82.2844
9.49226 84.4588
9.67134 101.937
9.85047 99.5307
10.0296 313.144
10.2088 458.501
10.388 106.064
10.5672 483.437
10.7465 86.8034
10.9257 79.0739
11.105 72.0963
11.2844 71.6262
11.4637 65.2191
11.6431 63.8533
11.8225 62.8766
12.002 63.4772
12.1814 145.072
12.3609 73.4589
12.5405 65.0675
12.72 71.9254
12.8996 70.7645
13.0792 78.3418
13.2589 222.544
13.4386 131.21
13.6183 232.363
13.7981 100.806
13.9779 76.0104
14.1577 72.9904
14.3376 72.6813
14.5175 68.9525
14.6974 70.6381
14.8774 105.893
15.0574 158.178
15.2374 72.3
15.4175 66.3497
15.5976 65.7353
15.7778 91.6412
15.958 165.511
16.1382 63.9098
16.3185 59.3157
16.4988 55.8703
16.6792 54.5338
16.8596 55.613
17.04 55.7522
17.2205 65.7714
17.401 72.5698
17.5815 59.4379
17.7622 61.2049
17.9428 72.4627
18.1237 138.266
18.3044 88.5827
18.4852 79.885
18.666 60.5459
18.8469 58.2188
19.0278 57.2584
19.2088 59.5735
19.3898 77.2178
19.5709 54.3955
19.752 53.3532
19.9332 55.9325
20.1144 69.8742
20.2957 63.3902
20.477 54.3463
20.6586 49.8561
20.84 49.0179
21.0215 48.9326
21.203 50.7529
21.3846 49.2405
21.5662 48.7799
21.7479 52.4123
21.9297 64.6219
22.1115 56.3163
22.2933 50.0918
22.4753 49.1749
22.6572 48.8435
22.8393 51.5929
23.0214 58.2303
23.2037 48.8796
23.3859 49.6471
23.5682 56.6671
23.7505 48.7952
23.9329 45.2503
24.1154 44.3253
24.2979 43.5558
24.4805 43.0214
24.6631 42.9782
24.8458 42.2151
25.0286 42.8494
25.2114 44.6586
25.3943 44.937
25.5773 41.1388
25.7605 40.5906
25.9436 40.9152
26.1268 41.8134
26.31 40.1956
26.4933 40.7723
26.6767 42.3333
26.8601 40.5219
27.0437 39.0055
27.2272 38.6989
27.4109 38.4453
27.5946 38.5033
27.7784 37.9821
27.9623 38.3579
28.1462 39.0072
28.3304 37.3832
28.5145 36.1435
28.6987 35.7443
28.8829 35.5056
29.0673 34.8417
29.2517 34.4303
29.4361 34.2027
29.6207 33.2694
29.8053 33.0595
29.99 32.729
30.1748 32.5161
30.3597 32.3806
30.5447 32.2157
30.7297 32.3147
30.915 31.7774
31.1002 31.213
31.2855 30.9487
31.4708 30.9301
31.6563 30.531
31.8418 30.2511
32.0275 30.0893
32.2132 29.4877
32.399 29.1052
32.5848 28.6526
32.7708 28.3028
32.9569 28.0839
33.143 27.8437
33.3293 27.5299
33.5158 27.1929
33.7022 26.7382
33.8887 26.4447
34.0753 26.1706
34.262 25.7027
34.4488 25.4041
34.6357 25.1093
34.8227 24.7982
35.0098 24.6052
35.1969 24.2647
35.3842 24.1348
35.5716 23.8455
35.759 23.5218
35.9468 23.232
36.1345 22.9298
36.3222 22.7491
36.5101 22.4562
36.6981 22.1497
36.8861 21.9191
37.0743 21.6039
37.2626 21.3626
37.451 21.092
37.6395 20.9044
37.8281 20.5404
38.0168 20.354
38.2056 19.9956
38.3945 19.7946
38.5837 19.5516
38.7728 19.2484
38.9621 19.0241
39.1514 18.7986
39.3409 18.5522
39.5304 18.3429
39.7201 18.1559
39.9099 17.9072
40.0999 17.6734
40.2899 17.4548
40.48 17.2112
40.6703 16.9733
40.8607 16.8259
41.0512 16.6083
41.242 16.3275
41.4327 16.0827
41.6236 15.9382
41.8146 15.695
42.0057 15.4736
42.1969 15.285
42.3882 15.1559
42.5797 14.8592
42.7713 14.6874
42.963 14.4963
43.1549 14.3216
43.3468 14.0576
43.5389 13.9462
43.7312 13.6889
43.9237 13.4669
44.1162 13.3794
44.3088 13.1134
44.5016 12.9348
44.6945 12.7648
44.8875 12.6359
45.0806 12.4255
45.2739 12.2692
45.4673 12.0595
45.6609 11.8928
45.8546 11.7925
46.0484 11.567
46.2424 11.3897
46.4365 11.2908
46.631 11.0831
46.8254 10.9078
47.0199 10.756
47.2146 10.6117
47.4095 10.4279
47.6044 10.2926
47.7996 10.1826
47.9948 9.99861
48.1902 9.87693
48.3858 9.70594
48.5815 9.59716
48.7774 9.47646
48.9734 9.30772
49.1696 9.17763
49.3661 9.02311
49.5626 8.85803
49.7592 8.71938
49.956 8.63696
50.153 8.48974
50.3501 8.38716
50.5474 8.22305
50.7448 8.10063
50.9424 7.95902
51.1402 7.84676
51.3381 7.69487
51.5362 7.57233
51.7344 7.47775
51.9328 7.33754
52.1316 7.20149
52.3304 7.11912
52.5293 6.975
52.7284 6.86782
52.9276 6.76447
53.1271 6.67545
53.3267 6.55973
53.5265 6.40217
53.7264 6.30698
53.9266 6.20057
54.1269 6.0782
54.3274 5.99371
54.528 5.87369
54.7289 5.68606
54.9301 5.4845
55.1314 5.36417
55.3328 5.15794
55.5344 4.99439
55.7361 4.82942