File: XRD/Ni3Fe_FD0710.xy
TT I
1.27165 7.56996
1.45013 6.1226
1.62863 4.82137
1.80712 4.70885
1.98562 4.85222
2.16411 4.81965
2.34263 5.3709
2.52115 6.41771
2.69965 8.47447
2.87818 8.05045
3.05672 10.4869
3.23527 14.8029
3.4138 18.4247
3.59237 23.0471
3.77094 25.5467
3.9495 29.6072
4.12809 34.3715
4.30669 102.903
4.4853 53.4592
4.6639 55.3698
4.84253 68.4903
5.02118 87.851
5.19981 432.938
5.37848 198.09
5.55716 102.607
5.73586 93.2748
5.91455 96.6805
6.09328 4637.25
6.27201 80.6446
6.45075 69.5166
6.62952 63.0653
6.8083 59.4904
6.98711 55.374
7.16591 56.2382
7.34475 67.542
7.5236 54.1095
7.70247 56.7583
7.88135 57.6672
8.06026 62.9219
8.23919 69.2978
8.41812 84.2063
8.59709 1250.37
8.77609 98.3996
8.9551 89.8236
9.13412 83.2574
9.31318 84.6657
9.49226 85.1141
9.67134 95.309
9.85047 101.662
10.0296 366.588
10.2088 359.55
10.388 106.192
10.5672 523.401
10.7465 86.1249
10.9257 77.9631
11.105 71.5305
11.2844 68.3153
11.4637 64.5206
11.6431 63.0326
11.8225 62.7782
12.002 64.65
12.1814 156.556
12.3609 66.8276
12.5405 64.6581
12.72 68.2233
12.8996 71.5091
13.0792 80.7222
13.2589 250.678
13.4386 120.329
13.6183 259.91
13.7981 94.2844
13.9779 75.8879
14.1577 72.0577
14.3376 69.9108
14.5175 68.8193
14.6974 70.7173
14.8774 115.062
15.0574 139.224
15.2374 69.4899
15.4175 66.1957
15.5976 65.9816
15.7778 97.1479
15.958 148.756
16.1382 61.1151
16.3185 57.5889
16.4988 55.1786
16.6792 54.4588
16.8596 54.9392
17.04 56.0676
17.2205 67.3931
17.401 69.4977
17.5815 59.1532
17.7622 61.2765
17.9428 74.5671
18.1237 141.181
18.3044 91.6308
18.4852 74.8516
18.666 60.331
18.8469 58.0683
19.0278 56.7053
19.2088 59.4071
19.3898 75.9023
19.5709 53.9055
19.752 53.3169
19.9332 56.2901
20.1144 69.5742
20.2957 64.1775
20.477 52.6637
20.6586 49.3947
20.84 48.7855
21.0215 48.6232
21.203 50.9371
21.3846 48.7945
21.5662 48.9542
21.7479 53.1328
21.9297 65.0285
22.1115 55.9779
22.2933 49.6292
22.4753 48.6312
22.6572 48.9432
22.8393 52.1398
23.0214 56.9121
23.2037 48.7552
23.3859 49.7131
23.5682 57.2672
23.7505 47.8397
23.9329 45.0844
24.1154 44.2288
24.2979 43.2697
24.4805 42.9244
24.6631 42.766
24.8458 42.2373
25.0286 42.8734
25.2114 44.5743
25.3943 44.4123
25.5773 40.8479
25.7605 40.3757
25.9436 40.9002
26.1268 41.6671
26.31 40.1005
26.4933 40.6708
26.6767 42.1686
26.8601 40.3044
27.0437 38.85
27.2272 38.5137
27.4109 38.4327
27.5946 38.2459
27.7784 37.8606
27.9623 38.3505
28.1462 38.7586
28.3304 37.0014
28.5145 35.9349
28.6987 35.5169
28.8829 35.2756
29.0673 34.5679
29.2517 34.2874
29.4361 34.0957
29.6207 33.0684
29.8053 32.8005
29.99 32.5094
30.1748 32.5153
30.3597 32.2291
30.5447 32.1973
30.7297 32.2989
30.915 31.4685
31.1002 31.0747
31.2855 30.8654
31.4708 30.7219
31.6563 30.2814
31.8418 30.0582
32.0275 29.7754
32.2132 29.1934
32.399 28.805
32.5848 28.4078
32.7708 28.1064
32.9569 27.9159
33.143 27.7879
33.3293 27.3058
33.5158 26.9979
33.7022 26.564
33.8887 26.2743
34.0753 25.9423
34.262 25.5636
34.4488 25.218
34.6357 24.8391
34.8227 24.6648
35.0098 24.414
35.1969 24.0961
35.3842 23.9272
35.5716 23.7561
35.759 23.4142
35.9468 23.1041
36.1345 22.8481
36.3222 22.612
36.5101 22.3716
36.6981 22.0828
36.8861 21.7318
37.0743 21.3726
37.2626 21.1799
37.451 21.0441
37.6395 20.7642
37.8281 20.4279
38.0168 20.1183
38.2056 19.9293
38.3945 19.7012
38.5837 19.3462
38.7728 19.1542
38.9621 18.9505
39.1514 18.5974
39.3409 18.4033
39.5304 18.1752
39.7201 17.9994
39.9099 17.7493
40.0999 17.5253
40.2899 17.3529
40.48 17.0042
40.6703 16.9206
40.8607 16.6401
41.0512 16.4321
41.242 16.2148
41.4327 16.0394
41.6236 15.7599
41.8146 15.6349
42.0057 15.3782
42.1969 15.1624
42.3882 15.0035
42.5797 14.7592
42.7713 14.5652
42.963 14.3382
43.1549 14.1647
43.3468 13.9469
43.5389 13.7927
43.7312 13.5779
43.9237 13.4266
44.1162 13.1431
44.3088 13.0503
44.5016 12.8226
44.6945 12.6976
44.8875 12.4962
45.0806 12.3402
45.2739 12.1205
45.4673 11.9792
45.6609 11.7978
45.8546 11.712
46.0484 11.4611
46.2424 11.3338
46.4365 11.15
46.631 11.0031
46.8254 10.8438
47.0199 10.701
47.2146 10.5233
47.4095 10.3661
47.6044 10.1802
47.7996 10.0341
47.9948 9.88997
48.1902 9.77812
48.3858 9.64288
48.5815 9.51241
48.7774 9.33039
48.9734 9.2245
49.1696 9.08328
49.3661 8.94764
49.5626 8.74047
49.7592 8.69305
49.956 8.52272
50.153 8.41567
50.3501 8.24528
50.5474 8.16316
50.7448 8.02352
50.9424 7.91786
51.1402 7.78667
51.3381 7.64757
51.5362 7.52491
51.7344 7.36254
51.9328 7.2876
52.1316 7.14386
52.3304 7.05897
52.5293 6.90847
52.7284 6.80486
52.9276 6.69145
53.1271 6.56795
53.3267 6.4586
53.5265 6.32976
53.7264 6.28265
53.9266 6.13845
54.1269 6.05167
54.3274 5.9321
54.528 5.75471
54.7289 5.635
54.9301 5.46459
55.1314 5.31973
55.3328 5.17682
55.5344 4.91021
55.7361 4.81983