File: XRD/Ni3Fe_FD0796.xy
TT I
1.27165 6.86761
1.45013 6.16431
1.62863 5.07534
1.80712 5.06653
1.98562 4.60542
2.16411 5.27992
2.34263 5.6751
2.52115 7.58763
2.69965 8.4273
2.87818 8.87071
3.05672 11.3083
3.23527 14.9898
3.4138 18.4178
3.59237 23.1008
3.77094 25.94
3.9495 29.6294
4.12809 34.2181
4.30669 136.144
4.4853 57.4
4.6639 55.0655
4.84253 67.3298
5.02118 86.7855
5.19981 373.489
5.37848 180.126
5.55716 100.475
5.73586 91.6215
5.91455 94.0761
6.09328 4576.29
6.27201 80.4066
6.45075 67.2452
6.62952 62.0206
6.8083 58.239
6.98711 55.1779
7.16591 55.219
7.34475 74.3546
7.5236 54.0459
7.70247 55.7429
7.88135 57.3136
8.06026 62.0941
8.23919 68.7984
8.41812 83.6788
8.59709 1210.94
8.77609 97.036
8.9551 88.814
9.13412 81.7279
9.31318 82.9531
9.49226 84.1287
9.67134 94.5999
9.85047 99.8422
10.0296 344.867
10.2088 341.779
10.388 103.782
10.5672 542.944
10.7465 85.4494
10.9257 77.3526
11.105 70.8441
11.2844 68.5225
11.4637 64.2155
11.6431 62.8272
11.8225 61.7952
12.002 63.6029
12.1814 157.796
12.3609 67.0481
12.5405 64.0055
12.72 67.9482
12.8996 70.3728
13.0792 79.3873
13.2589 247.729
13.4386 116.989
13.6183 256.679
13.7981 92.4323
13.9779 75.0816
14.1577 71.273
14.3376 69.8048
14.5175 68.1139
14.6974 69.9272
14.8774 111.233
15.0574 140.844
15.2374 69.1918
15.4175 65.5881
15.5976 65.3116
15.7778 94.8097
15.958 146.033
16.1382 60.8917
16.3185 57.5174
16.4988 54.7566
16.6792 53.7448
16.8596 54.4305
17.04 55.4898
17.2205 66.7814
17.401 68.7934
17.5815 58.5793
17.7622 60.7265
17.9428 73.1471
18.1237 141.641
18.3044 91.2721
18.4852 74.0289
18.666 59.6039
18.8469 57.6115
19.0278 56.2697
19.2088 58.7541
19.3898 75.7733
19.5709 53.6018
19.752 52.736
19.9332 55.7024
20.1144 69.6792
20.2957 64.1252
20.477 52.2104
20.6586 49.0502
20.84 48.2631
21.0215 48.1026
21.203 50.5338
21.3846 48.3333
21.5662 48.5035
21.7479 52.2929
21.9297 64.2361
22.1115 55.795
22.2933 49.1153
22.4753 48.246
22.6572 48.4035
22.8393 51.578
23.0214 56.6183
23.2037 48.3159
23.3859 49.3656
23.5682 56.9902
23.7505 47.3337
23.9329 44.7298
24.1154 43.6182
24.2979 42.9787
24.4805 42.495
24.6631 42.5245
24.8458 41.8948
25.0286 42.5664
25.2114 44.3312
25.3943 44.0474
25.5773 40.4712
25.7605 40.1153
25.9436 40.4933
26.1268 41.2196
26.31 39.6728
26.4933 40.2924
26.6767 41.7708
26.8601 39.9867
27.0437 38.5985
27.2272 38.1448
27.4109 38.0613
27.5946 38.0422
27.7784 37.4161
27.9623 37.996
28.1462 38.4218
28.3304 36.7659
28.5145 35.5229
28.6987 35.1551
28.8829 35.1564
29.0673 34.3195
29.2517 34.0053
29.4361 33.8131
29.6207 32.8675
29.8053 32.5138
29.99 32.2515
30.1748 32.1251
30.3597 31.898
30.5447 31.9781
30.7297 31.931
30.915 31.2481
31.1002 30.8693
31.2855 30.5877
31.4708 30.5805
31.6563 30.0104
31.8418 29.8105
32.0275 29.6548
32.2132 29.0194
32.399 28.6447
32.5848 28.1831
32.7708 27.8937
32.9569 27.7527
33.143 27.5593
33.3293 27.1259
33.5158 26.7116
33.7022 26.2911
33.8887 26.1246
34.0753 25.8065
34.262 25.3058
34.4488 25.085
34.6357 24.6659
34.8227 24.5069
35.0098 24.2644
35.1969 23.9925
35.3842 23.7081
35.5716 23.5078
35.759 23.2006
35.9468 22.9429
36.1345 22.6443
36.3222 22.4277
36.5101 22.2058
36.6981 21.8565
36.8861 21.604
37.0743 21.2878
37.2626 21.0782
37.451 20.7643
37.6395 20.6219
37.8281 20.2621
38.0168 19.9473
38.2056 19.7904
38.3945 19.4831
38.5837 19.2504
38.7728 19.025
38.9621 18.776
39.1514 18.5546
39.3409 18.2351
39.5304 18.1024
39.7201 17.8546
39.9099 17.6943
40.0999 17.4055
40.2899 17.1919
40.48 16.9292
40.6703 16.7219
40.8607 16.5464
41.0512 16.32
41.242 16.0844
41.4327 15.8941
41.6236 15.6811
41.8146 15.4924
42.0057 15.2901
42.1969 15.0692
42.3882 14.8885
42.5797 14.6605
42.7713 14.4927
42.963 14.276
43.1549 14.1317
43.3468 13.8689
43.5389 13.6984
43.7312 13.4831
43.9237 13.3193
44.1162 13.1167
44.3088 12.9368
44.5016 12.7547
44.6945 12.622
44.8875 12.4087
45.0806 12.2011
45.2739 12.0866
45.4673 11.9552
45.6609 11.7434
45.8546 11.5704
46.0484 11.4264
46.2424 11.2253
46.4365 11.0947
46.631 10.9188
46.8254 10.7082
47.0199 10.6062
47.2146 10.4575
47.4095 10.3024
47.6044 10.1429
47.7996 9.98488
47.9948 9.81311
48.1902 9.71349
48.3858 9.54892
48.5815 9.44866
48.7774 9.27239
48.9734 9.15103
49.1696 8.96582
49.3661 8.85977
49.5626 8.71769
49.7592 8.58985
49.956 8.47954
50.153 8.35832
50.3501 8.20744
50.5474 8.11803
50.7448 8.01289
50.9424 7.8625
51.1402 7.70545
51.3381 7.62193
51.5362 7.42979
51.7344 7.34025
51.9328 7.23675
52.1316 7.08259
52.3304 7.00652
52.5293 6.86982
52.7284 6.79522
52.9276 6.67182
53.1271 6.58056
53.3267 6.44625
53.5265 6.32495
53.7264 6.18805
53.9266 6.11136
54.1269 6.00319
54.3274 5.88759
54.528 5.73186
54.7289 5.57226
54.9301 5.40175
55.1314 5.32558
55.3328 5.0827
55.5344 4.89038
55.7361 4.76553