File: XRD/Ni3Fe_FD0108.xy
TT I
1.27165 8.38388
1.45013 7.4421
1.62863 5.95167
1.80712 5.17874
1.98562 5.5439
2.16411 4.61297
2.34263 4.13892
2.52115 4.51323
2.69965 5.18667
2.87818 8.02235
3.05672 10.8825
3.23527 15.3928
3.4138 18.5263
3.59237 21.6026
3.77094 24.6537
3.9495 27.6526
4.12809 32.5092
4.30669 37.4927
4.4853 44.1858
4.6639 53.4283
4.84253 65.3285
5.02118 92.4027
5.19981 631.179
5.37848 605.508
5.55716 109.604
5.73586 96.9724
5.91455 109.507
6.09328 2324.14
6.27201 93.3355
6.45075 66.3292
6.62952 59.5087
6.8083 54.8545
6.98711 52.7344
7.16591 51.587
7.34475 51.1853
7.5236 57.7117
7.70247 53.258
7.88135 55.428
8.06026 59.6758
8.23919 66.9984
8.41812 84.0052
8.59709 791.642
8.77609 124.364
8.9551 84.6915
9.13412 80.8569
9.31318 91.6031
9.49226 82.4642
9.67134 87.6327
9.85047 98.3965
10.0296 577.071
10.2088 1147.48
10.388 104.281
10.5672 281.711
10.7465 92.9967
10.9257 74.6992
11.105 69.4522
11.2844 65.2279
11.4637 62.6109
11.6431 61.3395
11.8225 60.0825
12.002 67.543
12.1814 107.876
12.3609 79.1683
12.5405 62.127
12.72 64.4027
12.8996 68.3588
13.0792 78.7059
13.2589 190.293
13.4386 241.042
13.6183 174.642
13.7981 174.398
13.9779 75.1345
14.1577 75.6884
14.3376 68.0927
14.5175 67.2999
14.6974 68.8923
14.8774 120.538
15.0574 207.125
15.2374 68.5209
15.4175 65.3528
15.5976 64.8861
15.7778 107.769
15.958 179.024
16.1382 61.679
16.3185 56.6858
16.4988 54.3678
16.6792 53.2285
16.8596 53.6753
17.04 54.5457
17.2205 63.705
17.401 81.2133
17.5815 58.2462
17.7622 60.7413
17.9428 84.371
18.1237 104.268
18.3044 87.6547
18.4852 98.1754
18.666 60.1984
18.8469 57.4736
19.0278 56.0238
19.2088 61.5235
19.3898 66.0119
19.5709 56.8145
19.752 52.6449
19.9332 57.8007
20.1144 64.3378
20.2957 59.7191
20.477 60.1254
20.6586 49.2115
20.84 48.6978
21.0215 48.6502
21.203 48.6031
21.3846 50.3397
21.5662 48.4412
21.7479 53.431
21.9297 59.5779
22.1115 55.9193
22.2933 52.7233
22.4753 48.2338
22.6572 48.51
22.8393 50.9956
23.0214 55.1485
23.2037 49.6601
23.3859 51.4618
23.5682 51.7324
23.7505 54.0157
23.9329 45.19
24.1154 43.7766
24.2979 43.2478
24.4805 42.4947
24.6631 42.6653
24.8458 42.0347
25.0286 42.3945
25.2114 43.7075
25.3943 44.0584
25.5773 41.6135
25.7605 40.3459
25.9436 40.3793
26.1268 40.9109
26.31 40.7462
26.4933 40.3403
26.6767 41.3126
26.8601 40.9428
27.0437 39.1366
27.2272 38.4432
27.4109 38.139
27.5946 38.1952
27.7784 38.1855
27.9623 37.9648
28.1462 38.6898
28.3304 37.6455
28.5145 36.0011
28.6987 35.4682
28.8829 34.9614
29.0673 34.781
29.2517 33.9606
29.4361 33.7195
29.6207 33.197
29.8053 32.5961
29.99 32.3612
30.1748 32.0897
30.3597 32.2196
30.5447 31.921
30.7297 31.8214
30.915 31.6587
31.1002 31.1446
31.2855 30.7467
31.4708 30.6377
31.6563 30.5265
31.8418 30.043
32.0275 29.8576
32.2132 29.324
32.399 28.8353
32.5848 28.372
32.7708 27.9183
32.9569 27.8837
33.143 27.5398
33.3293 27.3096
33.5158 26.9698
33.7022 26.4417
33.8887 26.1569
34.0753 25.8588
34.262 25.4928
34.4488 25.1701
34.6357 24.821
34.8227 24.5599
35.0098 24.3592
35.1969 24.0807
35.3842 23.7799
35.5716 23.6137
35.759 23.3699
35.9468 23.0437
36.1345 22.7538
36.3222 22.5135
36.5101 22.3282
36.6981 22.0379
36.8861 21.714
37.0743 21.4172
37.2626 21.1497
37.451 20.8668
37.6395 20.6773
37.8281 20.3804
38.0168 20.131
38.2056 19.7606
38.3945 19.521
38.5837 19.3492
38.7728 19.0694
38.9621 18.8588
39.1514 18.5219
39.3409 18.3529
39.5304 18.115
39.7201 17.888
39.9099 17.6917
40.0999 17.457
40.2899 17.2137
40.48 17.0111
40.6703 16.7423
40.8607 16.6719
41.0512 16.4013
41.242 16.1641
41.4327 16.0127
41.6236 15.7137
41.8146 15.4831
42.0057 15.3756
42.1969 15.0711
42.3882 14.8917
42.5797 14.7093
42.7713 14.5361
42.963 14.3416
43.1549 14.1805
43.3468 13.9532
43.5389 13.7163
43.7312 13.5615
43.9237 13.3799
44.1162 13.1671
44.3088 13.0064
44.5016 12.7898
44.6945 12.6445
44.8875 12.4724
45.0806 12.2877
45.2739 12.0909
45.4673 11.9652
45.6609 11.8084
45.8546 11.5876
46.0484 11.4698
46.2424 11.2919
46.4365 11.177
46.631 10.9895
46.8254 10.7644
47.0199 10.6098
47.2146 10.4894
47.4095 10.3004
47.6044 10.1819
47.7996 10.0005
47.9948 9.86341
48.1902 9.78077
48.3858 9.58318
48.5815 9.46026
48.7774 9.32853
48.9734 9.18485
49.1696 9.09751
49.3661 8.90401
49.5626 8.78041
49.7592 8.67283
49.956 8.523
50.153 8.39319
50.3501 8.24677
50.5474 8.15037
50.7448 8.02865
50.9424 7.91002
51.1402 7.77639
51.3381 7.60922
51.5362 7.53651
51.7344 7.37797
51.9328 7.28261
52.1316 7.12223
52.3304 7.05753
52.5293 6.92811
52.7284 6.79729
52.9276 6.69049
53.1271 6.61828
53.3267 6.47009
53.5265 6.37135
53.7264 6.227
53.9266 6.11828
54.1269 5.97332
54.3274 5.85462
54.528 5.72388
54.7289 5.56023
54.9301 5.34831
55.1314 5.20329
55.3328 5.00659
55.5344 4.84518
55.7361 4.72687