File: XRD/Ni3Fe_FD0033.xy
TT I
1.27165 32.923
1.45013 27.9209
1.62863 24.0673
1.80712 22.087
1.98562 21.8709
2.16411 24.3273
2.34263 24.6885
2.52115 23.3265
2.69965 27.2435
2.87818 37.4571
3.05672 64.4554
3.23527 72.3362
3.4138 38.666
3.59237 36.608
3.77094 35.4632
3.9495 32.9494
4.12809 42.9543
4.30669 82.9114
4.4853 55.1513
4.6639 44.481
4.84253 52.5386
5.02118 89.0386
5.19981 298.297
5.37848 3503.15
5.55716 154.314
5.73586 101.221
5.91455 114.001
6.09328 501.385
6.27201 279.05
6.45075 69.7326
6.62952 54.6666
6.8083 52.9767
6.98711 42.0851
7.16591 45.5827
7.34475 72.0811
7.5236 53.6765
7.70247 43.8677
7.88135 37.9919
8.06026 39.6907
8.23919 45.2954
8.41812 58.2279
8.59709 175.398
8.77609 558.399
8.9551 77.3854
9.13412 60.5573
9.31318 261.015
9.49226 54.702
9.67134 54.8454
9.85047 62.4058
10.0296 108.473
10.2088 568.468
10.388 119.904
10.5672 95.1632
10.7465 237.728
10.9257 49.5178
11.105 43.8417
11.2844 42.7277
11.4637 38.7843
11.6431 38.4165
11.8225 37.5541
12.002 80.366
12.1814 48.6789
12.3609 95.6369
12.5405 43.9157
12.72 42.3574
12.8996 40.3464
13.0792 44.038
13.2589 67.0904
13.4386 168.106
13.6183 88.5921
13.7981 176.233
13.9779 58.3071
14.1577 50.8453
14.3376 46.4674
14.5175 39.3554
14.6974 39.6826
14.8774 45.3789
15.0574 65.2221
15.2374 77.4159
15.4175 41.646
15.5976 39.3747
15.7778 43.0679
15.958 57.0226
16.1382 100.09
16.3185 39.2153
16.4988 34.2614
16.6792 32.5167
16.8596 32.6502
17.04 40.4893
17.2205 34.5332
17.401 38.0032
17.5815 44.131
17.7622 36.1948
17.9428 40.372
18.1237 44.1461
18.3044 92.9733
18.4852 55.2051
18.666 56.9713
18.8469 36.5541
19.0278 34.3783
19.2088 34.6487
19.3898 41.5111
19.5709 46.9928
19.752 35.0351
19.9332 32.501
20.1144 33.2306
20.2957 43.9454
20.477 38.9239
20.6586 35.9475
20.84 32.6616
21.0215 29.9544
21.203 29.3305
21.3846 29.9834
21.5662 31.8812
21.7479 30.2209
21.9297 31.7241
22.1115 42.097
22.2933 40.0622
22.4753 33.708
22.6572 30.4101
22.8393 31.1646
23.0214 31.5926
23.2037 39.643
23.3859 32.7092
23.5682 33.8852
23.7505 34.886
23.9329 36.783
24.1154 29.3409
24.2979 27.7198
24.4805 26.9332
24.6631 26.992
24.8458 27.8102
25.0286 26.5159
25.2114 26.7949
25.3943 28.9995
25.5773 30.1947
25.7605 27.551
25.9436 26.8475
26.1268 25.771
26.31 26.964
26.4933 27.0268
26.6767 26.0312
26.8601 27.6195
27.0437 28.9556
27.2272 26.1027
27.4109 24.9431
27.5946 24.8811
27.7784 25.2718
27.9623 24.9655
28.1462 25.5535
28.3304 27.0279
28.5145 26.2043
28.6987 24.343
28.8829 23.1821
29.0673 22.8403
29.2517 23.2631
29.4361 22.1668
29.6207 22.118
29.8053 22.3158
29.99 21.3395
30.1748 21.4519
30.3597 21.1568
30.5447 21.3357
30.7297 20.9839
30.915 21.2723
31.1002 22.1614
31.2855 21.1539
31.4708 20.4467
31.6563 20.5368
31.8418 21.1048
32.0275 20.1839
32.2132 20.3017
32.399 20.251
32.5848 19.4925
32.7708 18.9759
32.9569 18.8273
33.143 18.7731
33.3293 18.4071
33.5158 18.7467
33.7022 18.5362
33.8887 17.8757
34.0753 17.654
34.262 17.5182
34.4488 17.2
34.6357 16.9928
34.8227 16.7995
35.0098 16.4958
35.1969 16.3975
35.3842 16.3569
35.5716 16.163
35.759 16.3507
35.9468 16.1847
36.1345 15.7844
36.3222 15.586
36.5101 15.5005
36.6981 15.3335
36.8861 15.1246
37.0743 14.9515
37.2626 14.6968
37.451 14.4672
37.6395 14.379
37.8281 14.1921
38.0168 13.9892
38.2056 13.8611
38.3945 13.6192
38.5837 13.4526
38.7728 13.298
38.9621 13.1749
39.1514 13.0576
39.3409 12.8431
39.5304 12.6983
39.7201 12.4878
39.9099 12.4021
40.0999 12.2498
40.2899 12.1463
40.48 11.9084
40.6703 11.8039
40.8607 11.7321
41.0512 11.6111
41.242 11.4816
41.4327 11.2923
41.6236 11.1084
41.8146 10.9924
42.0057 10.8451
42.1969 10.7758
42.3882 10.6077
42.5797 10.3906
42.7713 10.2895
42.963 10.1721
43.1549 10.0722
43.3468 9.83327
43.5389 9.72923
43.7312 9.66769
43.9237 9.50161
44.1162 9.39003
44.3088 9.24139
44.5016 9.13645
44.6945 9.01796
44.8875 8.91712
45.0806 8.78238
45.2739 8.64456
45.4673 8.53863
45.6609 8.44756
45.8546 8.32215
46.0484 8.22185
46.2424 8.10188
46.4365 8.01797
46.631 7.874
46.8254 7.72447
47.0199 7.66521
47.2146 7.53514
47.4095 7.40828
47.6044 7.2985
47.7996 7.19286
47.9948 7.11346
48.1902 7.05386
48.3858 6.91253
48.5815 6.83381
48.7774 6.73671
48.9734 6.63332
49.1696 6.56705
49.3661 6.4277
49.5626 6.34765
49.7592 6.27366
49.956 6.16525
50.153 6.09378
50.3501 6.00254
50.5474 5.92763
50.7448 5.83934
50.9424 5.75971
51.1402 5.67316
51.3381 5.57903
51.5362 5.4945
51.7344 5.4066
51.9328 5.32139
52.1316 5.18936
52.3304 5.15428
52.5293 5.05919
52.7284 4.98037
52.9276 4.90613
53.1271 4.8435
53.3267 4.75999
53.5265 4.67331
53.7264 4.58071
53.9266 4.50742
54.1269 4.436
54.3274 4.33845
54.528 4.15122
54.7289 4.03155
54.9301 3.97084
55.1314 3.87838
55.3328 3.69414
55.5344 3.52188
55.7361 3.42709