File: XRD/Ni3Fe_FD0380.xy
TT I
1.27165 7.78289
1.45013 6.5187
1.62863 6.17572
1.80712 5.1419
1.98562 4.33447
2.16411 5.1489
2.34263 4.63341
2.52115 5.92984
2.69965 7.49682
2.87818 8.36467
3.05672 11.0656
3.23527 15.4854
3.4138 18.8722
3.59237 24.461
3.77094 26.5476
3.9495 30.7586
4.12809 35.7329
4.30669 190.752
4.4853 64.0286
4.6639 56.592
4.84253 68.9919
5.02118 90.2841
5.19981 481.78
5.37848 224.798
5.55716 106.578
5.73586 95.8462
5.91455 99.6952
6.09328 4019.77
6.27201 86.6924
6.45075 69.3337
6.62952 64.5162
6.8083 60.3524
6.98711 56.9953
7.16591 56.7332
7.34475 87.1961
7.5236 56.122
7.70247 57.8475
7.88135 59.4467
8.06026 64.0577
8.23919 71.6742
8.41812 88.09
8.59709 1176.5
8.77609 104.998
8.9551 93.4633
9.13412 84.4524
9.31318 85.4187
9.49226 87.1195
9.67134 100.257
9.85047 102.863
10.0296 401.425
10.2088 514.747
10.388 108.586
10.5672 480.499
10.7465 89.5543
10.9257 80.5113
11.105 73.9743
11.2844 71.8856
11.4637 66.8427
11.6431 65.379
11.8225 64.2407
12.002 65.7572
12.1814 150.375
12.3609 72.2657
12.5405 66.4403
12.72 71.1314
12.8996 73.1982
13.0792 81.6006
13.2589 241.435
13.4386 140.712
13.6183 242.881
13.7981 106.521
13.9779 78.0509
14.1577 74.4167
14.3376 73.5282
14.5175 70.7252
14.6974 72.7407
14.8774 115.815
15.0574 160.85
15.2374 73.092
15.4175 68.3253
15.5976 67.6323
15.7778 99.5756
15.958 166.298
16.1382 64.1936
16.3185 60.2233
16.4988 57.015
16.6792 56.1152
16.8596 56.8564
17.04 57.4206
17.2205 68.4503
17.401 74.2587
17.5815 60.8076
17.7622 63.0194
17.9428 77.5246
18.1237 136.089
18.3044 91.8668
18.4852 82.1618
18.666 62.0725
18.8469 59.714
19.0278 58.5112
19.2088 61.7497
19.3898 76.4421
19.5709 55.988
19.752 54.9379
19.9332 58.0207
20.1144 70.6945
20.2957 64.6087
20.477 55.7842
20.6586 51.0828
20.84 50.1851
21.0215 50.0983
21.203 51.8899
21.3846 50.4158
21.5662 50.1567
21.7479 54.2469
21.9297 65.2869
22.1115 57.2844
22.2933 51.6564
22.4753 50.2809
22.6572 50.4045
22.8393 53.3759
23.0214 58.6291
23.2037 50.3175
23.3859 51.4067
23.5682 57.4225
23.7505 50.267
23.9329 46.6923
24.1154 45.4015
24.2979 44.7921
24.4805 44.1212
24.6631 44.2332
24.8458 43.4468
25.0286 44.0621
25.2114 45.7982
25.3943 45.7092
25.5773 42.0839
25.7605 41.5166
25.9436 41.94
26.1268 42.7777
26.31 41.3049
26.4933 41.9674
26.6767 43.086
26.8601 41.5984
27.0437 40.052
27.2272 39.5541
27.4109 39.5299
27.5946 39.3921
27.7784 39.0533
27.9623 39.2975
28.1462 40.0483
28.3304 38.3843
28.5145 37.0213
28.6987 36.5722
28.8829 36.4862
29.0673 35.6008
29.2517 35.313
29.4361 35.0639
29.6207 34.1644
29.8053 33.8122
29.99 33.5799
30.1748 33.2933
30.3597 33.0859
30.5447 33.0134
30.7297 33.1034
30.915 32.4878
31.1002 32.0075
31.2855 31.7465
31.4708 31.5569
31.6563 31.1941
31.8418 30.9036
32.0275 30.7579
32.2132 30.2068
32.399 29.7817
32.5848 29.2645
32.7708 28.9625
32.9569 28.8158
33.143 28.5691
33.3293 28.1637
33.5158 27.7192
33.7022 27.3796
33.8887 27.0655
34.0753 26.6999
34.262 26.3239
34.4488 25.9596
34.6357 25.6084
34.8227 25.3853
35.0098 25.2203
35.1969 24.8855
35.3842 24.6091
35.5716 24.485
35.759 24.0627
35.9468 23.6589
36.1345 23.4804
36.3222 23.3748
36.5101 23.033
36.6981 22.7321
36.8861 22.4115
37.0743 22.0985
37.2626 21.7883
37.451 21.5611
37.6395 21.3516
37.8281 21.0491
38.0168 20.7813
38.2056 20.5302
38.3945 20.2588
38.5837 19.9628
38.7728 19.7658
38.9621 19.4763
39.1514 19.2143
39.3409 18.9131
39.5304 18.7138
39.7201 18.5777
39.9099 18.2652
40.0999 18.0102
40.2899 17.8459
40.48 17.5779
40.6703 17.3072
40.8607 17.2092
41.0512 16.9461
41.242 16.7336
41.4327 16.4653
41.6236 16.2903
41.8146 16.08
42.0057 15.7963
42.1969 15.5622
42.3882 15.4012
42.5797 15.284
42.7713 15.0246
42.963 14.7679
43.1549 14.6098
43.3468 14.401
43.5389 14.2308
43.7312 13.998
43.9237 13.8223
44.1162 13.6054
44.3088 13.4291
44.5016 13.2093
44.6945 13.0451
44.8875 12.8489
45.0806 12.6967
45.2739 12.4871
45.4673 12.3506
45.6609 12.156
45.8546 12.0226
46.0484 11.8783
46.2424 11.6265
46.4365 11.5416
46.631 11.3135
46.8254 11.13
47.0199 10.9859
47.2146 10.8727
47.4095 10.6809
47.6044 10.5176
47.7996 10.3657
47.9948 10.2112
48.1902 10.0704
48.3858 9.90951
48.5815 9.80779
48.7774 9.66247
48.9734 9.51106
49.1696 9.35555
49.3661 9.18064
49.5626 9.07671
49.7592 8.92378
49.956 8.76559
50.153 8.69471
50.3501 8.51138
50.5474 8.38866
50.7448 8.26288
50.9424 8.15094
51.1402 8.03892
51.3381 7.88918
51.5362 7.76291
51.7344 7.64393
51.9328 7.47444
52.1316 7.33461
52.3304 7.28206
52.5293 7.11862
52.7284 7.01018
52.9276 6.89107
53.1271 6.82249
53.3267 6.64475
53.5265 6.57668
53.7264 6.45924
53.9266 6.30866
54.1269 6.22396
54.3274 6.09011
54.528 5.95355
54.7289 5.77381
54.9301 5.64925
55.1314 5.52271
55.3328 5.24823
55.5344 5.08882
55.7361 4.92091