File: XRD/Ni3Fe_FD0900.xy
TT I
1.27165 7.46174
1.45013 5.98013
1.62863 5.43156
1.80712 4.96761
1.98562 4.6034
2.16411 4.95813
2.34263 5.52267
2.52115 7.07669
2.69965 8.65525
2.87818 9.16602
3.05672 11.4414
3.23527 15.2783
3.4138 18.9454
3.59237 23.5586
3.77094 25.9815
3.9495 29.5245
4.12809 33.7436
4.30669 165.229
4.4853 59.7937
4.6639 54.8866
4.84253 66.3643
5.02118 85.2688
5.19981 324.851
5.37848 170.919
5.55716 99.5121
5.73586 90.9102
5.91455 92.0797
6.09328 4559.7
6.27201 79.6333
6.45075 66.1136
6.62952 61.3626
6.8083 57.334
6.98711 54.7933
7.16591 54.4996
7.34475 80.1559
7.5236 53.7622
7.70247 55.3553
7.88135 57.0026
8.06026 61.2088
8.23919 68.5518
8.41812 83.0361
8.59709 1191.4
8.77609 95.5621
8.9551 88.3161
9.13412 80.7305
9.31318 80.9528
9.49226 82.8918
9.67134 94.4258
9.85047 97.8651
10.0296 321.786
10.2088 331.827
10.388 102.493
10.5672 537.065
10.7465 84.6542
10.9257 76.6659
11.105 70.2405
11.2844 68.1785
11.4637 63.8465
11.6431 62.3577
11.8225 61.2101
12.002 62.6537
12.1814 158.418
12.3609 67.3965
12.5405 63.3269
12.72 67.7715
12.8996 69.5137
13.0792 77.9149
13.2589 240.047
13.4386 113.603
13.6183 253.621
13.7981 91.6393
13.9779 74.2913
14.1577 70.6075
14.3376 69.4611
14.5175 67.4558
14.6974 68.8631
14.8774 108.191
15.0574 136.747
15.2374 68.8551
15.4175 65.0012
15.5976 64.7185
15.7778 92.5536
15.958 148.55
16.1382 60.901
16.3185 57.1566
16.4988 54.32
16.6792 53.4383
16.8596 54.0731
17.04 54.8916
17.2205 65.2662
17.401 68.09
17.5815 57.9272
17.7622 60.2021
17.9428 71.8244
18.1237 139.862
18.3044 90.2287
18.4852 73.1921
18.666 59.162
18.8469 56.8039
19.0278 55.6784
19.2088 58.4323
19.3898 75.5716
19.5709 53.0564
19.752 52.2007
19.9332 55.0802
20.1144 69.5101
20.2957 63.7757
20.477 52.0984
20.6586 48.7962
20.84 48.0362
21.0215 47.671
21.203 50.1759
21.3846 47.8207
21.5662 47.9054
21.7479 51.6946
21.9297 64.1765
22.1115 55.4364
22.2933 48.7222
22.4753 47.9326
22.6572 47.9403
22.8393 51.0883
23.0214 56.1762
23.2037 47.8412
23.3859 48.9263
23.5682 56.845
23.7505 47.1064
23.9329 44.3446
24.1154 43.2229
24.2979 42.6599
24.4805 42.092
24.6631 41.9931
24.8458 41.4319
25.0286 42.1204
25.2114 43.9059
25.3943 43.7378
25.5773 40.1257
25.7605 39.6925
25.9436 40.2131
26.1268 40.9957
26.31 39.4146
26.4933 40.0634
26.6767 41.6148
26.8601 39.6378
27.0437 38.0832
27.2272 37.7584
27.4109 37.723
27.5946 37.7352
27.7784 37.1175
27.9623 37.7595
28.1462 38.1215
28.3304 36.4555
28.5145 35.309
28.6987 34.9658
28.8829 34.8412
29.0673 34.0641
29.2517 33.7036
29.4361 33.5519
29.6207 32.6234
29.8053 32.3025
29.99 32.0837
30.1748 31.9349
30.3597 31.6018
30.5447 31.5839
30.7297 31.6668
30.915 31.0595
31.1002 30.5637
31.2855 30.3522
31.4708 30.2527
31.6563 29.854
31.8418 29.6068
32.0275 29.3759
32.2132 28.8602
32.399 28.3745
32.5848 27.995
32.7708 27.6462
32.9569 27.5272
33.143 27.2703
33.3293 26.9348
33.5158 26.5799
33.7022 26.1012
33.8887 25.8843
34.0753 25.4056
34.262 25.2792
34.4488 24.9285
34.6357 24.5302
34.8227 24.2664
35.0098 24.0875
35.1969 23.8067
35.3842 23.5425
35.5716 23.3395
35.759 23.0635
35.9468 22.7671
36.1345 22.5084
36.3222 22.2389
36.5101 22.0953
36.6981 21.6778
36.8861 21.4765
37.0743 21.1082
37.2626 20.8619
37.451 20.6192
37.6395 20.4589
37.8281 20.0478
38.0168 19.8783
38.2056 19.6004
38.3945 19.3281
38.5837 19.1208
38.7728 18.8694
38.9621 18.6659
39.1514 18.3931
39.3409 18.1112
39.5304 17.8472
39.7201 17.7771
39.9099 17.5428
40.0999 17.2429
40.2899 17.0645
40.48 16.8287
40.6703 16.6116
40.8607 16.3966
41.0512 16.2661
41.242 15.9423
41.4327 15.7692
41.6236 15.5248
41.8146 15.411
42.0057 15.1892
42.1969 14.9353
42.3882 14.8014
42.5797 14.5351
42.7713 14.395
42.963 14.2509
43.1549 14.01
43.3468 13.7935
43.5389 13.6246
43.7312 13.4207
43.9237 13.1665
44.1162 13.0528
44.3088 12.8299
44.5016 12.6889
44.6945 12.4896
44.8875 12.3862
45.0806 12.1506
45.2739 12.0174
45.4673 11.8532
45.6609 11.6906
45.8546 11.4788
46.0484 11.3269
46.2424 11.1279
46.4365 11.0357
46.631 10.8072
46.8254 10.6588
47.0199 10.4908
47.2146 10.3261
47.4095 10.2351
47.6044 10.0755
47.7996 9.95717
47.9948 9.75886
48.1902 9.65559
48.3858 9.50662
48.5815 9.36518
48.7774 9.25127
48.9734 9.0861
49.1696 8.92447
49.3661 8.82022
49.5626 8.66834
49.7592 8.53272
49.956 8.46155
50.153 8.3124
50.3501 8.17278
50.5474 8.05177
50.7448 7.90115
50.9424 7.81081
51.1402 7.70017
51.3381 7.53899
51.5362 7.40058
51.7344 7.28432
51.9328 7.18375
52.1316 7.05688
52.3304 6.97226
52.5293 6.81868
52.7284 6.75339
52.9276 6.63076
53.1271 6.52419
53.3267 6.41153
53.5265 6.31086
53.7264 6.16248
53.9266 6.0509
54.1269 5.98695
54.3274 5.87695
54.528 5.71993
54.7289 5.57592
54.9301 5.39481
55.1314 5.23839
55.3328 5.03597
55.5344 4.92165
55.7361 4.73179