File: XRD/Ni3Fe_FD0902.xy
TT I
1.27165 7.6697
1.45013 5.96152
1.62863 4.86413
1.80712 4.42686
1.98562 4.69079
2.16411 4.84406
2.34263 5.38728
2.52115 7.64193
2.69965 8.92955
2.87818 8.56751
3.05672 11.2524
3.23527 14.9569
3.4138 18.8719
3.59237 23.183
3.77094 26.159
3.9495 29.2628
4.12809 34.2812
4.30669 157.433
4.4853 58.6407
4.6639 54.6402
4.84253 66.6255
5.02118 85.4414
5.19981 329.727
5.37848 171.821
5.55716 100.039
5.73586 90.3514
5.91455 92.478
6.09328 4570.88
6.27201 79.5622
6.45075 66.7239
6.62952 61.3743
6.8083 57.2465
6.98711 54.971
7.16591 54.4967
7.34475 78.4287
7.5236 53.7586
7.70247 55.3319
7.88135 56.8034
8.06026 61.2829
8.23919 68.4242
8.41812 82.8671
8.59709 1183.51
8.77609 95.6693
8.9551 88.5248
9.13412 80.7099
9.31318 81.62
9.49226 83.2802
9.67134 94.8427
9.85047 98.3914
10.0296 322.92
10.2088 330.239
10.388 102.256
10.5672 535.17
10.7465 84.4504
10.9257 76.4366
11.105 70.3745
11.2844 68.0797
11.4637 63.5124
11.6431 62.4263
11.8225 61.3525
12.002 62.6576
12.1814 157.992
12.3609 67.3051
12.5405 63.2992
12.72 67.6797
12.8996 69.8685
13.0792 78.0028
13.2589 239.247
13.4386 113.784
13.6183 255.684
13.7981 91.57
13.9779 74.1691
14.1577 70.6298
14.3376 69.3749
14.5175 67.5734
14.6974 69.0978
14.8774 108.891
15.0574 136.93
15.2374 68.8458
15.4175 65.1211
15.5976 64.6827
15.7778 92.2578
15.958 148.265
16.1382 60.9364
16.3185 57.0474
16.4988 54.5215
16.6792 53.278
16.8596 54.1144
17.04 54.7149
17.2205 65.7522
17.401 68.0779
17.5815 58.0727
17.7622 60.0933
17.9428 71.9027
18.1237 140.199
18.3044 90.4289
18.4852 73.1713
18.666 59.298
18.8469 57.0005
19.0278 55.72
19.2088 58.24
19.3898 75.3571
19.5709 52.8355
19.752 52.2451
19.9332 55.1205
20.1144 69.5188
20.2957 64.0228
20.477 52.0048
20.6586 48.5695
20.84 48.0207
21.0215 47.8057
21.203 50.1466
21.3846 47.7306
21.5662 47.9477
21.7479 51.57
21.9297 64.0014
22.1115 55.5787
22.2933 48.5811
22.4753 47.8662
22.6572 48.0513
22.8393 51.0722
23.0214 56.3167
23.2037 47.9688
23.3859 48.9259
23.5682 56.7941
23.7505 47.1663
23.9329 44.3406
24.1154 43.3183
24.2979 42.6859
24.4805 42.2118
24.6631 41.9735
24.8458 41.3683
25.0286 42.1417
25.2114 43.9199
25.3943 43.88
25.5773 40.0086
25.7605 39.7283
25.9436 40.157
26.1268 40.9508
26.31 39.3104
26.4933 40.0553
26.6767 41.4874
26.8601 39.9087
27.0437 38.2028
27.2272 37.8163
27.4109 37.7208
27.5946 37.7263
27.7784 37.1406
27.9623 37.8222
28.1462 38.0838
28.3304 36.467
28.5145 35.3195
28.6987 35.0093
28.8829 34.8399
29.0673 34.0225
29.2517 33.7441
29.4361 33.4729
29.6207 32.5346
29.8053 32.2591
29.99 32.0472
30.1748 31.9865
30.3597 31.6872
30.5447 31.6927
30.7297 31.7347
30.915 31.1242
31.1002 30.635
31.2855 30.2418
31.4708 30.3879
31.6563 29.7883
31.8418 29.5617
32.0275 29.4767
32.2132 28.7892
32.399 28.4197
32.5848 27.9674
32.7708 27.6701
32.9569 27.5724
33.143 27.3636
33.3293 26.845
33.5158 26.5715
33.7022 26.2039
33.8887 25.8968
34.0753 25.5574
34.262 25.1809
34.4488 24.8296
34.6357 24.5777
34.8227 24.3379
35.0098 24.0594
35.1969 23.8532
35.3842 23.5804
35.5716 23.3604
35.759 23.0614
35.9468 22.7029
36.1345 22.5807
36.3222 22.2843
36.5101 22.0039
36.6981 21.7538
36.8861 21.4178
37.0743 21.1345
37.2626 20.9284
37.451 20.6167
37.6395 20.3759
37.8281 20.102
38.0168 19.8227
38.2056 19.6196
38.3945 19.2877
38.5837 19.1107
38.7728 18.8802
38.9621 18.6227
39.1514 18.3603
39.3409 18.1587
39.5304 17.9485
39.7201 17.7242
39.9099 17.4702
40.0999 17.2438
40.2899 17.1134
40.48 16.8225
40.6703 16.6117
40.8607 16.4411
41.0512 16.2519
41.242 15.9726
41.4327 15.7985
41.6236 15.5883
41.8146 15.3793
42.0057 15.1775
42.1969 14.9698
42.3882 14.7883
42.5797 14.5764
42.7713 14.3482
42.963 14.1975
43.1549 13.9903
43.3468 13.7654
43.5389 13.6138
43.7312 13.4058
43.9237 13.2392
44.1162 13.0114
44.3088 12.8887
44.5016 12.6992
44.6945 12.4895
44.8875 12.308
45.0806 12.1459
45.2739 11.9707
45.4673 11.838
45.6609 11.6617
45.8546 11.4926
46.0484 11.34
46.2424 11.1166
46.4365 11.0318
46.631 10.8427
46.8254 10.6871
47.0199 10.5198
47.2146 10.3792
47.4095 10.1685
47.6044 10.0936
47.7996 9.91089
47.9948 9.74266
48.1902 9.65339
48.3858 9.46261
48.5815 9.34649
48.7774 9.19995
48.9734 9.07775
49.1696 8.94436
49.3661 8.84204
49.5626 8.64412
49.7592 8.55446
49.956 8.42466
50.153 8.28181
50.3501 8.16221
50.5474 8.05457
50.7448 7.93626
50.9424 7.78871
51.1402 7.68642
51.3381 7.53571
51.5362 7.40899
51.7344 7.31131
51.9328 7.16647
52.1316 7.06798
52.3304 6.94623
52.5293 6.83782
52.7284 6.73153
52.9276 6.59128
53.1271 6.54015
53.3267 6.37388
53.5265 6.27975
53.7264 6.1621
53.9266 6.07049
54.1269 5.94739
54.3274 5.84764
54.528 5.75648
54.7289 5.56596
54.9301 5.39547
55.1314 5.27765
55.3328 5.08082
55.5344 4.88182
55.7361 4.74089