File: XRD/Ni3Fe_FD0945.xy
TT I
1.27165 7.52332
1.45013 6.00156
1.62863 5.21271
1.80712 5.01444
1.98562 4.87555
2.16411 5.18143
2.34263 5.92649
2.52115 7.37478
2.69965 8.25163
2.87818 9.17288
3.05672 11.3568
3.23527 15.4198
3.4138 18.6864
3.59237 23.1906
3.77094 25.3355
3.9495 29.3108
4.12809 33.8361
4.30669 84.4904
4.4853 51.7592
4.6639 54.6114
4.84253 68.2725
5.02118 85.8794
5.19981 371.044
5.37848 199.315
5.55716 101.127
5.73586 91.8537
5.91455 93.9586
6.09328 4611.45
6.27201 78.5876
6.45075 69.8955
6.62952 62.6206
6.8083 59.1936
6.98711 54.8139
7.16591 55.8379
7.34475 62.9951
7.5236 53.521
7.70247 56.622
7.88135 56.4214
8.06026 61.7958
8.23919 68.5022
8.41812 82.187
8.59709 1203.94
8.77609 95.6063
8.9551 89.0495
9.13412 82.1086
9.31318 84.5574
9.49226 84.1785
9.67134 94.4142
9.85047 100.923
10.0296 330.453
10.2088 331.152
10.388 103.337
10.5672 548.676
10.7465 84.619
10.9257 76.7532
11.105 70.2922
11.2844 67.1436
11.4637 63.6235
11.6431 62.4959
11.8225 61.8881
12.002 63.521
12.1814 160.121
12.3609 65.082
12.5405 64.2641
12.72 66.8411
12.8996 70.7274
13.0792 79.2501
13.2589 245.978
13.4386 114.68
13.6183 259.131
13.7981 91.3602
13.9779 74.5157
14.1577 70.6407
14.3376 68.7407
14.5175 67.6885
14.6974 69.7247
14.8774 110.96
15.0574 136.305
15.2374 68.1065
15.4175 65.2344
15.5976 64.8496
15.7778 94.2523
15.958 144.587
16.1382 60.2166
16.3185 56.7048
16.4988 54.5322
16.6792 53.3906
16.8596 53.7978
17.04 55.0927
17.2205 66.3638
17.401 67.491
17.5815 58.2104
17.7622 60.3433
17.9428 72.4076
18.1237 141.014
18.3044 90.687
18.4852 72.7932
18.666 59.2064
18.8469 57.066
19.0278 55.8755
19.2088 58.134
19.3898 74.9804
19.5709 53.1849
19.752 52.2086
19.9332 55.1602
20.1144 69.4572
20.2957 64.5041
20.477 51.8536
20.6586 48.8421
20.84 48.1398
21.0215 47.5704
21.203 50.1632
21.3846 48.0636
21.5662 48.1942
21.7479 51.9744
21.9297 64.244
22.1115 55.486
22.2933 48.7154
22.4753 47.8753
22.6572 48.1129
22.8393 51.3414
23.0214 55.9599
23.2037 47.8432
23.3859 49.064
23.5682 57.1626
23.7505 47.058
23.9329 44.4922
24.1154 43.285
24.2979 42.7218
24.4805 42.2939
24.6631 42.1685
24.8458 41.6571
25.0286 42.2848
25.2114 44.0668
25.3943 43.8372
25.5773 40.1079
25.7605 39.5941
25.9436 40.2397
26.1268 41.0976
26.31 39.3786
26.4933 40.1595
26.6767 41.578
26.8601 39.6823
27.0437 38.1807
27.2272 37.8961
27.4109 37.7551
27.5946 37.8655
27.7784 37.243
27.9623 37.8838
28.1462 38.061
28.3304 36.3922
28.5145 35.3265
28.6987 35.0219
28.8829 34.9476
29.0673 34.0385
29.2517 33.7218
29.4361 33.5301
29.6207 32.5838
29.8053 32.3523
29.99 31.9732
30.1748 31.8859
30.3597 31.6787
30.5447 31.7378
30.7297 31.779
30.915 31.1029
31.1002 30.6101
31.2855 30.2874
31.4708 30.3266
31.6563 29.8369
31.8418 29.6013
32.0275 29.4118
32.2132 28.8895
32.399 28.3559
32.5848 28.0504
32.7708 27.7426
32.9569 27.4484
33.143 27.3288
33.3293 26.8742
33.5158 26.5727
33.7022 26.1513
33.8887 25.8635
34.0753 25.5398
34.262 25.1982
34.4488 24.7827
34.6357 24.547
34.8227 24.2172
35.0098 24.1473
35.1969 23.8202
35.3842 23.6206
35.5716 23.3128
35.759 23.048
35.9468 22.6939
36.1345 22.5245
36.3222 22.2792
36.5101 22.0143
36.6981 21.7144
36.8861 21.457
37.0743 21.1382
37.2626 20.9054
37.451 20.6051
37.6395 20.4768
37.8281 20.0846
38.0168 19.8686
38.2056 19.6166
38.3945 19.3543
38.5837 19.0939
38.7728 18.8473
38.9621 18.6194
39.1514 18.4083
39.3409 18.1791
39.5304 17.9536
39.7201 17.7631
39.9099 17.5651
40.0999 17.3051
40.2899 17.0153
40.48 16.7589
40.6703 16.6476
40.8607 16.4758
41.0512 16.2278
41.242 15.9366
41.4327 15.7741
41.6236 15.5535
41.8146 15.3834
42.0057 15.1324
42.1969 14.9428
42.3882 14.8077
42.5797 14.5303
42.7713 14.3814
42.963 14.1627
43.1549 13.9938
43.3468 13.7512
43.5389 13.6437
43.7312 13.3618
43.9237 13.1609
44.1162 13.0453
44.3088 12.8361
44.5016 12.6921
44.6945 12.5204
44.8875 12.2914
45.0806 12.1697
45.2739 11.9897
45.4673 11.8033
45.6609 11.6642
45.8546 11.5137
46.0484 11.3621
46.2424 11.1828
46.4365 11.0371
46.631 10.8568
46.8254 10.6672
47.0199 10.527
47.2146 10.3745
47.4095 10.2475
47.6044 10.0614
47.7996 9.87619
47.9948 9.77353
48.1902 9.64014
48.3858 9.49873
48.5815 9.35651
48.7774 9.22125
48.9734 9.0729
49.1696 8.91896
49.3661 8.79177
49.5626 8.65846
49.7592 8.54436
49.956 8.40451
50.153 8.29453
50.3501 8.19489
50.5474 8.02109
50.7448 7.94606
50.9424 7.82553
51.1402 7.68309
51.3381 7.54091
51.5362 7.42905
51.7344 7.31514
51.9328 7.1644
52.1316 7.07077
52.3304 6.97627
52.5293 6.85428
52.7284 6.7372
52.9276 6.62357
53.1271 6.56362
53.3267 6.35426
53.5265 6.27037
53.7264 6.18675
53.9266 6.07984
54.1269 5.94018
54.3274 5.84886
54.528 5.71948
54.7289 5.57301
54.9301 5.42164
55.1314 5.26744
55.3328 5.00035
55.5344 4.88077
55.7361 4.74736