File: XRD/Ni3Fe_FD0875.xy
TT I
1.27165 7.43737
1.45013 5.39759
1.62863 5.00651
1.80712 4.68777
1.98562 4.88057
2.16411 5.01027
2.34263 4.98258
2.52115 7.76875
2.69965 9.1003
2.87818 8.22417
3.05672 11.0286
3.23527 15.6139
3.4138 19.1326
3.59237 24.4275
3.77094 26.2304
3.9495 29.7794
4.12809 34.5575
4.30669 254.634
4.4853 68.5896
4.6639 54.9276
4.84253 65.9538
5.02118 84.4494
5.19981 288.246
5.37848 178.919
5.55716 99.8782
5.73586 90.2119
5.91455 91.0892
6.09328 4349.46
6.27201 81.7954
6.45075 66.3471
6.62952 61.8743
6.8083 58.2463
6.98711 55.3759
7.16591 55.0082
7.34475 98.343
7.5236 54.2635
7.70247 55.7567
7.88135 57.0423
8.06026 61.5386
8.23919 68.2632
8.41812 83.4413
8.59709 1103.09
8.77609 97.6496
8.9551 91.7228
9.13412 80.5994
9.31318 80.9135
9.49226 83.0694
9.67134 98.366
9.85047 98.2871
10.0296 294.594
10.2088 408.863
10.388 102.857
10.5672 523.306
10.7465 85.1779
10.9257 77.868
11.105 71.0533
11.2844 70.0644
11.4637 63.9684
11.6431 62.8793
11.8225 61.7781
12.002 62.3429
12.1814 149.15
12.3609 71.0232
12.5405 63.7255
12.72 69.5558
12.8996 69.7528
13.0792 76.9614
13.2589 223.063
13.4386 123.676
13.6183 239.68
13.7981 96.0463
13.9779 74.4931
14.1577 71.569
14.3376 70.8555
14.5175 67.7101
14.6974 69.2101
14.8774 104.565
15.0574 146.817
15.2374 70.4349
15.4175 65.3254
15.5976 64.6707
15.7778 89.3584
15.958 155.813
16.1382 62.1081
16.3185 58.3134
16.4988 54.9257
16.6792 53.6333
16.8596 54.5989
17.04 54.9021
17.2205 64.9425
17.401 69.865
17.5815 58.2925
17.7622 60.3662
17.9428 70.6749
18.1237 138.612
18.3044 88.8319
18.4852 76.6917
18.666 59.4716
18.8469 57.2896
19.0278 56.273
19.2088 58.3659
19.3898 76.1865
19.5709 53.5664
19.752 52.3891
19.9332 55.0764
20.1144 69.4717
20.2957 63.354
20.477 53.167
20.6586 49.044
20.84 48.0667
21.0215 47.7846
21.203 50.3065
21.3846 48.3819
21.5662 47.931
21.7479 51.431
21.9297 63.8849
22.1115 55.5414
22.2933 49.2493
22.4753 48.2449
22.6572 47.9927
22.8393 50.9212
23.0214 56.6738
23.2037 48.1322
23.3859 48.829
23.5682 56.5625
23.7505 47.6476
23.9329 44.5673
24.1154 43.4784
24.2979 42.9066
24.4805 42.1909
24.6631 42.2084
24.8458 41.6241
25.0286 42.1833
25.2114 44.0991
25.3943 44.2352
25.5773 40.4152
25.7605 39.8783
25.9436 40.2514
26.1268 41.0661
26.31 39.6357
26.4933 40.129
26.6767 41.6105
26.8601 39.9969
27.0437 38.3543
27.2272 37.978
27.4109 37.8585
27.5946 37.8096
27.7784 37.2989
27.9623 37.8673
28.1462 38.3679
28.3304 36.707
28.5145 35.4173
28.6987 35.15
28.8829 34.9627
29.0673 34.2062
29.2517 33.8476
29.4361 33.7542
29.6207 32.6746
29.8053 32.3556
29.99 32.2905
30.1748 32.0896
30.3597 31.8493
30.5447 31.7007
30.7297 31.839
30.915 31.084
31.1002 30.6705
31.2855 30.4336
31.4708 30.3735
31.6563 29.8785
31.8418 29.7268
32.0275 29.572
32.2132 29.1245
32.399 28.6467
32.5848 28.2088
32.7708 27.7677
32.9569 27.729
33.143 27.3709
33.3293 27.0721
33.5158 26.7022
33.7022 26.2766
33.8887 25.9228
34.0753 25.6353
34.262 25.3113
34.4488 24.9635
34.6357 24.6813
34.8227 24.4589
35.0098 24.2318
35.1969 23.8492
35.3842 23.7379
35.5716 23.4656
35.759 23.2628
35.9468 22.774
36.1345 22.5535
36.3222 22.3727
36.5101 22.1422
36.6981 21.8849
36.8861 21.4735
37.0743 21.254
37.2626 20.9831
37.451 20.6857
37.6395 20.5749
37.8281 20.2373
38.0168 19.943
38.2056 19.7453
38.3945 19.4248
38.5837 19.1615
38.7728 18.9623
38.9621 18.7277
39.1514 18.4845
39.3409 18.2368
39.5304 18.0543
39.7201 17.8625
39.9099 17.5821
40.0999 17.3756
40.2899 17.1873
40.48 16.9067
40.6703 16.736
40.8607 16.5577
41.0512 16.2582
41.242 16.0939
41.4327 15.8319
41.6236 15.6629
41.8146 15.457
42.0057 15.2327
42.1969 15.0436
42.3882 14.8347
42.5797 14.6312
42.7713 14.4375
42.963 14.2304
43.1549 14.0469
43.3468 13.8643
43.5389 13.7112
43.7312 13.4962
43.9237 13.3325
44.1162 13.0913
44.3088 12.9152
44.5016 12.7515
44.6945 12.5528
44.8875 12.3728
45.0806 12.2652
45.2739 12.0878
45.4673 11.8833
45.6609 11.7208
45.8546 11.577
46.0484 11.4446
46.2424 11.2468
46.4365 11.1197
46.631 10.9085
46.8254 10.7105
47.0199 10.5773
47.2146 10.4714
47.4095 10.2732
47.6044 10.1077
47.7996 9.94897
47.9948 9.8393
48.1902 9.6854
48.3858 9.5522
48.5815 9.446
48.7774 9.3114
48.9734 9.15522
49.1696 9.02014
49.3661 8.83476
49.5626 8.70217
49.7592 8.58216
49.956 8.45834
50.153 8.32309
50.3501 8.19238
50.5474 8.08903
50.7448 8.0116
50.9424 7.81734
51.1402 7.7099
51.3381 7.57804
51.5362 7.45656
51.7344 7.36463
51.9328 7.23975
52.1316 7.0914
52.3304 7.01234
52.5293 6.88802
52.7284 6.78587
52.9276 6.65163
53.1271 6.55993
53.3267 6.46377
53.5265 6.32356
53.7264 6.22593
53.9266 6.10723
54.1269 6.02281
54.3274 5.88259
54.528 5.75359
54.7289 5.59173
54.9301 5.40403
55.1314 5.3032
55.3328 5.1094
55.5344 4.91191
55.7361 4.77444