File: XRD/Ni3Fe_FD0570.xy
TT I
1.27165 7.90059
1.45013 6.03942
1.62863 5.32274
1.80712 4.96792
1.98562 5.61688
2.16411 4.72667
2.34263 5.16144
2.52115 7.04556
2.69965 7.74637
2.87818 9.15248
3.05672 11.4871
3.23527 15.0662
3.4138 19.6883
3.59237 23.5777
3.77094 25.8356
3.9495 30.1478
4.12809 34.5006
4.30669 136.649
4.4853 58.1676
4.6639 55.9148
4.84253 67.9905
5.02118 88.7116
5.19981 453.155
5.37848 197.745
5.55716 103.509
5.73586 93.8169
5.91455 97.1551
6.09328 4485.78
6.27201 82.5341
6.45075 68.1163
6.62952 62.7105
6.8083 59.0676
6.98711 55.8374
7.16591 55.5512
7.34475 75.7713
7.5236 54.5566
7.70247 56.4153
7.88135 57.931
8.06026 62.6433
8.23919 69.9868
8.41812 85.4732
8.59709 1229.62
8.77609 99.5739
8.9551 89.7961
9.13412 82.9435
9.31318 83.6883
9.49226 85.0027
9.67134 96.6546
9.85047 101.126
10.0296 380.989
10.2088 371.185
10.388 106.199
10.5672 523.255
10.7465 86.798
10.9257 78.2059
11.105 72.0867
11.2844 69.4926
11.4637 65.0536
11.6431 64.0803
11.8225 62.7467
12.002 64.7997
12.1814 155.856
12.3609 68.3893
12.5405 64.7759
12.72 68.9742
12.8996 71.4964
13.0792 80.6951
13.2589 250.784
13.4386 121.618
13.6183 256.54
13.7981 96.7002
13.9779 76.3547
14.1577 72.5595
14.3376 71.3306
14.5175 69.566
14.6974 71.2201
14.8774 115.972
15.0574 144.584
15.2374 70.4195
15.4175 66.7643
15.5976 66.4172
15.7778 99.258
15.958 151.535
16.1382 62.3803
16.3185 58.4196
16.4988 55.8578
16.6792 54.9508
16.8596 55.6788
17.04 56.1898
17.2205 67.6816
17.401 70.8771
17.5815 59.5365
17.7622 61.8279
17.9428 75.6859
18.1237 141.825
18.3044 91.8205
18.4852 76.9925
18.666 60.8368
18.8469 58.4842
19.0278 57.2142
19.2088 60.1793
19.3898 76.1777
19.5709 54.71
19.752 53.8928
19.9332 56.9182
20.1144 70.3707
20.2957 64.2655
20.477 53.5341
20.6586 49.7484
20.84 49.2389
21.0215 49.0041
21.203 51.2122
21.3846 49.3058
21.5662 49.3521
21.7479 53.5216
21.9297 65.1716
22.1115 56.2487
22.2933 50.08
22.4753 49.051
22.6572 49.4161
22.8393 52.5569
23.0214 57.333
23.2037 49.1426
23.3859 50.3768
23.5682 57.2488
23.7505 48.4179
23.9329 45.4421
24.1154 44.3981
24.2979 43.6937
24.4805 43.1417
24.6631 43.1735
24.8458 42.5561
25.0286 43.294
25.2114 44.9399
25.3943 44.8071
25.5773 41.1955
25.7605 40.7153
25.9436 41.1254
26.1268 42.029
26.31 40.3263
26.4933 41.0892
26.6767 42.3366
26.8601 40.6643
27.0437 39.1781
27.2272 38.7854
27.4109 38.5859
27.5946 38.5909
27.7784 37.9863
27.9623 38.706
28.1462 39.0441
28.3304 37.3806
28.5145 36.1161
28.6987 35.8983
28.8829 35.689
29.0673 34.8676
29.2517 34.5639
29.4361 34.2896
29.6207 33.3442
29.8053 32.9486
29.99 32.7047
30.1748 32.5729
30.3597 32.5024
30.5447 32.3489
30.7297 32.408
30.915 31.8164
31.1002 31.3055
31.2855 31.1538
31.4708 31.1313
31.6563 30.568
31.8418 30.2682
32.0275 30.1673
32.2132 29.5323
32.399 29.0892
32.5848 28.585
32.7708 28.2971
32.9569 28.1988
33.143 27.9459
33.3293 27.6161
33.5158 27.1717
33.7022 26.8139
33.8887 26.5502
34.0753 26.1049
34.262 25.828
34.4488 25.4703
34.6357 25.1388
34.8227 24.8441
35.0098 24.6248
35.1969 24.3333
35.3842 24.039
35.5716 23.9305
35.759 23.519
35.9468 23.275
36.1345 23.0554
36.3222 22.8393
36.5101 22.6055
36.6981 22.2129
36.8861 21.9774
37.0743 21.6372
37.2626 21.4179
37.451 21.1528
37.6395 20.9627
37.8281 20.554
38.0168 20.3129
38.2056 20.0556
38.3945 19.8149
38.5837 19.5618
38.7728 19.2905
38.9621 19.0538
39.1514 18.798
39.3409 18.5979
39.5304 18.3535
39.7201 18.1737
39.9099 17.9782
40.0999 17.7046
40.2899 17.4989
40.48 17.2132
40.6703 17.0073
40.8607 16.8254
41.0512 16.5796
41.242 16.3493
41.4327 16.185
41.6236 15.9563
41.8146 15.7214
42.0057 15.499
42.1969 15.3208
42.3882 15.1284
42.5797 14.9159
42.7713 14.7641
42.963 14.5087
43.1549 14.3058
43.3468 14.0689
43.5389 13.9112
43.7312 13.7015
43.9237 13.5425
44.1162 13.3289
44.3088 13.1871
44.5016 12.9545
44.6945 12.7414
44.8875 12.6342
45.0806 12.4055
45.2739 12.2466
45.4673 12.1053
45.6609 11.925
45.8546 11.7736
46.0484 11.6287
46.2424 11.417
46.4365 11.293
46.631 11.0786
46.8254 10.9121
47.0199 10.7674
47.2146 10.5666
47.4095 10.453
47.6044 10.2989
47.7996 10.1486
47.9948 9.97483
48.1902 9.84619
48.3858 9.70948
48.5815 9.56712
48.7774 9.41924
48.9734 9.31633
49.1696 9.16634
49.3661 9.00437
49.5626 8.88074
49.7592 8.71244
49.956 8.57992
50.153 8.45862
50.3501 8.31441
50.5474 8.23243
50.7448 8.07346
50.9424 7.99136
51.1402 7.84957
51.3381 7.70116
51.5362 7.61255
51.7344 7.47496
51.9328 7.34134
52.1316 7.21318
52.3304 7.10546
52.5293 6.99861
52.7284 6.84016
52.9276 6.73252
53.1271 6.69198
53.3267 6.50805
53.5265 6.41562
53.7264 6.28824
53.9266 6.19985
54.1269 6.06877
54.3274 5.97386
54.528 5.84186
54.7289 5.70652
54.9301 5.55461
55.1314 5.41195
55.3328 5.21702
55.5344 4.94304
55.7361 4.85382