File: XRD/Ni3Fe_FD0134.xy
TT I
1.27165 7.84319
1.45013 6.90695
1.62863 5.74067
1.80712 5.49427
1.98562 5.55198
2.16411 4.73087
2.34263 4.02661
2.52115 4.31163
2.69965 6.00467
2.87818 8.1374
3.05672 10.9673
3.23527 15.1433
3.4138 18.9684
3.59237 22.0846
3.77094 25.0684
3.9495 28.3908
4.12809 32.8059
4.30669 37.2907
4.4853 44.6799
4.6639 53.2944
4.84253 65.7578
5.02118 90.9587
5.19981 566.21
5.37848 483.173
5.55716 107.81
5.73586 95.3544
5.91455 105.962
6.09328 2590.18
6.27201 89.8986
6.45075 66.3854
6.62952 59.2994
6.8083 55.2593
6.98711 52.8116
7.16591 51.9904
7.34475 51.7923
7.5236 56.1569
7.70247 53.3893
7.88135 55.8029
8.06026 59.9543
8.23919 67.2421
8.41812 83.3686
8.59709 857.994
8.77609 117.698
8.9551 85.0198
9.13412 80.9193
9.31318 87.3993
9.49226 82.7975
9.67134 87.9157
9.85047 97.9358
10.0296 552.145
10.2088 1024.27
10.388 104.066
10.5672 315.492
10.7465 90.8086
10.9257 75.2605
11.105 69.5914
11.2844 65.3764
11.4637 62.5634
11.6431 61.4099
11.8225 60.5943
12.002 65.6452
12.1814 114.183
12.3609 76.6178
12.5405 62.6483
12.72 64.4898
12.8996 69.2002
13.0792 78.6393
13.2589 199.654
13.4386 222.059
13.6183 187.005
13.7981 161.235
13.9779 75.4568
14.1577 74.2466
14.3376 68.4264
14.5175 67.8578
14.6974 68.947
14.8774 120.538
15.0574 205.731
15.2374 68.6929
15.4175 65.6968
15.5976 65.2123
15.7778 107.154
15.958 183.566
16.1382 61.6085
16.3185 56.7157
16.4988 54.58
16.6792 53.607
16.8596 53.8712
17.04 54.9362
17.2205 64.7598
17.401 81.2519
17.5815 58.4937
17.7622 60.8603
17.9428 83.615
18.1237 111.476
18.3044 87.7953
18.4852 95.961
18.666 60.4032
18.8469 57.9234
19.0278 56.134
19.2088 61.5111
19.3898 67.7887
19.5709 56.3096
19.752 52.8719
19.9332 57.7639
20.1144 66.1338
20.2957 60.6872
20.477 59.5159
20.6586 49.4042
20.84 48.6671
21.0215 48.7412
21.203 49.3578
21.3846 50.2814
21.5662 48.7473
21.7479 53.7263
21.9297 61.0611
22.1115 56.028
22.2933 52.3075
22.4753 48.5511
22.6572 48.7151
22.8393 51.5761
23.0214 56.6213
23.2037 49.5624
23.3859 51.5032
23.5682 53.013
23.7505 53.4592
23.9329 45.3704
24.1154 44.1908
24.2979 43.4303
24.4805 42.8229
24.6631 42.8099
24.8458 42.1273
25.0286 42.7961
25.2114 44.2752
25.3943 44.5491
25.5773 41.6398
25.7605 40.5691
25.9436 40.8422
26.1268 41.4053
26.31 40.7086
26.4933 40.6535
26.6767 41.7212
26.8601 41.1145
27.0437 39.3511
27.2272 38.7725
27.4109 38.2407
27.5946 38.5046
27.7784 38.3548
27.9623 38.2032
28.1462 39.089
28.3304 37.853
28.5145 36.0594
28.6987 35.766
28.8829 35.2948
29.0673 34.8941
29.2517 34.3819
29.4361 34.0447
29.6207 33.4197
29.8053 32.8927
29.99 32.5465
30.1748 32.3739
30.3597 32.39
30.5447 32.1475
30.7297 32.0631
30.915 31.9905
31.1002 31.2657
31.2855 30.9583
31.4708 30.7407
31.6563 30.749
31.8418 30.2643
32.0275 29.986
32.2132 29.5585
32.399 28.9935
32.5848 28.4583
32.7708 28.2746
32.9569 28.1036
33.143 27.7615
33.3293 27.4244
33.5158 27.1957
33.7022 26.6032
33.8887 26.3703
34.0753 26.1151
34.262 25.6375
34.4488 25.2922
34.6357 25.0133
34.8227 24.6992
35.0098 24.5223
35.1969 24.2153
35.3842 23.9938
35.5716 23.8103
35.759 23.4987
35.9468 23.2313
36.1345 22.9861
36.3222 22.686
36.5101 22.4843
36.6981 22.2229
36.8861 21.8882
37.0743 21.5951
37.2626 21.2429
37.451 20.9832
37.6395 20.878
37.8281 20.5828
38.0168 20.2198
38.2056 20.0379
38.3945 19.7136
38.5837 19.4372
38.7728 19.2106
38.9621 18.9464
39.1514 18.7526
39.3409 18.5259
39.5304 18.257
39.7201 18.0099
39.9099 17.8483
40.0999 17.6467
40.2899 17.387
40.48 17.1341
40.6703 16.9169
40.8607 16.7547
41.0512 16.5613
41.242 16.336
41.4327 16.1142
41.6236 15.7936
41.8146 15.6798
42.0057 15.4801
42.1969 15.2151
42.3882 15.0556
42.5797 14.8509
42.7713 14.6555
42.963 14.418
43.1549 14.2267
43.3468 14.0494
43.5389 13.8531
43.7312 13.6493
43.9237 13.485
44.1162 13.2969
44.3088 13.0552
44.5016 12.9172
44.6945 12.7449
44.8875 12.5661
45.0806 12.3698
45.2739 12.2139
45.4673 12.0005
45.6609 11.8988
45.8546 11.6859
46.0484 11.5133
46.2424 11.4011
46.4365 11.2017
46.631 10.9935
46.8254 10.8565
47.0199 10.7005
47.2146 10.5753
47.4095 10.4001
47.6044 10.2444
47.7996 10.1039
47.9948 9.96267
48.1902 9.81581
48.3858 9.66408
48.5815 9.51803
48.7774 9.40317
48.9734 9.28527
49.1696 9.13086
49.3661 8.97412
49.5626 8.80987
49.7592 8.67268
49.956 8.60339
50.153 8.42791
50.3501 8.2912
50.5474 8.17592
50.7448 8.0682
50.9424 7.95407
51.1402 7.80056
51.3381 7.66242
51.5362 7.60127
51.7344 7.45621
51.9328 7.28545
52.1316 7.15929
52.3304 7.07626
52.5293 6.96206
52.7284 6.83133
52.9276 6.74235
53.1271 6.63123
53.3267 6.57011
53.5265 6.36484
53.7264 6.30001
53.9266 6.19179
54.1269 6.07858
54.3274 5.90909
54.528 5.72905
54.7289 5.59342
54.9301 5.4138
55.1314 5.24405
55.3328 5.04965
55.5344 4.84117
55.7361 4.67242