File: XRD/Ni3Fe_FD0048.xy
TT I
1.27165 33.1835
1.45013 28.1761
1.62863 23.3181
1.80712 21.537
1.98562 20.9022
2.16411 20.6292
2.34263 21.3072
2.52115 22.2468
2.69965 26.5954
2.87818 36.771
3.05672 64.0942
3.23527 68.0691
3.4138 34.8538
3.59237 27.2459
3.77094 25.5553
3.9495 26.297
4.12809 29.4808
4.30669 37.6338
4.4853 37.1242
4.6639 41.757
4.84253 53.8655
5.02118 102.235
5.19981 303.218
5.37848 3290.91
5.55716 152.369
5.73586 102.5
5.91455 117.366
6.09328 552.21
6.27201 230.966
6.45075 64.2373
6.62952 46.7962
6.8083 41.2968
6.98711 40.5486
7.16591 43.3453
7.34475 38.8765
7.5236 56.7684
7.70247 43.7351
7.88135 38.1238
8.06026 40.3111
8.23919 45.5602
8.41812 58.1165
8.59709 181.932
8.77609 406.837
8.9551 74.9223
9.13412 63.9967
9.31318 334.706
9.49226 57.8048
9.67134 56.473
9.85047 62.5876
10.0296 114.982
10.2088 670.967
10.388 103.144
10.5672 96.9357
10.7465 210.334
10.9257 51.3568
11.105 44.3904
11.2844 42.2313
11.4637 39.4396
11.6431 38.6358
11.8225 39.0965
12.002 112.99
12.1814 49.8286
12.3609 88.4323
12.5405 42.2179
12.72 39.5391
12.8996 40.8688
13.0792 46.7595
13.2589 68.3787
13.4386 187.116
13.6183 81.5653
13.7981 186.252
13.9779 55.3738
14.1577 61.4307
14.3376 46.8881
14.5175 41.306
14.6974 40.9633
14.8774 47.9169
15.0574 74.2898
15.2374 63.4619
15.4175 41.7537
15.5976 40.337
15.7778 45.1724
15.958 62.6014
16.1382 84.8858
16.3185 38.4604
16.4988 34.8035
16.6792 33.5726
16.8596 33.6254
17.04 42.713
17.2205 35.4279
17.401 40.2126
17.5815 40.1594
17.7622 37.7256
17.9428 40.8694
18.1237 45.3762
18.3044 85.9324
18.4852 55.8424
18.666 50.7083
18.8469 36.9937
19.0278 35.1744
19.2088 35.4601
19.3898 46.6646
19.5709 45.3392
19.752 34.3388
19.9332 33.1162
20.1144 34.0008
20.2957 43.282
20.477 39.3078
20.6586 33.7214
20.84 34.6778
21.0215 30.3072
21.203 30.119
21.3846 30.9334
21.5662 31.679
21.7479 30.8747
21.9297 32.1247
22.1115 41.5906
22.2933 38.0262
22.4753 32.151
22.6572 30.5011
22.8393 32.0106
23.0214 31.8513
23.2037 38.0004
23.3859 31.847
23.5682 33.9512
23.7505 35.7649
23.9329 32.5297
24.1154 29.5076
24.2979 27.9386
24.4805 27.1731
24.6631 27.5017
24.8458 27.5575
25.0286 26.881
25.2114 27.0429
25.3943 28.781
25.5773 29.4237
25.7605 26.6074
25.9436 26.8507
26.1268 25.909
26.31 26.9691
26.4933 26.2445
26.6767 25.8905
26.8601 27.6668
27.0437 28.0026
27.2272 25.5083
27.4109 25.0262
27.5946 24.9929
27.7784 25.1761
27.9623 24.5195
28.1462 25.5081
28.3304 26.1399
28.5145 24.971
28.6987 23.8366
28.8829 23.074
29.0673 22.8446
29.2517 22.7098
29.4361 22.1394
29.6207 22.0623
29.8053 21.7852
29.99 21.3037
30.1748 21.5936
30.3597 21.1219
30.5447 21.1712
30.7297 20.8973
30.915 21.1348
31.1002 21.4175
31.2855 20.5791
31.4708 20.2302
31.6563 20.3368
31.8418 20.4181
32.0275 19.9134
32.2132 20.1225
32.399 19.6194
32.5848 19.177
32.7708 18.8634
32.9569 18.7119
33.143 18.5917
33.3293 18.242
33.5158 18.3486
33.7022 18.0399
33.8887 17.6781
34.0753 17.4729
34.262 17.2194
34.4488 17.0173
34.6357 16.8619
34.8227 16.609
35.0098 16.4331
35.1969 16.2512
35.3842 16.0464
35.5716 16.0292
35.759 16.053
35.9468 15.8048
36.1345 15.5871
36.3222 15.3528
36.5101 15.3214
36.6981 15.0358
36.8861 14.9476
37.0743 14.6912
37.2626 14.4884
37.451 14.2767
37.6395 14.2468
37.8281 13.9397
38.0168 13.7356
38.2056 13.6506
38.3945 13.3664
38.5837 13.2597
38.7728 13.1569
38.9621 12.9593
39.1514 12.8013
39.3409 12.61
39.5304 12.469
39.7201 12.3705
39.9099 12.2258
40.0999 12.0595
40.2899 11.9456
40.48 11.7103
40.6703 11.619
40.8607 11.542
41.0512 11.3863
41.242 11.2035
41.4327 11.0895
41.6236 10.942
41.8146 10.841
42.0057 10.6754
42.1969 10.5243
42.3882 10.3863
42.5797 10.261
42.7713 10.1312
42.963 9.97076
43.1549 9.84655
43.3468 9.69209
43.5389 9.6101
43.7312 9.4868
43.9237 9.36517
44.1162 9.20248
44.3088 9.11245
44.5016 8.97404
44.6945 8.88335
44.8875 8.73785
45.0806 8.66133
45.2739 8.5346
45.4673 8.40332
45.6609 8.30165
45.8546 8.19288
46.0484 8.05781
46.2424 7.96419
46.4365 7.84774
46.631 7.7353
46.8254 7.63128
47.0199 7.52738
47.2146 7.43777
47.4095 7.32254
47.6044 7.17844
47.7996 7.11053
47.9948 6.98718
48.1902 6.88222
48.3858 6.79805
48.5815 6.74714
48.7774 6.60829
48.9734 6.53698
49.1696 6.40454
49.3661 6.33563
49.5626 6.23701
49.7592 6.13959
49.956 6.07969
50.153 5.97694
50.3501 5.89232
50.5474 5.82121
50.7448 5.74934
50.9424 5.65589
51.1402 5.58155
51.3381 5.45896
51.5362 5.41562
51.7344 5.30111
51.9328 5.20758
52.1316 5.14955
52.3304 5.06013
52.5293 4.99695
52.7284 4.9152
52.9276 4.82217
53.1271 4.7513
53.3267 4.65386
53.5265 4.58579
53.7264 4.49515
53.9266 4.43992
54.1269 4.33999
54.3274 4.27399
54.528 4.11642
54.7289 3.96621
54.9301 3.8493
55.1314 3.76454
55.3328 3.58964
55.5344 3.49274
55.7361 3.37496