File: XRD/Ni3Fe_FD0306.xy
TT I
1.27165 7.63219
1.45013 5.90367
1.62863 5.67171
1.80712 4.84317
1.98562 5.01352
2.16411 4.94002
2.34263 4.96652
2.52115 5.68291
2.69965 7.14446
2.87818 8.29931
3.05672 11.4195
3.23527 15.3817
3.4138 19.5017
3.59237 25.5083
3.77094 26.7947
3.9495 31.2765
4.12809 36.3412
4.30669 322.267
4.4853 77.5831
4.6639 56.6703
4.84253 69.055
5.02118 90.3999
5.19981 484.152
5.37848 254.563
5.55716 106.708
5.73586 95.5634
5.91455 99.5577
6.09328 3693.11
6.27201 90.331
6.45075 70.0177
6.62952 66.1545
6.8083 61.6508
6.98711 57.7477
7.16591 58.1755
7.34475 116.293
7.5236 56.9105
7.70247 58.6322
7.88135 60.0684
8.06026 64.3742
8.23919 71.996
8.41812 89.6982
8.59709 970.217
8.77609 107.559
8.9551 98.2313
9.13412 84.6005
9.31318 85.4727
9.49226 87.0458
9.67134 106.317
9.85047 103.451
10.0296 367.899
10.2088 591.248
10.388 110.709
10.5672 441.908
10.7465 90.5223
10.9257 82.14
11.105 74.6252
11.2844 74.4533
11.4637 67.3685
11.6431 65.8103
11.8225 64.7294
12.002 65.9361
12.1814 134.872
12.3609 77.9573
12.5405 67.2739
12.72 74.4841
12.8996 73.3047
13.0792 81.5407
13.2589 208.817
13.4386 150.368
13.6183 210.459
13.7981 112.29
13.9779 78.4255
14.1577 75.7248
14.3376 75.5211
14.5175 71.1627
14.6974 72.9309
14.8774 107.96
15.0574 174.527
15.2374 75.1453
15.4175 68.6561
15.5976 68.056
15.7778 94.4066
15.958 182.557
16.1382 66.5447
16.3185 61.5096
16.4988 57.7864
16.6792 56.4828
16.8596 57.4059
17.04 57.9169
17.2205 66.8273
17.401 77.3568
17.5815 61.2094
17.7622 63.2727
17.9428 76.4421
18.1237 137.504
18.3044 88.0896
18.4852 85.8282
18.666 62.8273
18.8469 60.3006
19.0278 58.997
19.2088 61.8956
19.3898 78.5006
19.5709 56.4959
19.752 55.2408
19.9332 57.966
20.1144 71.2568
20.2957 63.765
20.477 56.8923
20.6586 51.5981
20.84 50.562
21.0215 50.4075
21.203 52.0053
21.3846 51.121
21.5662 50.4161
21.7479 53.8607
21.9297 66.3779
22.1115 57.2311
22.2933 52.2994
22.4753 50.9563
22.6572 50.5692
22.8393 52.793
23.0214 59.967
23.2037 50.7606
23.3859 51.285
23.5682 57.2769
23.7505 50.9417
23.9329 46.932
24.1154 45.7574
24.2979 45.0419
24.4805 44.3927
24.6631 44.4801
24.8458 43.8094
25.0286 44.178
25.2114 46.1013
25.3943 46.2484
25.5773 42.442
25.7605 42.0255
25.9436 42.1337
26.1268 43.1606
26.31 41.5437
26.4933 42.151
26.6767 43.4576
26.8601 42.1171
27.0437 40.276
27.2272 39.9016
27.4109 39.5743
27.5946 39.7453
27.7784 39.1998
27.9623 39.388
28.1462 40.1532
28.3304 38.6928
28.5145 37.3865
28.6987 36.7961
28.8829 36.6454
29.0673 35.951
29.2517 35.5326
29.4361 35.3965
29.6207 34.3679
29.8053 34.0238
29.99 33.7747
30.1748 33.5464
30.3597 33.5629
30.5447 33.2537
30.7297 33.3174
30.915 32.7971
31.1002 32.256
31.2855 31.9502
31.4708 31.9187
31.6563 31.5132
31.8418 31.2033
32.0275 30.9791
32.2132 30.481
32.399 29.9091
32.5848 29.5266
32.7708 29.1073
32.9569 28.9475
33.143 28.7215
33.3293 28.3355
33.5158 28.0708
33.7022 27.545
33.8887 27.2405
34.0753 26.9594
34.262 26.5248
34.4488 26.1689
34.6357 25.8573
34.8227 25.5843
35.0098 25.4168
35.1969 25.0544
35.3842 24.7788
35.5716 24.6494
35.759 24.3166
35.9468 23.9301
36.1345 23.735
36.3222 23.4609
36.5101 23.205
36.6981 22.9
36.8861 22.6161
37.0743 22.2514
37.2626 21.9927
37.451 21.7366
37.6395 21.5767
37.8281 21.2787
38.0168 20.9581
38.2056 20.6669
38.3945 20.3956
38.5837 20.1505
38.7728 19.9258
38.9621 19.7345
39.1514 19.3585
39.3409 19.0837
39.5304 18.8846
39.7201 18.6779
39.9099 18.5218
40.0999 18.2097
40.2899 17.9336
40.48 17.7615
40.6703 17.5333
40.8607 17.3286
41.0512 17.1177
41.242 16.807
41.4327 16.6683
41.6236 16.3879
41.8146 16.2242
42.0057 15.9888
42.1969 15.7993
42.3882 15.5669
42.5797 15.4024
42.7713 15.1796
42.963 15.0137
43.1549 14.7266
43.3468 14.5479
43.5389 14.347
43.7312 14.1353
43.9237 13.924
44.1162 13.7296
44.3088 13.5297
44.5016 13.3761
44.6945 13.1671
44.8875 13.0252
45.0806 12.8199
45.2739 12.6694
45.4673 12.4752
45.6609 12.2748
45.8546 12.1406
46.0484 11.9245
46.2424 11.7814
46.4365 11.5785
46.631 11.4398
46.8254 11.238
47.0199 11.1033
47.2146 10.9231
47.4095 10.7256
47.6044 10.6454
47.7996 10.4533
47.9948 10.2777
48.1902 10.1335
48.3858 10.0173
48.5815 9.86606
48.7774 9.72209
48.9734 9.57816
49.1696 9.44139
49.3661 9.27971
49.5626 9.14162
49.7592 9.02695
49.956 8.85182
50.153 8.77363
50.3501 8.60667
50.5474 8.48532
50.7448 8.34213
50.9424 8.21774
51.1402 8.09425
51.3381 7.94998
51.5362 7.80827
51.7344 7.67987
51.9328 7.56003
52.1316 7.44356
52.3304 7.32253
52.5293 7.2103
52.7284 7.07987
52.9276 6.93191
53.1271 6.85874
53.3267 6.78622
53.5265 6.63929
53.7264 6.49256
53.9266 6.37513
54.1269 6.27686
54.3274 6.17524
54.528 5.99854
54.7289 5.84188
54.9301 5.69196
55.1314 5.53186
55.3328 5.28823
55.5344 5.09351
55.7361 4.99989