File: XRD/Ni3Fe_FD0256.xy
TT I
1.27165 7.68551
1.45013 6.96111
1.62863 5.94771
1.80712 5.38887
1.98562 5.12135
2.16411 5.00423
2.34263 4.60825
2.52115 5.27676
2.69965 6.42516
2.87818 8.08286
3.05672 11.36
3.23527 15.0266
3.4138 18.8243
3.59237 22.8972
3.77094 26.3589
3.9495 30.7435
4.12809 35.0823
4.30669 82.6218
4.4853 52.7611
4.6639 57.7076
4.84253 70.9593
5.02118 95.4842
5.19981 603.048
5.37848 280.774
5.55716 111.076
5.73586 99.4352
5.91455 105.893
6.09328 3653.24
6.27201 88.8884
6.45075 70.9634
6.62952 64.5239
6.8083 60.4774
6.98711 57.3211
7.16591 57.6972
7.34475 65.9662
7.5236 56.1731
7.70247 58.0358
7.88135 59.9111
8.06026 65.1364
8.23919 72.5066
8.41812 89.3331
8.59709 1104.63
8.77609 110.672
8.9551 91.7292
9.13412 86.4241
9.31318 87.6487
9.49226 88.8027
9.67134 96.9224
9.85047 105.711
10.0296 501.623
10.2088 628.469
10.388 111.33
10.5672 438.423
10.7465 92.134
10.9257 80.9946
11.105 74.8169
11.2844 70.9041
11.4637 67.276
11.6431 65.9771
11.8225 64.8677
12.002 66.7719
12.1814 142.56
12.3609 72.458
12.5405 67.1213
12.72 70.1407
12.8996 73.9997
13.0792 83.5126
13.2589 237.177
13.4386 156.683
13.6183 231.973
13.7981 116.961
13.9779 79.6582
14.1577 75.1864
14.3376 72.9423
14.5175 72.1886
14.6974 73.6666
14.8774 122.881
15.0574 176.279
15.2374 72.6451
15.4175 69.55
15.5976 69.132
15.7778 106.697
15.958 175.336
16.1382 64.1265
16.3185 60.2453
16.4988 57.6659
16.6792 56.7554
16.8596 57.1759
17.04 58.2703
17.2205 69.2453
17.401 77.8958
17.5815 61.888
17.7622 64.1054
17.9428 82.7612
18.1237 133.583
18.3044 91.5018
18.4852 85.6313
18.666 63.0747
18.8469 60.6749
19.0278 59.3736
19.2088 63.35
19.3898 75.3957
19.5709 56.9785
19.752 55.716
19.9332 59.6426
20.1144 71.5771
20.2957 64.4275
20.477 57.2402
20.6586 51.7966
20.84 51.073
21.0215 50.8017
21.203 52.4808
21.3846 51.6303
21.5662 51.1024
21.7479 55.6305
21.9297 66.0376
22.1115 57.7581
22.2933 52.679
22.4753 50.9557
22.6572 51.2634
22.8393 54.2333
23.0214 59.721
23.2037 51.1027
23.3859 52.6758
23.5682 57.1891
23.7505 51.6014
23.9329 47.4533
24.1154 46.1765
24.2979 45.2587
24.4805 44.7496
24.6631 44.7798
24.8458 44.1354
25.0286 44.8348
25.2114 46.4169
25.3943 46.5055
25.5773 42.8591
25.7605 42.3754
25.9436 42.6787
26.1268 43.4559
26.31 42.042
26.4933 42.5174
26.6767 43.8205
26.8601 42.3642
27.0437 40.6497
27.2272 40.2345
27.4109 40.1058
27.5946 40.2514
27.7784 39.6791
27.9623 39.8851
28.1462 40.574
28.3304 38.9821
28.5145 37.4928
28.6987 37.2206
28.8829 36.8222
29.0673 36.1954
29.2517 35.8894
29.4361 35.6714
29.6207 34.5999
29.8053 34.2798
29.99 34.0222
30.1748 33.7685
30.3597 33.6437
30.5447 33.5756
30.7297 33.6424
30.915 33.0795
31.1002 32.5863
31.2855 32.3099
31.4708 32.0999
31.6563 31.7585
31.8418 31.4629
32.0275 31.1565
32.2132 30.7007
32.399 30.2894
32.5848 29.7292
32.7708 29.4419
32.9569 29.298
33.143 29.0604
33.3293 28.6441
33.5158 28.2463
33.7022 27.7576
33.8887 27.4433
34.0753 27.1589
34.262 26.7694
34.4488 26.3582
34.6357 26.0696
34.8227 25.7483
35.0098 25.5765
35.1969 25.2389
35.3842 24.9595
35.5716 24.8231
35.759 24.4849
35.9468 24.1325
36.1345 23.8705
36.3222 23.613
36.5101 23.333
36.6981 23.0306
36.8861 22.776
37.0743 22.4858
37.2626 22.13
37.451 21.8563
37.6395 21.7264
37.8281 21.3287
38.0168 21.0724
38.2056 20.8365
38.3945 20.551
38.5837 20.3153
38.7728 20.0585
38.9621 19.8058
39.1514 19.5576
39.3409 19.2762
39.5304 19.05
39.7201 18.8204
39.9099 18.6681
40.0999 18.3466
40.2899 18.0578
40.48 17.8587
40.6703 17.6796
40.8607 17.481
41.0512 17.2085
41.242 16.9457
41.4327 16.7622
41.6236 16.4572
41.8146 16.3034
42.0057 16.0841
42.1969 15.8636
42.3882 15.689
42.5797 15.449
42.7713 15.2584
42.963 15.0478
43.1549 14.8583
43.3468 14.6539
43.5389 14.3825
43.7312 14.2508
43.9237 14.0676
44.1162 13.8341
44.3088 13.5909
44.5016 13.4754
44.6945 13.2473
44.8875 13.0779
45.0806 12.9002
45.2739 12.7287
45.4673 12.5452
45.6609 12.368
45.8546 12.2006
46.0484 11.9886
46.2424 11.8342
46.4365 11.7071
46.631 11.4643
46.8254 11.2942
47.0199 11.1652
47.2146 10.9929
47.4095 10.8282
47.6044 10.646
47.7996 10.4865
47.9948 10.3551
48.1902 10.2131
48.3858 10.0296
48.5815 9.87725
48.7774 9.73345
48.9734 9.64057
49.1696 9.47554
49.3661 9.30332
49.5626 9.16797
49.7592 9.06016
49.956 8.92706
50.153 8.77244
50.3501 8.67037
50.5474 8.54304
50.7448 8.39183
50.9424 8.20959
51.1402 8.13956
51.3381 8.00759
51.5362 7.85959
51.7344 7.72051
51.9328 7.59772
52.1316 7.43865
52.3304 7.38482
52.5293 7.24806
52.7284 7.13438
52.9276 6.99648
53.1271 6.88243
53.3267 6.7678
53.5265 6.63878
53.7264 6.52326
53.9266 6.40954
54.1269 6.26989
54.3274 6.16094
54.528 5.99151
54.7289 5.88914
54.9301 5.69489
55.1314 5.54328
55.3328 5.29855
55.5344 5.09769
55.7361 5.03