File: XRD/Ni3Fe_FD0158.xy
TT I
1.27165 8.02456
1.45013 6.41609
1.62863 6.02337
1.80712 5.40315
1.98562 5.04411
2.16411 3.97261
2.34263 3.53401
2.52115 4.28853
2.69965 5.84045
2.87818 8.32857
3.05672 11.5576
3.23527 15.3452
3.4138 19.0484
3.59237 21.6256
3.77094 24.9175
3.9495 28.4209
4.12809 32.5967
4.30669 37.7106
4.4853 44.6327
4.6639 53.5147
4.84253 65.6635
5.02118 90.4857
5.19981 544.876
5.37848 434.487
5.55716 107.361
5.73586 95.8204
5.91455 104.809
6.09328 2777.08
6.27201 88.7927
6.45075 66.5082
6.62952 60.0195
6.8083 55.6744
6.98711 53.7789
7.16591 52.3206
7.34475 52.2519
7.5236 56.1023
7.70247 53.8874
7.88135 56.4036
8.06026 60.7023
8.23919 68.032
8.41812 83.5482
8.59709 897.037
8.77609 115.122
8.9551 85.203
9.13412 81.5136
9.31318 86.3235
9.49226 83.8906
9.67134 88.5587
9.85047 98.9233
10.0296 543.681
10.2088 978.402
10.388 104.804
10.5672 336.174
10.7465 90.6455
10.9257 75.5407
11.105 70.0822
11.2844 66.1806
11.4637 63.465
11.6431 62.2505
11.8225 60.9107
12.002 65.2468
12.1814 118.457
12.3609 74.4931
12.5405 63.185
12.72 65.1652
12.8996 69.7828
13.0792 79.3225
13.2589 205.927
13.4386 206.545
13.6183 193.592
13.7981 150.627
13.9779 75.7744
14.1577 74.1962
14.3376 68.8708
14.5175 68.4733
14.6974 69.815
14.8774 121.023
15.0574 204.743
15.2374 69.2724
15.4175 66.2225
15.5976 65.7113
15.7778 107.313
15.958 186.628
16.1382 62.0204
16.3185 57.3554
16.4988 55.0781
16.6792 54.0447
16.8596 54.3074
17.04 55.4624
17.2205 65.3568
17.401 80.7106
17.5815 59.1732
17.7622 61.332
17.9428 83.6879
18.1237 115.827
18.3044 88.6603
18.4852 94.4455
18.666 61.0394
18.8469 58.1627
19.0278 56.7124
19.2088 61.6838
19.3898 69.3615
19.5709 56.2
19.752 53.3502
19.9332 58.2588
20.1144 67.3394
20.2957 61.2868
20.477 58.9375
20.6586 49.7827
20.84 49.1445
21.0215 49.021
21.203 49.61
21.3846 50.3731
21.5662 48.869
21.7479 54.0628
21.9297 62.2474
22.1115 56.3116
22.2933 52.4905
22.4753 48.9474
22.6572 49.1669
22.8393 52.0936
23.0214 57.2695
23.2037 49.77
23.3859 51.6807
23.5682 53.9707
23.7505 53.1097
23.9329 45.5947
24.1154 44.3758
24.2979 43.5911
24.4805 43.1476
24.6631 43.1429
24.8458 42.3868
25.0286 43.1593
25.2114 44.692
25.3943 44.9748
25.5773 41.6972
25.7605 40.8456
25.9436 41.0
26.1268 41.6295
26.31 40.8794
26.4933 41.1307
26.6767 42.1428
26.8601 41.3685
27.0437 39.5827
27.2272 38.9876
27.4109 38.6093
27.5946 38.7481
27.7784 38.4246
27.9623 38.5727
28.1462 39.4381
28.3304 38.0827
28.5145 36.3451
28.6987 35.9807
28.8829 35.6449
29.0673 35.2928
29.2517 34.493
29.4361 34.3716
29.6207 33.6014
29.8053 33.1139
29.99 32.8701
30.1748 32.6756
30.3597 32.6721
30.5447 32.5161
30.7297 32.4115
30.915 32.1917
31.1002 31.4948
31.2855 31.2068
31.4708 30.9931
31.6563 30.8899
31.8418 30.3911
32.0275 30.1589
32.2132 29.6987
32.399 29.0959
32.5848 28.7585
32.7708 28.3956
32.9569 28.317
33.143 27.9602
33.3293 27.7678
33.5158 27.3696
33.7022 26.788
33.8887 26.6238
34.0753 26.3317
34.262 25.8216
34.4488 25.6076
34.6357 25.2415
34.8227 24.9029
35.0098 24.7345
35.1969 24.5061
35.3842 24.2317
35.5716 24.0355
35.759 23.7082
35.9468 23.3092
36.1345 23.0878
36.3222 22.856
36.5101 22.5952
36.6981 22.2887
36.8861 21.953
37.0743 21.6925
37.2626 21.4471
37.451 21.1874
37.6395 21.0474
37.8281 20.7088
38.0168 20.3969
38.2056 20.1636
38.3945 19.93
38.5837 19.6129
38.7728 19.338
38.9621 19.1961
39.1514 18.8567
39.3409 18.6172
39.5304 18.4158
39.7201 18.1976
39.9099 17.9985
40.0999 17.7276
40.2899 17.5241
40.48 17.3332
40.6703 17.1189
40.8607 16.9205
41.0512 16.6533
41.242 16.3419
41.4327 16.185
41.6236 15.9639
41.8146 15.8101
42.0057 15.5837
42.1969 15.341
42.3882 15.1639
42.5797 14.9833
42.7713 14.7363
42.963 14.5627
43.1549 14.3727
43.3468 14.163
43.5389 13.9349
43.7312 13.7785
43.9237 13.6091
44.1162 13.4014
44.3088 13.1698
44.5016 12.9774
44.6945 12.8439
44.8875 12.6536
45.0806 12.4408
45.2739 12.2807
45.4673 12.156
45.6609 11.984
45.8546 11.806
46.0484 11.6425
46.2424 11.4463
46.4365 11.3002
46.631 11.096
46.8254 10.906
47.0199 10.7642
47.2146 10.6309
47.4095 10.4902
47.6044 10.272
47.7996 10.1714
47.9948 10.0208
48.1902 9.88365
48.3858 9.72964
48.5815 9.60771
48.7774 9.42702
48.9734 9.31972
49.1696 9.18635
49.3661 9.02139
49.5626 8.88987
49.7592 8.78208
49.956 8.66402
50.153 8.51643
50.3501 8.40081
50.5474 8.22404
50.7448 8.1314
50.9424 7.97966
51.1402 7.90156
51.3381 7.75745
51.5362 7.54324
51.7344 7.46404
51.9328 7.36729
52.1316 7.23221
52.3304 7.14344
52.5293 7.0088
52.7284 6.88062
52.9276 6.79933
53.1271 6.72033
53.3267 6.56345
53.5265 6.47292
53.7264 6.34399
53.9266 6.20901
54.1269 6.105
54.3274 6.00586
54.528 5.78292
54.7289 5.65693
54.9301 5.48775
55.1314 5.32705
55.3328 5.09641
55.5344 4.9061
55.7361 4.74654