File: XRD/Ni3Fe_FD0834.xy
TT I
1.27165 7.10448
1.45013 5.72623
1.62863 4.87345
1.80712 4.82012
1.98562 4.94873
2.16411 4.39022
2.34263 5.61424
2.52115 7.24741
2.69965 8.96498
2.87818 8.25673
3.05672 11.4177
3.23527 15.4332
3.4138 18.639
3.59237 23.1487
3.77094 25.561
3.9495 29.7656
4.12809 34.116
4.30669 127.986
4.4853 55.9504
4.6639 55.1085
4.84253 67.8905
5.02118 87.2892
5.19981 341.483
5.37848 189.259
5.55716 101.619
5.73586 91.919
5.91455 93.6088
6.09328 4311.78
6.27201 80.233
6.45075 68.238
6.62952 61.8656
6.8083 58.4222
6.98711 55.3174
7.16591 55.7571
7.34475 71.6928
7.5236 54.1958
7.70247 55.9899
7.88135 57.2526
8.06026 62.2367
8.23919 68.9007
8.41812 83.3369
8.59709 1186.18
8.77609 97.5598
8.9551 89.194
9.13412 82.1427
9.31318 83.2889
9.49226 84.0422
9.67134 94.958
9.85047 99.9805
10.0296 339.392
10.2088 404.237
10.388 103.142
10.5672 523.491
10.7465 85.6731
10.9257 77.3958
11.105 70.8356
11.2844 68.1385
11.4637 64.0409
11.6431 62.8909
11.8225 61.8191
12.002 63.2746
12.1814 155.653
12.3609 67.2939
12.5405 64.0522
12.72 67.6324
12.8996 70.4697
13.0792 78.6213
13.2589 244.878
13.4386 122.848
13.6183 252.237
13.7981 96.8962
13.9779 75.1647
14.1577 71.3923
14.3376 69.9359
14.5175 68.3559
14.6974 69.7016
14.8774 111.02
15.0574 145.618
15.2374 68.9747
15.4175 65.7638
15.5976 64.8216
15.7778 94.9785
15.958 151.576
16.1382 61.0388
16.3185 57.4639
16.4988 54.9449
16.6792 53.8476
16.8596 54.3579
17.04 55.3726
17.2205 66.6575
17.401 69.8971
17.5815 58.6431
17.7622 60.7396
17.9428 73.089
18.1237 137.843
18.3044 91.0931
18.4852 76.1255
18.666 59.7944
18.8469 57.5368
19.0278 56.1442
19.2088 58.683
19.3898 74.3873
19.5709 53.5099
19.752 52.6586
19.9332 55.7017
20.1144 69.2576
20.2957 63.6369
20.477 52.8623
20.6586 49.181
20.84 48.3413
21.0215 48.0476
21.203 50.2959
21.3846 48.4172
21.5662 48.3709
21.7479 52.3217
21.9297 63.7256
22.1115 55.4835
22.2933 49.348
22.4753 48.4264
22.6572 48.4289
22.8393 51.7887
23.0214 56.4117
23.2037 48.3197
23.3859 49.2873
23.5682 56.4917
23.7505 47.8268
23.9329 44.8767
24.1154 43.5638
24.2979 43.0075
24.4805 42.4485
24.6631 42.3937
24.8458 41.8368
25.0286 42.5044
25.2114 44.2698
25.3943 44.0667
25.5773 40.5872
25.7605 40.1678
25.9436 40.5071
26.1268 41.2559
26.31 39.7228
26.4933 40.4074
26.6767 41.6397
26.8601 39.9623
27.0437 38.4978
27.2272 38.1308
27.4109 37.922
27.5946 37.9951
27.7784 37.4421
27.9623 38.1033
28.1462 38.3555
28.3304 36.8923
28.5145 35.597
28.6987 35.2357
28.8829 35.1092
29.0673 34.3425
29.2517 33.9994
29.4361 33.7553
29.6207 32.7771
29.8053 32.5243
29.99 32.2427
30.1748 32.1425
30.3597 31.9135
30.5447 31.8557
30.7297 31.9695
30.915 31.1953
31.1002 30.8536
31.2855 30.5301
31.4708 30.5016
31.6563 30.0515
31.8418 29.7565
32.0275 29.4774
32.2132 29.0985
32.399 28.6811
32.5848 28.1635
32.7708 27.8306
32.9569 27.6948
33.143 27.5967
33.3293 27.1289
33.5158 26.827
33.7022 26.4052
33.8887 26.0728
34.0753 25.7612
34.262 25.4255
34.4488 25.0128
34.6357 24.7134
34.8227 24.4582
35.0098 24.2335
35.1969 24.039
35.3842 23.7837
35.5716 23.5497
35.759 23.2436
35.9468 22.8546
36.1345 22.7164
36.3222 22.4735
36.5101 22.2472
36.6981 21.8764
36.8861 21.5875
37.0743 21.3596
37.2626 21.0727
37.451 20.8274
37.6395 20.6201
37.8281 20.2082
38.0168 20.0428
38.2056 19.7352
38.3945 19.4758
38.5837 19.2815
38.7728 19.0793
38.9621 18.7946
39.1514 18.5247
39.3409 18.3376
39.5304 18.0815
39.7201 17.8474
39.9099 17.6247
40.0999 17.4197
40.2899 17.1599
40.48 16.9511
40.6703 16.7322
40.8607 16.6047
41.0512 16.3809
41.242 16.0856
41.4327 15.9122
41.6236 15.6254
41.8146 15.4923
42.0057 15.2834
42.1969 15.069
42.3882 14.8423
42.5797 14.6687
42.7713 14.5112
42.963 14.2316
43.1549 14.1177
43.3468 13.8565
43.5389 13.691
43.7312 13.5274
43.9237 13.3321
44.1162 13.1384
44.3088 12.9288
44.5016 12.7537
44.6945 12.5829
44.8875 12.4191
45.0806 12.2531
45.2739 12.0668
45.4673 11.8924
45.6609 11.7466
45.8546 11.5679
46.0484 11.4274
46.2424 11.2392
46.4365 11.0754
46.631 10.9058
46.8254 10.7658
47.0199 10.6134
47.2146 10.4374
47.4095 10.2768
47.6044 10.1082
47.7996 9.96667
47.9948 9.79343
48.1902 9.75483
48.3858 9.55793
48.5815 9.41553
48.7774 9.28094
48.9734 9.11399
49.1696 9.01673
49.3661 8.86451
49.5626 8.71726
49.7592 8.62394
49.956 8.49117
50.153 8.33567
50.3501 8.22858
50.5474 8.08706
50.7448 7.95464
50.9424 7.82807
51.1402 7.73442
51.3381 7.57142
51.5362 7.4951
51.7344 7.34454
51.9328 7.23187
52.1316 7.08896
52.3304 6.97715
52.5293 6.87017
52.7284 6.72963
52.9276 6.67398
53.1271 6.52822
53.3267 6.41568
53.5265 6.36513
53.7264 6.22585
53.9266 6.1182
54.1269 5.9413
54.3274 5.85955
54.528 5.70385
54.7289 5.55621
54.9301 5.37082
55.1314 5.30844
55.3328 5.0861
55.5344 4.89803
55.7361 4.75241