File: XRD/Ni3Fe_FD0821.xy
TT I
1.27165 7.21663
1.45013 6.21827
1.62863 5.1082
1.80712 4.46099
1.98562 4.33082
2.16411 4.70559
2.34263 4.86241
2.52115 7.07419
2.69965 8.28211
2.87818 8.58763
3.05672 10.2729
3.23527 14.8547
3.4138 18.7707
3.59237 23.0486
3.77094 25.5548
3.9495 29.4449
4.12809 33.925
4.30669 99.7643
4.4853 52.9216
4.6639 55.3182
4.84253 68.2944
5.02118 86.581
5.19981 401.964
5.37848 193.474
5.55716 101.564
5.73586 92.0003
5.91455 94.5492
6.09328 4584.63
6.27201 79.3252
6.45075 69.956
6.62952 62.4015
6.8083 59.3741
6.98711 55.0836
7.16591 55.831
7.34475 65.9414
7.5236 53.7277
7.70247 56.585
7.88135 57.2036
8.06026 62.3064
8.23919 68.975
8.41812 83.0977
8.59709 1221.2
8.77609 96.9661
8.9551 88.9611
9.13412 82.1952
9.31318 84.2993
9.49226 84.1672
9.67134 94.8585
9.85047 101.07
10.0296 343.498
10.2088 347.441
10.388 104.245
10.5672 539.389
10.7465 85.3145
10.9257 77.2918
11.105 70.7226
11.2844 67.9841
11.4637 64.474
11.6431 62.7475
11.8225 62.1493
12.002 64.0922
12.1814 160.639
12.3609 65.9641
12.5405 64.5553
12.72 67.4011
12.8996 70.5365
13.0792 80.1794
13.2589 249.393
13.4386 117.782
13.6183 259.198
13.7981 93.2809
13.9779 75.0516
14.1577 70.9692
14.3376 69.704
14.5175 68.3354
14.6974 69.8885
14.8774 111.769
15.0574 139.872
15.2374 68.9056
15.4175 65.5688
15.5976 65.2688
15.7778 95.768
15.958 146.536
16.1382 60.8589
16.3185 57.2219
16.4988 54.5566
16.6792 53.8871
16.8596 54.4532
17.04 55.6605
17.2205 66.9499
17.401 68.6646
17.5815 58.5657
17.7622 60.8424
17.9428 73.2683
18.1237 141.586
18.3044 91.1817
18.4852 73.9658
18.666 59.6632
18.8469 57.6127
19.0278 56.1136
19.2088 58.753
19.3898 75.6727
19.5709 53.4997
19.752 52.6279
19.9332 55.7541
20.1144 69.676
20.2957 64.0914
20.477 52.3964
20.6586 49.044
20.84 48.2507
21.0215 48.0737
21.203 50.3312
21.3846 48.3308
21.5662 48.575
21.7479 52.53
21.9297 64.1048
22.1115 55.6627
22.2933 49.2952
22.4753 48.1605
22.6572 48.4413
22.8393 51.5686
23.0214 56.4226
23.2037 48.1854
23.3859 49.3417
23.5682 57.1463
23.7505 47.3295
23.9329 44.8021
24.1154 43.7172
24.2979 42.9296
24.4805 42.5919
24.6631 42.2369
24.8458 41.6844
25.0286 42.4278
25.2114 44.2532
25.3943 44.0754
25.5773 40.5392
25.7605 40.0048
25.9436 40.4823
26.1268 41.2431
26.31 39.6066
26.4933 40.4345
26.6767 41.8062
26.8601 40.1784
27.0437 38.3714
27.2272 38.1536
27.4109 38.0542
27.5946 38.0286
27.7784 37.5374
27.9623 38.0532
28.1462 38.3789
28.3304 36.7497
28.5145 35.5901
28.6987 35.0576
28.8829 35.0812
29.0673 34.3291
29.2517 33.9562
29.4361 33.7496
29.6207 32.8062
29.8053 32.5382
29.99 32.1256
30.1748 32.1584
30.3597 31.922
30.5447 31.8026
30.7297 31.98
30.915 31.2451
31.1002 30.7573
31.2855 30.5626
31.4708 30.6219
31.6563 30.0571
31.8418 29.8124
32.0275 29.5302
32.2132 28.9984
32.399 28.6485
32.5848 28.2029
32.7708 27.8064
32.9569 27.7696
33.143 27.4787
33.3293 27.1249
33.5158 26.6745
33.7022 26.2654
33.8887 26.0897
34.0753 25.6813
34.262 25.3738
34.4488 25.0251
34.6357 24.742
34.8227 24.4025
35.0098 24.1629
35.1969 23.9437
35.3842 23.8157
35.5716 23.496
35.759 23.2258
35.9468 22.8537
36.1345 22.6765
36.3222 22.4472
36.5101 22.1671
36.6981 21.8445
36.8861 21.4967
37.0743 21.2681
37.2626 21.0339
37.451 20.7779
37.6395 20.6125
37.8281 20.2602
38.0168 19.9722
38.2056 19.7093
38.3945 19.4522
38.5837 19.2044
38.7728 19.0244
38.9621 18.6455
39.1514 18.4646
39.3409 18.2161
39.5304 18.0611
39.7201 17.9447
39.9099 17.6397
40.0999 17.453
40.2899 17.1682
40.48 16.9032
40.6703 16.7855
40.8607 16.555
41.0512 16.2812
41.242 16.0915
41.4327 15.896
41.6236 15.6878
41.8146 15.4478
42.0057 15.2683
42.1969 15.0472
42.3882 14.8394
42.5797 14.6199
42.7713 14.4903
42.963 14.3156
43.1549 14.0968
43.3468 13.8952
43.5389 13.6803
43.7312 13.4891
43.9237 13.32
44.1162 13.0832
44.3088 12.9684
44.5016 12.7317
44.6945 12.6257
44.8875 12.465
45.0806 12.2755
45.2739 12.0818
45.4673 11.8926
45.6609 11.7483
45.8546 11.5868
46.0484 11.3909
46.2424 11.2488
46.4365 11.0954
46.631 10.9202
46.8254 10.7035
47.0199 10.5885
47.2146 10.4482
47.4095 10.27
47.6044 10.1004
47.7996 9.97301
47.9948 9.83671
48.1902 9.66409
48.3858 9.56476
48.5815 9.43386
48.7774 9.29197
48.9734 9.16216
49.1696 8.99039
49.3661 8.84482
49.5626 8.72816
49.7592 8.5993
49.956 8.49259
50.153 8.37218
50.3501 8.21188
50.5474 8.09581
50.7448 7.9754
50.9424 7.83415
51.1402 7.73303
51.3381 7.58245
51.5362 7.48881
51.7344 7.3304
51.9328 7.20892
52.1316 7.07356
52.3304 6.96808
52.5293 6.8344
52.7284 6.75094
52.9276 6.67085
53.1271 6.55457
53.3267 6.46366
53.5265 6.29321
53.7264 6.19337
53.9266 6.08479
54.1269 5.99894
54.3274 5.84676
54.528 5.76094
54.7289 5.57831
54.9301 5.40285
55.1314 5.29264
55.3328 5.11876
55.5344 4.92281
55.7361 4.78514