File: XRD/Ni3Fe_FD0015.xy
TT I
1.27165 36.2647
1.45013 31.9588
1.62863 28.0703
1.80712 25.5934
1.98562 25.9384
2.16411 25.629
2.34263 26.6855
2.52115 26.0253
2.69965 30.0114
2.87818 40.5211
3.05672 66.0553
3.23527 79.6957
3.4138 44.3432
3.59237 39.6748
3.77094 40.813
3.9495 42.4081
4.12809 53.597
4.30669 78.8286
4.4853 66.3887
4.6639 52.8094
4.84253 58.2317
5.02118 90.0664
5.19981 258.46
5.37848 3993.75
5.55716 160.807
5.73586 99.8989
5.91455 109.219
6.09328 421.073
6.27201 346.146
6.45075 73.3276
6.62952 54.8893
6.8083 52.1026
6.98711 47.5598
7.16591 50.8065
7.34475 69.0613
7.5236 62.9105
7.70247 50.2484
7.88135 38.8846
8.06026 40.2247
8.23919 44.6878
8.41812 55.9276
8.59709 147.443
8.77609 726.928
8.9551 79.5999
9.13412 58.8087
9.31318 248.611
9.49226 52.3707
9.67134 50.9912
9.85047 57.3269
10.0296 90.8861
10.2088 412.413
10.388 145.319
10.5672 89.4087
10.7465 291.836
10.9257 49.168
11.105 41.967
11.2844 40.5469
11.4637 38.8076
11.6431 37.6396
11.8225 37.1634
12.002 68.0853
12.1814 46.3884
12.3609 89.776
12.5405 45.8682
12.72 39.7532
12.8996 39.6555
13.0792 41.7305
13.2589 62.0943
13.4386 128.432
13.6183 98.4917
13.7981 137.881
13.9779 67.357
14.1577 46.3424
14.3376 50.6139
14.5175 36.9382
14.6974 36.8162
14.8774 41.2718
15.0574 56.4055
15.2374 106.251
15.4175 41.005
15.5976 37.488
15.7778 40.0137
15.958 51.6524
16.1382 130.142
16.3185 40.3963
16.4988 33.1155
16.6792 31.3422
16.8596 31.0583
17.04 38.904
17.2205 32.8881
17.401 35.0605
17.5815 50.618
17.7622 34.57
17.9428 40.661
18.1237 42.2965
18.3044 82.0009
18.4852 58.3994
18.666 71.7807
18.8469 35.988
19.0278 32.8619
19.2088 32.7575
19.3898 38.1409
19.5709 45.691
19.752 37.0815
19.9332 31.2844
20.1144 31.9434
20.2957 40.4385
20.477 39.746
20.6586 41.8412
20.84 31.2685
21.0215 29.6643
21.203 28.1133
21.3846 28.2692
21.5662 32.6035
21.7479 29.1394
21.9297 30.6945
22.1115 38.8661
22.2933 45.3676
22.4753 37.252
22.6572 29.7553
22.8393 29.7567
23.0214 31.0723
23.2037 37.2751
23.3859 35.3664
23.5682 34.4668
23.7505 33.3015
23.9329 45.1477
24.1154 29.4986
24.2979 27.1825
24.4805 26.0167
24.6631 26.052
24.8458 27.808
25.0286 25.8781
25.2114 25.9343
25.3943 28.316
25.5773 30.4769
25.7605 30.1795
25.9436 26.6553
26.1268 25.3123
26.31 26.0904
26.4933 28.5622
26.6767 25.6081
26.8601 26.7847
27.0437 31.4545
27.2272 27.6413
27.4109 24.4808
27.5946 24.311
27.7784 24.6187
27.9623 25.5902
28.1462 25.3854
28.3304 26.6697
28.5145 28.2856
28.6987 25.6698
28.8829 22.9514
29.0673 22.3625
29.2517 23.235
29.4361 22.0804
29.6207 21.6915
29.8053 22.8899
29.99 21.3463
30.1748 21.1463
30.3597 20.9578
30.5447 21.2645
30.7297 21.0867
30.915 21.0607
31.1002 23.1154
31.2855 22.2282
31.4708 20.5505
31.6563 20.4055
31.8418 21.43
32.0275 20.7232
32.2132 20.4917
32.399 21.1528
32.5848 19.923
32.7708 18.9389
32.9569 18.7899
33.143 18.8195
33.3293 18.2973
33.5158 18.7691
33.7022 19.1989
33.8887 18.0774
34.0753 17.7344
34.262 17.6149
34.4488 17.3224
34.6357 16.9624
34.8227 16.9542
35.0098 16.5205
35.1969 16.2927
35.3842 16.3132
35.5716 16.3036
35.759 16.55
35.9468 16.8962
36.1345 16.2438
36.3222 15.7594
36.5101 15.6128
36.6981 15.5725
36.8861 15.2126
37.0743 15.3011
37.2626 14.924
37.451 14.6274
37.6395 14.4542
37.8281 14.242
38.0168 14.0261
38.2056 13.9916
38.3945 13.6783
38.5837 13.5203
38.7728 13.5158
38.9621 13.2453
39.1514 13.2552
39.3409 12.9691
39.5304 12.7562
39.7201 12.5109
39.9099 12.4539
40.0999 12.3322
40.2899 12.3178
40.48 12.1411
40.6703 11.9521
40.8607 11.8652
41.0512 11.7147
41.242 11.6588
41.4327 11.4843
41.6236 11.2053
41.8146 11.1032
42.0057 11.0037
42.1969 10.8877
42.3882 10.8325
42.5797 10.5002
42.7713 10.429
42.963 10.2449
43.1549 10.128
43.3468 9.98975
43.5389 9.8411
43.7312 9.67117
43.9237 9.58462
44.1162 9.49753
44.3088 9.39079
44.5016 9.23881
44.6945 9.15171
44.8875 9.01479
45.0806 8.89732
45.2739 8.79213
45.4673 8.68839
45.6609 8.52269
45.8546 8.42532
46.0484 8.3277
46.2424 8.21284
46.4365 8.0771
46.631 7.97412
46.8254 7.8828
47.0199 7.76151
47.2146 7.63937
47.4095 7.50506
47.6044 7.40891
47.7996 7.28716
47.9948 7.22945
48.1902 7.12863
48.3858 7.00974
48.5815 6.90492
48.7774 6.82476
48.9734 6.73031
49.1696 6.63312
49.3661 6.53745
49.5626 6.43127
49.7592 6.36132
49.956 6.26778
50.153 6.17068
50.3501 6.0637
50.5474 6.01591
50.7448 5.89408
50.9424 5.82874
51.1402 5.70336
51.3381 5.6311
51.5362 5.58528
51.7344 5.46142
51.9328 5.37355
52.1316 5.28589
52.3304 5.26099
52.5293 5.1367
52.7284 5.04233
52.9276 4.97146
53.1271 4.89536
53.3267 4.81889
53.5265 4.73133
53.7264 4.63145
53.9266 4.55478
54.1269 4.44171
54.3274 4.39927
54.528 4.27212
54.7289 4.13324
54.9301 3.98698
55.1314 3.89929
55.3328 3.76151
55.5344 3.59052
55.7361 3.51664