File: XRD/Ni3Fe_FD0119.xy
TT I
1.27165 8.06419
1.45013 6.23452
1.62863 6.28371
1.80712 5.09441
1.98562 5.39718
2.16411 4.25224
2.34263 5.0123
2.52115 3.70733
2.69965 5.35417
2.87818 7.65433
3.05672 10.8732
3.23527 14.4694
3.4138 18.8379
3.59237 21.6078
3.77094 24.6743
3.9495 28.2838
4.12809 32.5264
4.30669 37.5008
4.4853 44.5161
4.6639 53.3469
4.84253 65.5477
5.02118 91.0511
5.19981 598.892
5.37848 545.457
5.55716 108.972
5.73586 95.4419
5.91455 107.091
6.09328 2467.16
6.27201 91.1558
6.45075 66.1196
6.62952 59.2375
6.8083 55.1032
6.98711 52.6581
7.16591 51.4683
7.34475 51.2359
7.5236 56.6777
7.70247 53.3959
7.88135 55.5828
8.06026 60.1381
8.23919 67.0598
8.41812 83.2921
8.59709 823.8
8.77609 120.817
8.9551 84.3739
9.13412 80.4345
9.31318 88.8339
9.49226 82.4126
9.67134 87.476
9.85047 97.9256
10.0296 563.611
10.2088 1081.97
10.388 104.315
10.5672 297.397
10.7465 91.4104
10.9257 75.1249
11.105 69.3482
11.2844 65.4384
11.4637 62.5833
11.6431 61.385
11.8225 60.4687
12.002 66.3445
12.1814 110.852
12.3609 77.3883
12.5405 62.6182
12.72 64.5597
12.8996 68.978
13.0792 78.2514
13.2589 194.428
13.4386 227.958
13.6183 180.681
13.7981 166.221
13.9779 75.3294
14.1577 74.6404
14.3376 68.241
14.5175 67.4482
14.6974 68.791
14.8774 120.087
15.0574 205.297
15.2374 68.6103
15.4175 65.4199
15.5976 64.9603
15.7778 107.121
15.958 181.138
16.1382 61.6094
16.3185 56.7131
16.4988 54.4388
16.6792 53.3614
16.8596 53.5093
17.04 54.7954
17.2205 64.0984
17.401 80.8713
17.5815 58.383
17.7622 60.8194
17.9428 84.0521
18.1237 107.945
18.3044 87.3877
18.4852 96.4617
18.666 60.4848
18.8469 57.5113
19.0278 56.2096
19.2088 61.4167
19.3898 67.0661
19.5709 56.1972
19.752 52.7284
19.9332 57.731
20.1144 65.1918
20.2957 60.0689
20.477 59.7899
20.6586 49.4469
20.84 48.5292
21.0215 48.3975
21.203 49.1988
21.3846 50.1162
21.5662 48.3995
21.7479 53.6608
21.9297 60.3736
22.1115 55.885
22.2933 52.5122
22.4753 48.33
22.6572 48.4958
22.8393 51.4335
23.0214 55.8807
23.2037 49.7481
23.3859 51.3019
23.5682 52.4484
23.7505 53.6071
23.9329 45.2502
24.1154 43.9439
24.2979 43.1562
24.4805 42.605
24.6631 42.7159
24.8458 42.1905
25.0286 42.5839
25.2114 43.9337
25.3943 44.319
25.5773 41.4865
25.7605 40.4674
25.9436 40.5549
26.1268 40.9897
26.31 40.6106
26.4933 40.4081
26.6767 41.322
26.8601 41.0164
27.0437 39.1738
27.2272 38.4969
27.4109 38.1912
27.5946 38.3198
27.7784 38.1717
27.9623 38.0686
28.1462 38.8021
28.3304 37.7666
28.5145 35.9217
28.6987 35.6375
28.8829 35.1356
29.0673 34.8878
29.2517 34.1472
29.4361 33.8291
29.6207 33.3323
29.8053 32.7131
29.99 32.4804
30.1748 32.1957
30.3597 32.2611
30.5447 32.0406
30.7297 31.9836
30.915 31.8031
31.1002 31.2027
31.2855 30.8633
31.4708 30.5047
31.6563 30.5872
31.8418 30.0418
32.0275 29.8206
32.2132 29.4549
32.399 28.9243
32.5848 28.4975
32.7708 28.0029
32.9569 27.9096
33.143 27.63
33.3293 27.3375
33.5158 27.0625
33.7022 26.5505
33.8887 26.1709
34.0753 25.9801
34.262 25.5611
34.4488 25.2188
34.6357 24.8798
34.8227 24.6206
35.0098 24.4187
35.1969 24.0604
35.3842 23.819
35.5716 23.7151
35.759 23.4153
35.9468 23.13
36.1345 22.7869
36.3222 22.6168
36.5101 22.3868
36.6981 22.0283
36.8861 21.7117
37.0743 21.4541
37.2626 21.1762
37.451 20.9022
37.6395 20.8138
37.8281 20.4695
38.0168 20.1453
38.2056 19.9176
38.3945 19.5821
38.5837 19.343
38.7728 19.1158
38.9621 18.9233
39.1514 18.6507
39.3409 18.4166
39.5304 18.1858
39.7201 17.9551
39.9099 17.7546
40.0999 17.4832
40.2899 17.3083
40.48 17.0496
40.6703 16.8924
40.8607 16.6647
41.0512 16.4367
41.242 16.2257
41.4327 16.0102
41.6236 15.8268
41.8146 15.593
42.0057 15.3413
42.1969 15.1574
42.3882 14.9975
42.5797 14.7471
42.7713 14.519
42.963 14.3532
43.1549 14.2217
43.3468 14.017
43.5389 13.7508
43.7312 13.5544
43.9237 13.4474
44.1162 13.1899
44.3088 13.0316
44.5016 12.8221
44.6945 12.7026
44.8875 12.5084
45.0806 12.3448
45.2739 12.1855
45.4673 12.0253
45.6609 11.802
45.8546 11.6666
46.0484 11.4727
46.2424 11.3142
46.4365 11.1429
46.631 10.9625
46.8254 10.7869
47.0199 10.6443
47.2146 10.5024
47.4095 10.3386
47.6044 10.2152
47.7996 10.0157
47.9948 9.88641
48.1902 9.74583
48.3858 9.64164
48.5815 9.50586
48.7774 9.3455
48.9734 9.21616
49.1696 9.05205
49.3661 8.92129
49.5626 8.79482
49.7592 8.64793
49.956 8.56996
50.153 8.42982
50.3501 8.25721
50.5474 8.19147
50.7448 8.03758
50.9424 7.93704
51.1402 7.78793
51.3381 7.67413
51.5362 7.52652
51.7344 7.43251
51.9328 7.2372
52.1316 7.15672
52.3304 7.03913
52.5293 6.95579
52.7284 6.81835
52.9276 6.72008
53.1271 6.62309
53.3267 6.49267
53.5265 6.35699
53.7264 6.23179
53.9266 6.18026
54.1269 6.03184
54.3274 5.89368
54.528 5.72388
54.7289 5.53164
54.9301 5.35452
55.1314 5.20282
55.3328 5.01613
55.5344 4.82701
55.7361 4.71452