File: XRD/Ni3Fe_FD1024.xy
TT I
1.27165 6.61204
1.45013 5.4066
1.62863 5.00303
1.80712 4.54434
1.98562 4.54102
2.16411 4.57704
2.34263 5.74933
2.52115 6.94228
2.69965 8.32015
2.87818 8.56707
3.05672 10.8783
3.23527 14.8376
3.4138 18.2333
3.59237 21.4663
3.77094 24.9167
3.9495 28.2726
4.12809 32.3416
4.30669 57.7739
4.4853 46.2085
4.6639 52.6694
4.84253 64.0522
5.02118 82.7337
5.19981 227.73
5.37848 229.882
5.55716 96.7577
5.73586 87.347
5.91455 87.8757
6.09328 4386.66
6.27201 75.5896
6.45075 63.2105
6.62952 57.7033
6.8083 54.2166
6.98711 52.4431
7.16591 51.4565
7.34475 55.8716
7.5236 61.2542
7.70247 52.7581
7.88135 54.5877
8.06026 58.7159
8.23919 65.5792
8.41812 76.9787
8.59709 1065.42
8.77609 94.6124
8.9551 81.8593
9.13412 78.6087
9.31318 92.6504
9.49226 80.5242
9.67134 85.8492
9.85047 93.1268
10.0296 329.09
10.2088 449.519
10.388 96.8307
10.5672 495.285
10.7465 87.217
10.9257 72.9595
11.105 67.7741
11.2844 64.3512
11.4637 61.2724
11.6431 60.0367
11.8225 59.3384
12.002 68.3824
12.1814 144.234
12.3609 64.2447
12.5405 60.9125
12.72 63.4254
12.8996 67.108
13.0792 76.4266
13.2589 221.382
13.4386 125.928
13.6183 231.49
13.7981 100.005
13.9779 72.6218
14.1577 77.0591
14.3376 66.9966
14.5175 65.873
14.6974 66.8265
14.8774 106.626
15.0574 158.269
15.2374 66.2592
15.4175 63.6348
15.5976 62.7787
15.7778 91.5516
15.958 167.126
16.1382 60.0647
16.3185 55.0991
16.4988 52.9297
16.6792 52.0968
16.8596 52.2754
17.04 53.4054
17.2205 63.7977
17.401 70.8038
17.5815 56.7519
17.7622 59.5958
17.9428 71.6837
18.1237 141.088
18.3044 87.8054
18.4852 78.355
18.666 58.4244
18.8469 55.9872
19.0278 54.5572
19.2088 57.385
19.3898 75.6498
19.5709 52.4466
19.752 51.4213
19.9332 54.438
20.1144 69.8275
20.2957 63.0065
20.477 52.7413
20.6586 48.0727
20.84 47.7004
21.0215 46.8111
21.203 49.0359
21.3846 47.4953
21.5662 47.1143
21.7479 51.1948
21.9297 64.9843
22.1115 55.6432
22.2933 48.7497
22.4753 47.0944
22.6572 47.2767
22.8393 50.6442
23.0214 57.3506
23.2037 47.3655
23.3859 48.7714
23.5682 56.8474
23.7505 47.936
23.9329 43.8488
24.1154 42.7474
24.2979 42.0512
24.4805 41.7329
24.6631 41.7292
24.8458 40.9412
25.0286 41.6407
25.2114 43.8058
25.3943 44.0303
25.5773 39.8849
25.7605 39.3229
25.9436 39.6246
26.1268 40.995
26.31 39.1462
26.4933 39.7192
26.6767 41.5766
26.8601 39.762
27.0437 37.9857
27.2272 37.5234
27.4109 37.4831
27.5946 37.6107
27.7784 37.1107
27.9623 37.7098
28.1462 38.4594
28.3304 36.6058
28.5145 35.0743
28.6987 34.7337
28.8829 34.5434
29.0673 33.7979
29.2517 33.4346
29.4361 33.3922
29.6207 32.2934
29.8053 31.9273
29.99 31.8123
30.1748 31.6836
30.3597 31.4718
30.5447 31.4782
30.7297 31.5366
30.915 30.8691
31.1002 30.4388
31.2855 30.1163
31.4708 30.2086
31.6563 29.7852
31.8418 29.4495
32.0275 29.3243
32.2132 28.6703
32.399 28.2178
32.5848 27.8573
32.7708 27.5272
32.9569 27.358
33.143 27.1087
33.3293 26.8188
33.5158 26.3907
33.7022 25.987
33.8887 25.6896
34.0753 25.3127
34.262 25.0492
34.4488 24.6644
34.6357 24.373
34.8227 24.0826
35.0098 23.9196
35.1969 23.6598
35.3842 23.4316
35.5716 23.319
35.759 22.9614
35.9468 22.6269
36.1345 22.4191
36.3222 22.1405
36.5101 21.8792
36.6981 21.6645
36.8861 21.3351
37.0743 21.0213
37.2626 20.7577
37.451 20.5082
37.6395 20.4662
37.8281 20.0563
38.0168 19.6972
38.2056 19.5255
38.3945 19.2037
38.5837 19.0432
38.7728 18.8278
38.9621 18.5833
39.1514 18.3062
39.3409 18.047
39.5304 17.8002
39.7201 17.6673
39.9099 17.4712
40.0999 17.1831
40.2899 16.8874
40.48 16.7434
40.6703 16.5713
40.8607 16.3215
41.0512 16.1062
41.242 15.9146
41.4327 15.6931
41.6236 15.5102
41.8146 15.315
42.0057 15.0934
42.1969 14.8739
42.3882 14.6491
42.5797 14.5375
42.7713 14.305
42.963 14.0594
43.1549 13.9304
43.3468 13.6617
43.5389 13.5277
43.7312 13.2747
43.9237 13.1592
44.1162 12.9873
44.3088 12.8035
44.5016 12.5917
44.6945 12.3935
44.8875 12.2352
45.0806 12.0897
45.2739 11.9005
45.4673 11.7555
45.6609 11.5826
45.8546 11.422
46.0484 11.2728
46.2424 11.1059
46.4365 10.9466
46.631 10.7916
46.8254 10.6496
47.0199 10.4627
47.2146 10.3271
47.4095 10.1571
47.6044 10.0238
47.7996 9.84491
47.9948 9.71272
48.1902 9.58816
48.3858 9.43629
48.5815 9.32048
48.7774 9.14615
48.9734 9.0407
49.1696 8.90262
49.3661 8.754
49.5626 8.59987
49.7592 8.46443
49.956 8.35694
50.153 8.23756
50.3501 8.07247
50.5474 8.03762
50.7448 7.84792
50.9424 7.74592
51.1402 7.63334
51.3381 7.49898
51.5362 7.40671
51.7344 7.28337
51.9328 7.16119
52.1316 6.97913
52.3304 6.90451
52.5293 6.79947
52.7284 6.71103
52.9276 6.56691
53.1271 6.5061
53.3267 6.41159
53.5265 6.25039
53.7264 6.16397
53.9266 6.05041
54.1269 5.92827
54.3274 5.77912
54.528 5.69293
54.7289 5.52106
54.9301 5.38307
55.1314 5.27439
55.3328 5.05471
55.5344 4.89679
55.7361 4.73838