File: XRD/Ni3Fe_FD1022.xy
TT I
1.27165 6.99188
1.45013 5.34286
1.62863 4.81413
1.80712 4.50352
1.98562 4.39126
2.16411 4.38514
2.34263 5.34762
2.52115 6.75319
2.69965 8.85613
2.87818 9.17099
3.05672 10.8528
3.23527 14.7832
3.4138 18.194
3.59237 21.4949
3.77094 24.903
3.9495 28.3596
4.12809 32.6049
4.30669 58.0885
4.4853 46.1558
4.6639 52.3207
4.84253 63.4552
5.02118 82.466
5.19981 227.187
5.37848 231.651
5.55716 96.6724
5.73586 87.3415
5.91455 88.45
6.09328 4352.1
6.27201 75.0861
6.45075 62.9731
6.62952 57.5997
6.8083 53.7218
6.98711 51.9666
7.16591 51.3202
7.34475 55.9444
7.5236 61.4611
7.70247 52.9566
7.88135 54.4554
8.06026 58.6761
8.23919 65.5109
8.41812 77.5432
8.59709 1057.32
8.77609 94.7466
8.9551 81.7121
9.13412 78.4562
9.31318 93.3123
9.49226 80.1046
9.67134 85.92
9.85047 93.033
10.0296 325.836
10.2088 453.018
10.388 96.7147
10.5672 491.62
10.7465 87.2188
10.9257 72.7464
11.105 67.4074
11.2844 64.0719
11.4637 61.3385
11.6431 59.976
11.8225 59.1325
12.002 68.5908
12.1814 143.707
12.3609 63.8995
12.5405 60.9444
12.72 63.4115
12.8996 67.0435
13.0792 76.0734
13.2589 220.168
13.4386 126.465
13.6183 230.534
13.7981 100.083
13.9779 72.9475
14.1577 77.259
14.3376 66.5166
14.5175 65.8986
14.6974 66.737
14.8774 106.028
15.0574 158.623
15.2374 65.9964
15.4175 63.4117
15.5976 62.6513
15.7778 91.1605
15.958 167.685
16.1382 59.7807
16.3185 55.0131
16.4988 53.0583
16.6792 52.0525
16.8596 52.5275
17.04 53.2694
17.2205 63.5487
17.401 71.1074
17.5815 56.7419
17.7622 59.327
17.9428 71.3703
18.1237 140.465
18.3044 87.4604
18.4852 78.4456
18.666 58.5333
18.8469 56.0193
19.0278 54.5349
19.2088 57.1665
19.3898 75.8886
19.5709 52.5896
19.752 51.3997
19.9332 54.1306
20.1144 69.502
20.2957 62.7627
20.477 52.6776
20.6586 47.85
20.84 47.5616
21.0215 46.7154
21.203 48.9751
21.3846 47.4033
21.5662 46.9694
21.7479 51.0346
21.9297 64.7651
22.1115 55.4991
22.2933 48.8212
22.4753 47.0311
22.6572 47.139
22.8393 50.6429
23.0214 57.1565
23.2037 47.55
23.3859 48.5965
23.5682 56.433
23.7505 47.8584
23.9329 43.9256
24.1154 42.7474
24.2979 42.082
24.4805 41.5544
24.6631 41.6134
24.8458 40.8945
25.0286 41.531
25.2114 43.8718
25.3943 44.0163
25.5773 39.8687
25.7605 39.3641
25.9436 39.6957
26.1268 40.9973
26.31 38.9269
26.4933 39.6241
26.6767 41.5786
26.8601 39.7011
27.0437 37.9613
27.2272 37.553
27.4109 37.367
27.5946 37.5077
27.7784 36.9692
27.9623 37.6763
28.1462 38.4323
28.3304 36.4978
28.5145 34.9743
28.6987 34.7245
28.8829 34.5487
29.0673 33.7851
29.2517 33.3712
29.4361 33.4046
29.6207 32.1455
29.8053 31.8994
29.99 31.7503
30.1748 31.6519
30.3597 31.4921
30.5447 31.2553
30.7297 31.4966
30.915 30.9372
31.1002 30.4437
31.2855 30.1014
31.4708 30.1197
31.6563 29.6677
31.8418 29.5093
32.0275 29.3258
32.2132 28.7092
32.399 28.2041
32.5848 27.8275
32.7708 27.48
32.9569 27.2633
33.143 27.1942
33.3293 26.793
33.5158 26.372
33.7022 26.0035
33.8887 25.7311
34.0753 25.3264
34.262 25.0111
34.4488 24.6993
34.6357 24.3267
34.8227 23.9972
35.0098 23.855
35.1969 23.6257
35.3842 23.458
35.5716 23.1809
35.759 22.926
35.9468 22.5809
36.1345 22.3922
36.3222 22.159
36.5101 21.9316
36.6981 21.6188
36.8861 21.3241
37.0743 20.9973
37.2626 20.7234
37.451 20.4548
37.6395 20.3378
37.8281 19.9496
38.0168 19.7046
38.2056 19.4988
38.3945 19.1776
38.5837 18.9475
38.7728 18.771
38.9621 18.4695
39.1514 18.2506
39.3409 18.0067
39.5304 17.8388
39.7201 17.5741
39.9099 17.385
40.0999 17.232
40.2899 16.9737
40.48 16.7249
40.6703 16.4926
40.8607 16.3415
41.0512 16.1213
41.242 15.816
41.4327 15.665
41.6236 15.4231
41.8146 15.3229
42.0057 15.0209
42.1969 14.8486
42.3882 14.6733
42.5797 14.4375
42.7713 14.2987
42.963 14.1024
43.1549 13.8629
43.3468 13.6447
43.5389 13.4771
43.7312 13.2476
43.9237 13.1263
44.1162 12.92
44.3088 12.7711
44.5016 12.5335
44.6945 12.4226
44.8875 12.2686
45.0806 12.049
45.2739 11.9369
45.4673 11.7196
45.6609 11.607
45.8546 11.4263
46.0484 11.2345
46.2424 11.0878
46.4365 10.9227
46.631 10.7605
46.8254 10.6168
47.0199 10.4611
47.2146 10.3121
47.4095 10.1142
47.6044 9.95291
47.7996 9.8646
47.9948 9.71767
48.1902 9.54715
48.3858 9.44198
48.5815 9.29023
48.7774 9.20463
48.9734 9.03602
49.1696 8.83426
49.3661 8.74859
49.5626 8.59605
49.7592 8.47973
49.956 8.37443
50.153 8.22197
50.3501 8.10879
50.5474 7.99041
50.7448 7.86965
50.9424 7.7414
51.1402 7.62863
51.3381 7.47594
51.5362 7.37982
51.7344 7.25294
51.9328 7.126
52.1316 7.03217
52.3304 6.91895
52.5293 6.76365
52.7284 6.66994
52.9276 6.5914
53.1271 6.44372
53.3267 6.36236
53.5265 6.22643
53.7264 6.08651
53.9266 6.00402
54.1269 5.92218
54.3274 5.8032
54.528 5.66832
54.7289 5.49272
54.9301 5.41876
55.1314 5.26941
55.3328 5.03202
55.5344 4.88689
55.7361 4.6847