File: XRD/Ni3Fe_FD0787.xy
TT I
1.27165 7.39846
1.45013 6.08031
1.62863 5.60715
1.80712 4.56884
1.98562 4.87759
2.16411 5.00822
2.34263 5.47474
2.52115 6.82115
2.69965 8.52615
2.87818 8.69037
3.05672 11.1962
3.23527 14.9785
3.4138 18.9353
3.59237 23.2258
3.77094 26.0278
3.9495 29.4179
4.12809 34.2462
4.30669 158.731
4.4853 59.2514
4.6639 54.9716
4.84253 66.9245
5.02118 86.2801
5.19981 354.03
5.37848 176.719
5.55716 100.996
5.73586 91.6484
5.91455 93.6428
6.09328 4544.98
6.27201 80.4801
6.45075 66.9264
6.62952 62.0149
6.8083 57.8947
6.98711 55.1404
7.16591 54.8152
7.34475 79.227
7.5236 53.9393
7.70247 55.7004
7.88135 57.6433
8.06026 61.8286
8.23919 68.899
8.41812 83.8038
8.59709 1211.41
8.77609 96.8964
8.9551 88.695
9.13412 81.2416
9.31318 81.938
9.49226 84.0549
9.67134 95.3566
9.85047 99.2915
10.0296 341.779
10.2088 343.069
10.388 103.515
10.5672 532.38
10.7465 85.1313
10.9257 76.8861
11.105 70.8319
11.2844 68.9468
11.4637 63.8839
11.6431 62.932
11.8225 61.7803
12.002 63.3282
12.1814 157.89
12.3609 67.7544
12.5405 63.7701
12.72 68.1309
12.8996 70.1546
13.0792 78.5772
13.2589 244.674
13.4386 117.096
13.6183 254.858
13.7981 92.6144
13.9779 74.905
14.1577 71.3916
14.3376 70.1995
14.5175 68.2756
14.6974 69.8118
14.8774 110.389
15.0574 141.671
15.2374 69.668
15.4175 65.4375
15.5976 65.3343
15.7778 94.3074
15.958 147.801
16.1382 61.3121
16.3185 57.6256
16.4988 54.971
16.6792 53.8272
16.8596 54.5431
17.04 55.361
17.2205 66.6632
17.401 68.897
17.5815 58.6136
17.7622 60.4083
17.9428 73.1299
18.1237 141.62
18.3044 91.0088
18.4852 74.5457
18.666 59.6144
18.8469 57.3348
19.0278 56.3265
19.2088 58.6139
19.3898 75.8877
19.5709 53.3766
19.752 52.7098
19.9332 55.7046
20.1144 69.6774
20.2957 63.9766
20.477 52.473
20.6586 48.9431
20.84 48.445
21.0215 48.041
21.203 50.4429
21.3846 48.1845
21.5662 48.3203
21.7479 52.0675
21.9297 64.0471
22.1115 55.7232
22.2933 49.0764
22.4753 48.2921
22.6572 48.3555
22.8393 51.5648
23.0214 56.527
23.2037 48.1511
23.3859 49.2882
23.5682 57.0998
23.7505 47.3186
23.9329 44.7639
24.1154 43.7169
24.2979 43.0572
24.4805 42.3481
24.6631 42.4073
24.8458 41.7354
25.0286 42.3391
25.2114 44.2424
25.3943 44.0392
25.5773 40.4018
25.7605 40.0226
25.9436 40.5731
26.1268 41.277
26.31 39.6521
26.4933 40.3368
26.6767 41.6962
26.8601 40.0265
27.0437 38.4788
27.2272 38.1463
27.4109 37.9469
27.5946 37.8995
27.7784 37.4391
27.9623 38.0647
28.1462 38.3764
28.3304 36.6863
28.5145 35.543
28.6987 35.2167
28.8829 35.073
29.0673 34.2784
29.2517 34.0422
29.4361 33.8289
29.6207 32.7742
29.8053 32.5724
29.99 32.2242
30.1748 32.0534
30.3597 31.8926
30.5447 31.9177
30.7297 31.8969
30.915 31.2483
31.1002 30.85
31.2855 30.4642
31.4708 30.5096
31.6563 29.9953
31.8418 29.8991
32.0275 29.5874
32.2132 29.0719
32.399 28.6382
32.5848 28.1471
32.7708 27.803
32.9569 27.7437
33.143 27.4714
33.3293 27.137
33.5158 26.7696
33.7022 26.2975
33.8887 26.0281
34.0753 25.6983
34.262 25.3643
34.4488 24.9943
34.6357 24.734
34.8227 24.4545
35.0098 24.2555
35.1969 23.8982
35.3842 23.7369
35.5716 23.5097
35.759 23.2262
35.9468 22.8036
36.1345 22.7299
36.3222 22.3494
36.5101 22.1928
36.6981 21.9883
36.8861 21.5331
37.0743 21.2847
37.2626 20.9774
37.451 20.7832
37.6395 20.6187
37.8281 20.2842
38.0168 19.983
38.2056 19.6802
38.3945 19.5156
38.5837 19.2517
38.7728 19.0049
38.9621 18.7984
39.1514 18.5544
39.3409 18.2973
39.5304 18.0392
39.7201 17.8287
39.9099 17.6706
40.0999 17.3648
40.2899 17.1555
40.48 16.9843
40.6703 16.7519
40.8607 16.5785
41.0512 16.3558
41.242 16.0193
41.4327 15.9263
41.6236 15.6661
41.8146 15.4912
42.0057 15.3228
42.1969 15.0481
42.3882 14.8843
42.5797 14.7116
42.7713 14.4275
42.963 14.2519
43.1549 14.0866
43.3468 13.8477
43.5389 13.7132
43.7312 13.5271
43.9237 13.3778
44.1162 13.1484
44.3088 12.9299
44.5016 12.773
44.6945 12.5801
44.8875 12.4226
45.0806 12.2317
45.2739 12.0842
45.4673 11.9421
45.6609 11.7386
45.8546 11.5738
46.0484 11.4607
46.2424 11.2373
46.4365 11.0947
46.631 10.9358
46.8254 10.7449
47.0199 10.5759
47.2146 10.4615
47.4095 10.2921
47.6044 10.1562
47.7996 9.97042
47.9948 9.85719
48.1902 9.72046
48.3858 9.56668
48.5815 9.40783
48.7774 9.30424
48.9734 9.17969
49.1696 8.99032
49.3661 8.87734
49.5626 8.68798
49.7592 8.62784
49.956 8.47327
50.153 8.31416
50.3501 8.23795
50.5474 8.11425
50.7448 7.97189
50.9424 7.83071
51.1402 7.72266
51.3381 7.57976
51.5362 7.47661
51.7344 7.32593
51.9328 7.17191
52.1316 7.08303
52.3304 7.01732
52.5293 6.89928
52.7284 6.79732
52.9276 6.67154
53.1271 6.534
53.3267 6.43017
53.5265 6.28285
53.7264 6.1846
53.9266 6.08646
54.1269 6.01735
54.3274 5.88716
54.528 5.67145
54.7289 5.60035
54.9301 5.39102
55.1314 5.28645
55.3328 5.11032
55.5344 4.87472
55.7361 4.71642