File: XRD/Ni3Fe_FD0231.xy
TT I
1.27165 8.29431
1.45013 6.68715
1.62863 6.04776
1.80712 4.6872
1.98562 5.05818
2.16411 4.29024
2.34263 4.85776
2.52115 4.76326
2.69965 6.43437
2.87818 7.97709
3.05672 11.2767
3.23527 15.3898
3.4138 18.7828
3.59237 22.7706
3.77094 25.971
3.9495 29.9893
4.12809 35.0441
4.30669 41.1502
4.4853 48.5653
4.6639 58.4133
4.84253 72.0224
5.02118 96.9474
5.19981 889.884
5.37848 276.147
5.55716 112.413
5.73586 101.313
5.91455 110.498
6.09328 3671.27
6.27201 88.8988
6.45075 71.113
6.62952 64.3695
6.8083 60.5408
6.98711 57.6459
7.16591 57.0889
7.34475 55.7392
7.5236 56.6184
7.70247 58.1295
7.88135 60.246
8.06026 65.3623
8.23919 73.4242
8.41812 90.8754
8.59709 1071.35
8.77609 110.814
8.9551 90.5432
9.13412 87.4549
9.31318 88.6758
9.49226 89.4824
9.67134 95.6996
9.85047 106.857
10.0296 517.951
10.2088 549.274
10.388 115.55
10.5672 447.147
10.7465 92.4926
10.9257 80.8084
11.105 75.0755
11.2844 71.005
11.4637 67.8694
11.6431 66.3069
11.8225 65.4909
12.002 68.7494
12.1814 141.944
12.3609 70.1622
12.5405 67.4382
12.72 69.8224
12.8996 74.7333
13.0792 86.5815
13.2589 230.106
13.4386 149.545
13.6183 227.33
13.7981 110.639
13.9779 80.0877
14.1577 75.4031
14.3376 73.1681
14.5175 72.8018
14.6974 74.5879
14.8774 119.637
15.0574 169.714
15.2374 72.6369
15.4175 69.8444
15.5976 69.9966
15.7778 103.627
15.958 173.911
16.1382 63.7703
16.3185 60.377
16.4988 57.8703
16.6792 56.8927
16.8596 57.5062
17.04 59.4762
17.2205 68.9674
17.401 77.1236
17.5815 62.2076
17.7622 64.4136
17.9428 82.5901
18.1237 139.048
18.3044 90.3222
18.4852 83.5399
18.666 63.5243
18.8469 60.9889
19.0278 59.7505
19.2088 62.9289
19.3898 76.4367
19.5709 56.9283
19.752 56.2536
19.9332 59.4078
20.1144 72.3726
20.2957 64.4149
20.477 56.6942
20.6586 51.975
20.84 51.458
21.0215 51.2479
21.203 52.4668
21.3846 51.6529
21.5662 51.8481
21.7479 55.5521
21.9297 66.8309
22.1115 57.785
22.2933 52.4926
22.4753 50.9997
22.6572 51.8837
22.8393 54.2898
23.0214 59.9157
23.2037 51.4586
23.3859 52.5801
23.5682 57.6411
23.7505 51.0299
23.9329 47.4134
24.1154 46.1137
24.2979 45.4653
24.4805 44.8986
24.6631 44.9091
24.8458 44.496
25.0286 45.1533
25.2114 46.5948
25.3943 46.7301
25.5773 42.9198
25.7605 42.5849
25.9436 42.7329
26.1268 43.6142
26.31 42.1746
26.4933 42.5325
26.6767 43.9386
26.8601 42.41
27.0437 40.7999
27.2272 40.4016
27.4109 40.2842
27.5946 40.3109
27.7784 39.7675
27.9623 39.7894
28.1462 40.4688
28.3304 38.8675
28.5145 37.6823
28.6987 37.2965
28.8829 36.9761
29.0673 36.3084
29.2517 35.9194
29.4361 35.6876
29.6207 34.6822
29.8053 34.4403
29.99 34.1689
30.1748 33.8864
30.3597 33.8057
30.5447 33.5799
30.7297 33.5678
30.915 33.0487
31.1002 32.5675
31.2855 32.2349
31.4708 32.1988
31.6563 31.8474
31.8418 31.4634
32.0275 31.3071
32.2132 30.7322
32.399 30.1895
32.5848 29.7177
32.7708 29.5217
32.9569 29.3762
33.143 29.0933
33.3293 28.6071
33.5158 28.1683
33.7022 27.8188
33.8887 27.5538
34.0753 27.2335
34.262 26.8325
34.4488 26.4985
34.6357 26.1383
34.8227 25.8341
35.0098 25.6214
35.1969 25.2427
35.3842 25.0815
35.5716 24.813
35.759 24.4522
35.9468 24.1901
36.1345 23.9363
36.3222 23.7267
36.5101 23.4722
36.6981 23.1599
36.8861 22.8168
37.0743 22.449
37.2626 22.2681
37.451 21.9979
37.6395 21.7634
37.8281 21.4302
38.0168 21.1128
38.2056 20.7755
38.3945 20.5522
38.5837 20.3666
38.7728 20.038
38.9621 19.794
39.1514 19.6035
39.3409 19.3577
39.5304 19.0021
39.7201 18.9077
39.9099 18.6458
40.0999 18.4075
40.2899 18.1897
40.48 17.8883
40.6703 17.6693
40.8607 17.5247
41.0512 17.2729
41.242 16.9946
41.4327 16.8223
41.6236 16.5108
41.8146 16.3281
42.0057 16.1229
42.1969 15.8956
42.3882 15.6748
42.5797 15.4659
42.7713 15.2923
42.963 15.0602
43.1549 14.8692
43.3468 14.6508
43.5389 14.4263
43.7312 14.2216
43.9237 14.0557
44.1162 13.8285
44.3088 13.6482
44.5016 13.4636
44.6945 13.3087
44.8875 13.1326
45.0806 12.8722
45.2739 12.7727
45.4673 12.5663
45.6609 12.3802
45.8546 12.2614
46.0484 12.0031
46.2424 11.8837
46.4365 11.6863
46.631 11.508
46.8254 11.3616
47.0199 11.1682
47.2146 11.0329
47.4095 10.8167
47.6044 10.642
47.7996 10.5254
47.9948 10.32
48.1902 10.1914
48.3858 10.0703
48.5815 9.94354
48.7774 9.78738
48.9734 9.65676
49.1696 9.50566
49.3661 9.33078
49.5626 9.16488
49.7592 9.05002
49.956 8.95524
50.153 8.80693
50.3501 8.68713
50.5474 8.48957
50.7448 8.37167
50.9424 8.28064
51.1402 8.13304
51.3381 7.96227
51.5362 7.84775
51.7344 7.72875
51.9328 7.60513
52.1316 7.46886
52.3304 7.40911
52.5293 7.25119
52.7284 7.14141
52.9276 7.0199
53.1271 6.87596
53.3267 6.76113
53.5265 6.66635
53.7264 6.50658
53.9266 6.43778
54.1269 6.29778
54.3274 6.16319
54.528 6.01295
54.7289 5.79381
54.9301 5.70602
55.1314 5.55329
55.3328 5.3296
55.5344 5.15278
55.7361 4.96712