File: XRD/Ni3Fe_FD1017.xy
TT I
1.27165 7.25779
1.45013 5.63395
1.62863 4.27008
1.80712 4.39228
1.98562 4.59404
2.16411 4.02178
2.34263 5.6028
2.52115 7.01093
2.69965 8.24718
2.87818 9.45804
3.05672 11.1253
3.23527 15.0906
3.4138 18.4229
3.59237 21.4446
3.77094 24.4002
3.9495 28.3228
4.12809 32.3192
4.30669 58.4492
4.4853 45.9889
4.6639 51.8506
4.84253 63.4504
5.02118 81.9048
5.19981 223.749
5.37848 240.611
5.55716 96.5195
5.73586 86.6646
5.91455 87.3969
6.09328 4329.12
6.27201 75.6321
6.45075 62.7727
6.62952 57.3385
6.8083 53.737
6.98711 51.7453
7.16591 51.2499
7.34475 56.2449
7.5236 62.619
7.70247 52.4724
7.88135 54.0668
8.06026 58.2437
8.23919 64.9256
8.41812 76.5622
8.59709 1041.93
8.77609 94.58
8.9551 81.7073
9.13412 78.1861
9.31318 95.3877
9.49226 80.0476
9.67134 85.0989
9.85047 92.7949
10.0296 312.501
10.2088 461.438
10.388 96.1372
10.5672 487.743
10.7465 87.7207
10.9257 72.8087
11.105 67.2031
11.2844 63.9936
11.4637 61.1767
11.6431 59.8087
11.8225 59.1275
12.002 69.4369
12.1814 142.444
12.3609 63.9393
12.5405 60.446
12.72 62.8961
12.8996 66.973
13.0792 75.8497
13.2589 216.938
13.4386 127.908
13.6183 227.411
13.7981 100.349
13.9779 72.7633
14.1577 78.0811
14.3376 66.6591
14.5175 65.4499
14.6974 66.2485
14.8774 104.272
15.0574 159.373
15.2374 65.6975
15.4175 63.0809
15.5976 62.3314
15.7778 89.7621
15.958 169.666
16.1382 60.0329
16.3185 55.0006
16.4988 52.4973
16.6792 51.7485
16.8596 52.2391
17.04 53.3617
17.2205 63.1776
17.401 71.0535
17.5815 56.4163
17.7622 59.3924
17.9428 70.5857
18.1237 140.525
18.3044 87.0467
18.4852 78.7857
18.666 58.1992
18.8469 55.8632
19.0278 54.2761
19.2088 56.7955
19.3898 75.8722
19.5709 52.3586
19.752 51.1378
19.9332 54.0241
20.1144 69.5104
20.2957 62.475
20.477 52.4058
20.6586 47.6459
20.84 47.4576
21.0215 46.7937
21.203 48.871
21.3846 47.356
21.5662 46.8659
21.7479 50.5934
21.9297 64.7077
22.1115 55.4096
22.2933 48.5672
22.4753 46.9237
22.6572 46.9067
22.8393 50.1691
23.0214 57.0525
23.2037 47.1498
23.3859 48.4916
23.5682 56.5752
23.7505 47.6916
23.9329 43.7456
24.1154 42.6182
24.2979 41.76
24.4805 41.5631
24.6631 41.4854
24.8458 40.6892
25.0286 41.3992
25.2114 43.6821
25.3943 43.9475
25.5773 39.6586
25.7605 39.1011
25.9436 39.5037
26.1268 40.6376
26.31 38.8123
26.4933 39.4641
26.6767 41.3642
26.8601 39.6021
27.0437 37.788
27.2272 37.2123
27.4109 37.3274
27.5946 37.3756
27.7784 36.8748
27.9623 37.5543
28.1462 38.0989
28.3304 36.4284
28.5145 34.9757
28.6987 34.5471
28.8829 34.2812
29.0673 33.7103
29.2517 33.1732
29.4361 33.196
29.6207 32.2089
29.8053 31.9504
29.99 31.5464
30.1748 31.4788
30.3597 31.3718
30.5447 31.2649
30.7297 31.4616
30.915 30.8134
31.1002 30.2996
31.2855 30.0575
31.4708 30.0288
31.6563 29.5311
31.8418 29.3054
32.0275 29.1762
32.2132 28.5728
32.399 28.1687
32.5848 27.7427
32.7708 27.3792
32.9569 27.2847
33.143 27.0593
33.3293 26.7423
33.5158 26.2285
33.7022 25.9024
33.8887 25.6199
34.0753 25.2172
34.262 24.9155
34.4488 24.605
34.6357 24.2335
34.8227 24.0321
35.0098 23.7928
35.1969 23.5073
35.3842 23.3965
35.5716 23.1644
35.759 22.861
35.9468 22.4792
36.1345 22.3126
36.3222 22.0443
36.5101 21.9275
36.6981 21.614
36.8861 21.1972
37.0743 20.8956
37.2626 20.6579
37.451 20.4758
37.6395 20.33
37.8281 19.926
38.0168 19.6242
38.2056 19.4384
38.3945 19.1372
38.5837 18.9255
38.7728 18.6264
38.9621 18.369
39.1514 18.1594
39.3409 17.9604
39.5304 17.7533
39.7201 17.5689
39.9099 17.335
40.0999 17.1117
40.2899 16.9243
40.48 16.691
40.6703 16.4582
40.8607 16.3203
41.0512 16.0669
41.242 15.7611
41.4327 15.6593
41.6236 15.4545
41.8146 15.2346
42.0057 15.0235
42.1969 14.7256
42.3882 14.6598
42.5797 14.4098
42.7713 14.2136
42.963 13.9936
43.1549 13.7867
43.3468 13.6187
43.5389 13.4216
43.7312 13.278
43.9237 13.0808
44.1162 12.9326
44.3088 12.7324
44.5016 12.5127
44.6945 12.4102
44.8875 12.2064
45.0806 12.0632
45.2739 11.8451
45.4673 11.7279
45.6609 11.5208
45.8546 11.394
46.0484 11.257
46.2424 11.019
46.4365 10.8987
46.631 10.7238
46.8254 10.5817
47.0199 10.3958
47.2146 10.2673
47.4095 10.1092
47.6044 9.97062
47.7996 9.83124
47.9948 9.66739
48.1902 9.5416
48.3858 9.36035
48.5815 9.26224
48.7774 9.15737
48.9734 8.9992
49.1696 8.86329
49.3661 8.69172
49.5626 8.57853
49.7592 8.41486
49.956 8.32754
50.153 8.18781
50.3501 8.08268
50.5474 7.98374
50.7448 7.83509
50.9424 7.7137
51.1402 7.57133
51.3381 7.47066
51.5362 7.33455
51.7344 7.23628
51.9328 7.12878
52.1316 7.00249
52.3304 6.86291
52.5293 6.76831
52.7284 6.67056
52.9276 6.5604
53.1271 6.47468
53.3267 6.32699
53.5265 6.16372
53.7264 6.12331
53.9266 6.01259
54.1269 5.87563
54.3274 5.78186
54.528 5.67031
54.7289 5.51919
54.9301 5.32154
55.1314 5.22407
55.3328 5.02386
55.5344 4.84906
55.7361 4.68305