File: XRD/Ni3Fe_FD0403.xy
TT I
1.27165 7.92643
1.45013 6.24269
1.62863 5.31285
1.80712 4.82399
1.98562 4.64556
2.16411 5.10393
2.34263 5.28734
2.52115 6.68229
2.69965 7.46762
2.87818 8.2849
3.05672 10.8847
3.23527 15.0234
3.4138 19.2604
3.59237 24.9148
3.77094 26.8987
3.9495 30.1973
4.12809 35.4885
4.30669 257.879
4.4853 70.0068
4.6639 56.4322
4.84253 68.4041
5.02118 88.9192
5.19981 433.149
5.37848 225.055
5.55716 105.121
5.73586 94.7166
5.91455 97.9867
6.09328 3936.31
6.27201 87.3134
6.45075 69.096
6.62952 64.9055
6.8083 60.4148
6.98711 57.2348
7.16591 57.491
7.34475 101.075
7.5236 56.1762
7.70247 57.5518
7.88135 58.8634
8.06026 63.7651
8.23919 71.023
8.41812 88.0457
8.59709 1093.55
8.77609 104.778
8.9551 94.7644
9.13412 83.7643
9.31318 84.5368
9.49226 86.0859
9.67134 102.254
9.85047 102.171
10.0296 366.026
10.2088 511.4
10.388 107.88
10.5672 480.317
10.7465 89.1982
10.9257 80.4958
11.105 73.5158
11.2844 72.9404
11.4637 66.5095
11.6431 65.0939
11.8225 63.8974
12.002 64.9175
12.1814 145.678
12.3609 74.2462
12.5405 66.1133
12.72 72.5191
12.8996 72.5653
13.0792 80.7131
13.2589 226.663
13.4386 138.413
13.6183 231.692
13.7981 106.904
13.9779 77.3992
14.1577 74.5918
14.3376 73.7267
14.5175 70.3552
14.6974 72.3404
14.8774 111.096
15.0574 165.133
15.2374 73.2936
15.4175 68.0175
15.5976 67.3968
15.7778 95.9809
15.958 170.463
16.1382 64.7979
16.3185 60.3979
16.4988 56.9562
16.6792 55.7153
16.8596 56.4593
17.04 57.1592
17.2205 67.0189
17.401 74.4388
17.5815 60.5535
17.7622 62.7032
17.9428 75.7202
18.1237 137.377
18.3044 89.7459
18.4852 82.61
18.666 61.8519
18.8469 59.5932
19.0278 58.4724
19.2088 61.0554
19.3898 77.2858
19.5709 55.6982
19.752 54.6033
19.9332 57.5014
20.1144 70.9575
20.2957 64.0181
20.477 55.8184
20.6586 51.0671
20.84 50.0559
21.0215 50.0108
21.203 51.7757
21.3846 50.4282
21.5662 49.9768
21.7479 53.6247
21.9297 65.6333
22.1115 57.0923
22.2933 51.4445
22.4753 50.0751
22.6572 50.1745
22.8393 52.9046
23.0214 59.0722
23.2037 49.9695
23.3859 51.0333
23.5682 57.3132
23.7505 50.1176
23.9329 46.395
24.1154 45.2909
24.2979 44.4974
24.4805 43.9982
24.6631 43.971
24.8458 43.232
25.0286 43.9583
25.2114 45.6288
25.3943 45.9634
25.5773 42.028
25.7605 41.5358
25.9436 41.8671
26.1268 42.8895
26.31 41.1675
26.4933 41.6999
26.6767 43.1204
26.8601 41.4904
27.0437 40.0035
27.2272 39.3648
27.4109 39.2445
27.5946 39.3422
27.7784 38.761
27.9623 39.1814
28.1462 39.6916
28.3304 38.288
28.5145 36.8162
28.6987 36.5481
28.8829 36.1935
29.0673 35.6368
29.2517 35.0995
29.4361 34.9935
29.6207 33.971
29.8053 33.6634
29.99 33.4141
30.1748 33.2664
30.3597 33.0131
30.5447 32.8572
30.7297 32.961
30.915 32.4759
31.1002 31.9537
31.2855 31.5953
31.4708 31.5193
31.6563 31.0752
31.8418 30.8158
32.0275 30.6463
32.2132 30.2353
32.399 29.6944
32.5848 29.0644
32.7708 28.8256
32.9569 28.6511
33.143 28.5608
33.3293 28.1147
33.5158 27.7296
33.7022 27.2624
33.8887 26.9209
34.0753 26.6606
34.262 26.2568
34.4488 25.9015
34.6357 25.5985
34.8227 25.1865
35.0098 25.06
35.1969 24.7928
35.3842 24.5531
35.5716 24.3849
35.759 23.9807
35.9468 23.6733
36.1345 23.4337
36.3222 23.2089
36.5101 22.9924
36.6981 22.5772
36.8861 22.3358
37.0743 22.0722
37.2626 21.7838
37.451 21.5029
37.6395 21.3196
37.8281 21.0584
38.0168 20.7149
38.2056 20.4867
38.3945 20.1623
38.5837 19.9373
38.7728 19.6941
38.9621 19.4616
39.1514 19.1842
39.3409 18.9116
39.5304 18.7231
39.7201 18.4644
39.9099 18.2755
40.0999 18.0316
40.2899 17.787
40.48 17.5286
40.6703 17.3717
40.8607 17.126
41.0512 16.9013
41.242 16.6392
41.4327 16.4455
41.6236 16.1957
41.8146 16.1207
42.0057 15.8103
42.1969 15.6041
42.3882 15.4065
42.5797 15.1719
42.7713 14.9801
42.963 14.762
43.1549 14.5009
43.3468 14.3424
43.5389 14.1811
43.7312 13.9965
43.9237 13.8075
44.1162 13.5573
44.3088 13.3945
44.5016 13.2518
44.6945 12.9953
44.8875 12.824
45.0806 12.6253
45.2739 12.4716
45.4673 12.3504
45.6609 12.1164
45.8546 12.0041
46.0484 11.8033
46.2424 11.6315
46.4365 11.4763
46.631 11.2392
46.8254 11.0967
47.0199 10.9843
47.2146 10.8402
47.4095 10.633
47.6044 10.5001
47.7996 10.3146
47.9948 10.1753
48.1902 10.0142
48.3858 9.91777
48.5815 9.76983
48.7774 9.609
48.9734 9.47357
49.1696 9.32046
49.3661 9.15841
49.5626 9.01887
49.7592 8.89084
49.956 8.79757
50.153 8.61387
50.3501 8.4546
50.5474 8.36122
50.7448 8.28514
50.9424 8.12523
51.1402 7.96592
51.3381 7.8696
51.5362 7.74979
51.7344 7.59572
51.9328 7.4634
52.1316 7.35074
52.3304 7.24145
52.5293 7.11851
52.7284 6.94957
52.9276 6.92525
53.1271 6.81524
53.3267 6.65193
53.5265 6.50178
53.7264 6.45261
53.9266 6.3353
54.1269 6.20774
54.3274 6.05797
54.528 5.93091
54.7289 5.82112
54.9301 5.62806
55.1314 5.51651
55.3328 5.27964
55.5344 5.10749
55.7361 4.98211