File: XRD/Ni3Fe_FD0865.xy
TT I
1.27165 6.83227
1.45013 6.03485
1.62863 5.30611
1.80712 4.52402
1.98562 4.19566
2.16411 4.82973
2.34263 5.94343
2.52115 7.28043
2.69965 8.77315
2.87818 8.54759
3.05672 10.922
3.23527 15.2884
3.4138 19.0831
3.59237 23.9494
3.77094 26.3191
3.9495 29.756
4.12809 34.7208
4.30669 233.682
4.4853 67.1455
4.6639 54.6516
4.84253 65.8461
5.02118 85.1704
5.19981 292.692
5.37848 177.738
5.55716 100.021
5.73586 90.4576
5.91455 91.0443
6.09328 4318.45
6.27201 81.5747
6.45075 66.18
6.62952 62.1388
6.8083 57.9626
6.98711 55.1144
7.16591 54.9102
7.34475 93.979
7.5236 54.4023
7.70247 55.6328
7.88135 57.2751
8.06026 61.368
8.23919 68.5107
8.41812 83.6897
8.59709 1132.11
8.77609 97.2618
8.9551 91.0287
9.13412 80.8539
9.31318 80.9628
9.49226 83.0348
9.67134 98.3785
9.85047 97.7875
10.0296 302.191
10.2088 405.019
10.388 102.726
10.5672 522.685
10.7465 85.0646
10.9257 77.5564
11.105 71.0364
11.2844 69.7396
11.4637 63.9684
11.6431 62.4806
11.8225 61.801
12.002 62.2084
12.1814 150.095
12.3609 70.1454
12.5405 63.6886
12.72 69.5055
12.8996 69.6601
13.0792 78.3663
13.2589 228.616
13.4386 123.042
13.6183 243.24
13.7981 96.0122
13.9779 74.5957
14.1577 71.5718
14.3376 70.6633
14.5175 67.735
14.6974 69.2112
14.8774 105.065
15.0574 146.182
15.2374 70.3127
15.4175 65.3695
15.5976 64.8753
15.7778 90.4155
15.958 155.23
16.1382 62.0468
16.3185 57.9955
16.4988 54.702
16.6792 53.7363
16.8596 54.5042
17.04 54.8071
17.2205 65.1768
17.401 70.213
17.5815 58.3556
17.7622 60.178
17.9428 70.8551
18.1237 138.476
18.3044 89.3166
18.4852 76.6378
18.666 59.4606
18.8469 57.1712
19.0278 56.1158
19.2088 58.2646
19.3898 76.0942
19.5709 53.3359
19.752 52.5054
19.9332 55.0434
20.1144 68.932
20.2957 63.7712
20.477 53.2433
20.6586 48.9564
20.84 48.2266
21.0215 47.8868
21.203 50.3179
21.3846 48.3803
21.5662 47.9525
21.7479 51.6404
21.9297 63.861
22.1115 55.6105
22.2933 49.1817
22.4753 48.3335
22.6572 48.0149
22.8393 51.0788
23.0214 56.5593
23.2037 48.0169
23.3859 48.6509
23.5682 56.4985
23.7505 47.7101
23.9329 44.5839
24.1154 43.4996
24.2979 42.804
24.4805 42.409
24.6631 42.3475
24.8458 41.5879
25.0286 42.173
25.2114 44.1232
25.3943 44.07
25.5773 40.4115
25.7605 39.7832
25.9436 40.3127
26.1268 41.1679
26.31 39.5758
26.4933 40.1824
26.6767 41.5884
26.8601 39.9284
27.0437 38.3763
27.2272 37.9226
27.4109 37.7734
27.5946 37.7601
27.7784 37.2938
27.9623 37.9338
28.1462 38.3534
28.3304 36.6419
28.5145 35.3853
28.6987 35.0605
28.8829 34.9183
29.0673 34.2507
29.2517 33.8482
29.4361 33.7541
29.6207 32.7163
29.8053 32.5062
29.99 32.073
30.1748 32.1183
30.3597 31.7577
30.5447 31.747
30.7297 31.7306
30.915 31.264
31.1002 30.6884
31.2855 30.5139
31.4708 30.4208
31.6563 29.9904
31.8418 29.7087
32.0275 29.592
32.2132 29.038
32.399 28.6267
32.5848 28.1346
32.7708 27.7636
32.9569 27.5898
33.143 27.4347
33.3293 26.97
33.5158 26.6938
33.7022 26.2238
33.8887 26.0017
34.0753 25.5811
34.262 25.3743
34.4488 24.9682
34.6357 24.6923
34.8227 24.342
35.0098 24.2069
35.1969 23.8408
35.3842 23.6814
35.5716 23.5149
35.759 23.2012
35.9468 22.8454
36.1345 22.6216
36.3222 22.4096
36.5101 22.1323
36.6981 21.7475
36.8861 21.5431
37.0743 21.218
37.2626 21.0265
37.451 20.7698
37.6395 20.5605
37.8281 20.2398
38.0168 20.0053
38.2056 19.7105
38.3945 19.4351
38.5837 19.1875
38.7728 18.9678
38.9621 18.7268
39.1514 18.5117
39.3409 18.2163
39.5304 18.0251
39.7201 17.8465
39.9099 17.6256
40.0999 17.3723
40.2899 17.1577
40.48 16.9238
40.6703 16.7091
40.8607 16.5193
41.0512 16.3217
41.242 16.0207
41.4327 15.8507
41.6236 15.6042
41.8146 15.5043
42.0057 15.2208
42.1969 15.0364
42.3882 14.8347
42.5797 14.652
42.7713 14.4456
42.963 14.2518
43.1549 14.0743
43.3468 13.855
43.5389 13.6597
43.7312 13.4294
43.9237 13.2788
44.1162 13.1415
44.3088 12.9286
44.5016 12.7644
44.6945 12.5706
44.8875 12.3884
45.0806 12.1841
45.2739 12.0392
45.4673 11.8917
45.6609 11.6607
45.8546 11.5783
46.0484 11.4268
46.2424 11.2291
46.4365 11.1005
46.631 10.8895
46.8254 10.6925
47.0199 10.5415
47.2146 10.4787
47.4095 10.2239
47.6044 10.0982
47.7996 9.99106
47.9948 9.81337
48.1902 9.6811
48.3858 9.56321
48.5815 9.40213
48.7774 9.27061
48.9734 9.12506
49.1696 9.00009
49.3661 8.84454
49.5626 8.71556
49.7592 8.59909
49.956 8.47602
50.153 8.35288
50.3501 8.18436
50.5474 8.05978
50.7448 7.98795
50.9424 7.83297
51.1402 7.71108
51.3381 7.57799
51.5362 7.44484
51.7344 7.34622
51.9328 7.2344
52.1316 7.1065
52.3304 6.99432
52.5293 6.87808
52.7284 6.7762
52.9276 6.60617
53.1271 6.50847
53.3267 6.4361
53.5265 6.23944
53.7264 6.20943
53.9266 6.10348
54.1269 6.00168
54.3274 5.89404
54.528 5.80683
54.7289 5.53465
54.9301 5.44347
55.1314 5.28253
55.3328 5.09756
55.5344 4.90144
55.7361 4.80004