File: XRD/Ni3Fe_FD0551.xy
TT I
1.27165 7.39387
1.45013 6.05259
1.62863 5.01447
1.80712 5.21703
1.98562 4.54635
2.16411 4.85957
2.34263 5.93643
2.52115 6.08446
2.69965 8.13919
2.87818 8.42585
3.05672 11.3796
3.23527 15.2329
3.4138 18.9123
3.59237 23.7308
3.77094 26.3339
3.9495 30.02
4.12809 35.1262
4.30669 182.496
4.4853 63.1837
4.6639 55.9925
4.84253 67.7941
5.02118 88.3398
5.19981 397.631
5.37848 197.75
5.55716 103.333
5.73586 93.3184
5.91455 96.2894
6.09328 4377.64
6.27201 83.1484
6.45075 67.3786
6.62952 62.9178
6.8083 58.4689
6.98711 55.9624
7.16591 55.4868
7.34475 85.1162
7.5236 54.7666
7.70247 56.3312
7.88135 58.3476
8.06026 62.905
8.23919 70.117
8.41812 86.0373
8.59709 1220.76
8.77609 100.331
8.9551 91.0381
9.13412 82.7278
9.31318 82.8726
9.49226 85.2745
9.67134 98.069
9.85047 100.71
10.0296 365.999
10.2088 386.026
10.388 105.759
10.5672 514.126
10.7465 87.1409
10.9257 78.6995
11.105 72.1169
11.2844 70.6175
11.4637 65.3247
11.6431 64.0117
11.8225 62.7547
12.002 64.34
12.1814 153.082
12.3609 69.9545
12.5405 64.8972
12.72 70.0309
12.8996 71.6822
13.0792 79.9243
13.2589 245.873
13.4386 122.215
13.6183 254.391
13.7981 96.6803
13.9779 76.2167
14.1577 73.0011
14.3376 71.8461
14.5175 69.3491
14.6974 71.048
14.8774 113.828
15.0574 147.188
15.2374 71.128
15.4175 66.9112
15.5976 66.5382
15.7778 97.437
15.958 154.506
16.1382 62.8474
16.3185 58.8525
16.4988 55.8459
16.6792 54.9222
16.8596 55.5095
17.04 56.2781
17.2205 67.4851
17.401 71.2714
17.5815 59.502
17.7622 61.8819
17.9428 74.9502
18.1237 141.538
18.3044 91.3244
18.4852 77.3568
18.666 60.8192
18.8469 58.5729
19.0278 57.0307
19.2088 60.2694
19.3898 76.7107
19.5709 54.5069
19.752 53.8313
19.9332 56.9305
20.1144 70.4741
20.2957 64.2994
20.477 53.5909
20.6586 50.0972
20.84 49.1804
21.0215 49.0503
21.203 51.3234
21.3846 49.2981
21.5662 49.201
21.7479 53.3518
21.9297 65.1341
22.1115 56.3886
22.2933 50.1172
22.4753 49.1673
22.6572 49.412
22.8393 52.5875
23.0214 57.8451
23.2037 49.1738
23.3859 50.2957
23.5682 57.5124
23.7505 48.4902
23.9329 45.4588
24.1154 44.3128
24.2979 43.7638
24.4805 43.3714
24.6631 43.1308
24.8458 42.511
25.0286 43.2664
25.2114 44.9128
25.3943 44.9616
25.5773 41.2129
25.7605 40.6357
25.9436 41.29
26.1268 41.9764
26.31 40.4697
26.4933 41.14
26.6767 42.4913
26.8601 40.8247
27.0437 39.1032
27.2272 38.9096
27.4109 38.7319
27.5946 38.6858
27.7784 38.1506
27.9623 38.6858
28.1462 39.114
28.3304 37.4205
28.5145 36.1751
28.6987 35.8334
28.8829 35.6901
29.0673 34.8811
29.2517 34.6576
29.4361 34.3496
29.6207 33.331
29.8053 33.125
29.99 32.8399
30.1748 32.6133
30.3597 32.4354
30.5447 32.4015
30.7297 32.4866
30.915 31.8547
31.1002 31.3316
31.2855 31.1273
31.4708 30.9417
31.6563 30.6042
31.8418 30.3747
32.0275 30.0866
32.2132 29.5548
32.399 29.2027
32.5848 28.712
32.7708 28.303
32.9569 28.2245
33.143 27.922
33.3293 27.6013
33.5158 27.2307
33.7022 26.7258
33.8887 26.4537
34.0753 26.0676
34.262 25.8747
34.4488 25.4972
34.6357 25.1158
34.8227 24.8602
35.0098 24.6939
35.1969 24.3451
35.3842 24.1364
35.5716 23.9605
35.759 23.6309
35.9468 23.3053
36.1345 23.0667
36.3222 22.7423
36.5101 22.5589
36.6981 22.3271
36.8861 21.9247
37.0743 21.64
37.2626 21.392
37.451 21.1407
37.6395 20.9549
37.8281 20.6067
38.0168 20.391
38.2056 20.0426
38.3945 19.83
38.5837 19.584
38.7728 19.3528
38.9621 19.0776
39.1514 18.8329
39.3409 18.5661
39.5304 18.3596
39.7201 18.1492
39.9099 17.9916
40.0999 17.6828
40.2899 17.5013
40.48 17.2667
40.6703 17.1057
40.8607 16.9016
41.0512 16.6184
41.242 16.387
41.4327 16.1717
41.6236 15.9406
41.8146 15.7981
42.0057 15.5455
42.1969 15.3077
42.3882 15.1243
42.5797 14.9535
42.7713 14.737
42.963 14.507
43.1549 14.3381
43.3468 14.1025
43.5389 13.965
43.7312 13.7504
43.9237 13.5783
44.1162 13.3514
44.3088 13.1621
44.5016 12.9781
44.6945 12.8116
44.8875 12.6315
45.0806 12.4611
45.2739 12.2581
45.4673 12.1569
45.6609 11.8886
45.8546 11.7965
46.0484 11.6148
46.2424 11.4778
46.4365 11.2853
46.631 11.1283
46.8254 10.9532
47.0199 10.7666
47.2146 10.623
47.4095 10.4837
47.6044 10.3283
47.7996 10.1678
47.9948 10.019
48.1902 9.86736
48.3858 9.73753
48.5815 9.56019
48.7774 9.46893
48.9734 9.31297
49.1696 9.17749
49.3661 9.02537
49.5626 8.86812
49.7592 8.75765
49.956 8.61614
50.153 8.45267
50.3501 8.35229
50.5474 8.22848
50.7448 8.101
50.9424 7.9893
51.1402 7.86202
51.3381 7.72141
51.5362 7.58981
51.7344 7.48945
51.9328 7.33831
52.1316 7.21226
52.3304 7.08464
52.5293 6.99277
52.7284 6.90091
52.9276 6.76651
53.1271 6.67392
53.3267 6.57803
53.5265 6.44305
53.7264 6.35596
53.9266 6.19505
54.1269 6.07056
54.3274 5.98823
54.528 5.82072
54.7289 5.68164
54.9301 5.50047
55.1314 5.34791
55.3328 5.1433
55.5344 4.97594
55.7361 4.87092