File: XRD/Ni3Fe_FD0726.xy
TT I
1.27165 7.43645
1.45013 6.30569
1.62863 5.00792
1.80712 4.70204
1.98562 3.92138
2.16411 4.91403
2.34263 5.57459
2.52115 7.07277
2.69965 7.30234
2.87818 8.34919
3.05672 10.9955
3.23527 14.9796
3.4138 18.9547
3.59237 23.4108
3.77094 25.929
3.9495 29.6791
4.12809 34.9385
4.30669 186.178
4.4853 62.1833
4.6639 55.2087
4.84253 66.9199
5.02118 86.5646
5.19981 336.756
5.37848 186.014
5.55716 102.002
5.73586 91.7488
5.91455 93.7491
6.09328 4449.7
6.27201 81.9291
6.45075 66.8958
6.62952 62.3074
6.8083 58.1577
6.98711 55.5233
7.16591 55.0432
7.34475 84.3526
7.5236 54.4274
7.70247 55.9032
7.88135 57.9248
8.06026 61.9105
8.23919 69.1561
8.41812 84.3007
8.59709 1189.9
8.77609 98.6577
8.9551 90.1824
9.13412 81.6502
9.31318 82.3329
9.49226 84.2337
9.67134 96.4939
9.85047 99.2074
10.0296 339.086
10.2088 409.521
10.388 103.732
10.5672 516.0
10.7465 86.2846
10.9257 77.7353
11.105 71.5363
11.2844 69.7437
11.4637 64.589
11.6431 63.3612
11.8225 62.0478
12.002 63.2117
12.1814 154.733
12.3609 69.4171
12.5405 64.1187
12.72 68.7734
12.8996 70.4687
13.0792 78.5616
13.2589 242.151
13.4386 126.848
13.6183 251.599
13.7981 97.2521
13.9779 75.504
14.1577 71.947
14.3376 71.0273
14.5175 68.7183
14.6974 70.0791
14.8774 111.229
15.0574 147.572
15.2374 70.3438
15.4175 65.9693
15.5976 65.4271
15.7778 94.8819
15.958 153.283
16.1382 62.0301
16.3185 58.2213
16.4988 55.2995
16.6792 54.3077
16.8596 54.8445
17.04 55.2596
17.2205 66.7232
17.401 70.7976
17.5815 58.9864
17.7622 61.095
17.9428 73.2313
18.1237 138.66
18.3044 90.9507
18.4852 77.1989
18.666 60.218
18.8469 57.9058
19.0278 56.4947
19.2088 59.3638
19.3898 75.5514
19.5709 54.0396
19.752 53.1184
19.9332 56.0912
20.1144 69.2323
20.2957 63.8416
20.477 53.6854
20.6586 49.478
20.84 48.5802
21.0215 48.4638
21.203 50.8165
21.3846 48.8432
21.5662 48.6791
21.7479 52.5411
21.9297 64.3712
22.1115 55.9092
22.2933 49.8696
22.4753 48.6821
22.6572 48.734
22.8393 51.9356
23.0214 56.9461
23.2037 48.6395
23.3859 49.6223
23.5682 56.9859
23.7505 48.3638
23.9329 45.0173
24.1154 43.8818
24.2979 43.3229
24.4805 42.8111
24.6631 42.7809
24.8458 42.0953
25.0286 42.8338
25.2114 44.4598
25.3943 44.4
25.5773 40.7868
25.7605 40.3427
25.9436 40.7686
26.1268 41.6036
26.31 39.9557
26.4933 40.5071
26.6767 42.0831
26.8601 40.1254
27.0437 38.824
27.2272 38.4311
27.4109 38.2729
27.5946 38.1874
27.7784 37.8796
27.9623 38.3405
28.1462 38.7248
28.3304 37.0752
28.5145 35.746
28.6987 35.6276
28.8829 35.3779
29.0673 34.5902
29.2517 34.2037
29.4361 34.0359
29.6207 33.1209
29.8053 32.7234
29.99 32.5245
30.1748 32.4411
30.3597 32.1621
30.5447 32.119
30.7297 32.1224
30.915 31.5428
31.1002 31.0239
31.2855 30.8552
31.4708 30.6596
31.6563 30.3256
31.8418 30.1079
32.0275 29.8362
32.2132 29.3102
32.399 28.8499
32.5848 28.3417
32.7708 28.0305
32.9569 27.9106
33.143 27.7212
33.3293 27.3394
33.5158 26.9656
33.7022 26.5844
33.8887 26.1569
34.0753 25.8835
34.262 25.6601
34.4488 25.2408
34.6357 24.9985
34.8227 24.5703
35.0098 24.381
35.1969 24.1037
35.3842 23.8211
35.5716 23.652
35.759 23.3552
35.9468 23.0892
36.1345 22.8313
36.3222 22.6248
36.5101 22.3922
36.6981 22.0426
36.8861 21.7636
37.0743 21.4235
37.2626 21.1689
37.451 20.8964
37.6395 20.7407
37.8281 20.3938
38.0168 20.1981
38.2056 19.9124
38.3945 19.6141
38.5837 19.3898
38.7728 19.173
38.9621 18.8921
39.1514 18.6651
39.3409 18.4602
39.5304 18.2184
39.7201 17.9791
39.9099 17.8041
40.0999 17.567
40.2899 17.3005
40.48 17.1135
40.6703 16.884
40.8607 16.7327
41.0512 16.4898
41.242 16.205
41.4327 16.0475
41.6236 15.8206
41.8146 15.6321
42.0057 15.3355
42.1969 15.1533
42.3882 14.9773
42.5797 14.7943
42.7713 14.5531
42.963 14.3805
43.1549 14.151
43.3468 14.0142
43.5389 13.829
43.7312 13.6149
43.9237 13.397
44.1162 13.2653
44.3088 13.0703
44.5016 12.8558
44.6945 12.6888
44.8875 12.5347
45.0806 12.3324
45.2739 12.2244
45.4673 11.9583
45.6609 11.8204
45.8546 11.6554
46.0484 11.5077
46.2424 11.3493
46.4365 11.1861
46.631 10.9826
46.8254 10.8235
47.0199 10.6853
47.2146 10.5106
47.4095 10.3554
47.6044 10.1983
47.7996 10.0524
47.9948 9.89946
48.1902 9.75929
48.3858 9.62332
48.5815 9.50861
48.7774 9.33833
48.9734 9.21714
49.1696 9.09057
49.3661 8.93507
49.5626 8.79516
49.7592 8.68347
49.956 8.55363
50.153 8.4278
50.3501 8.30048
50.5474 8.1472
50.7448 8.0483
50.9424 7.89837
51.1402 7.77857
51.3381 7.66687
51.5362 7.53619
51.7344 7.41433
51.9328 7.27714
52.1316 7.18713
52.3304 7.05261
52.5293 6.90745
52.7284 6.80397
52.9276 6.73585
53.1271 6.59329
53.3267 6.51349
53.5265 6.35168
53.7264 6.29875
53.9266 6.13075
54.1269 6.02892
54.3274 5.92113
54.528 5.81349
54.7289 5.65887
54.9301 5.45879
55.1314 5.33053
55.3328 5.13167
55.5344 4.94284
55.7361 4.79356