File: XRD/Ni3Fe_FD0794.xy
TT I
1.27165 7.25865
1.45013 5.86494
1.62863 5.42605
1.80712 4.8525
1.98562 4.85792
2.16411 4.95063
2.34263 6.49453
2.52115 7.51564
2.69965 7.77362
2.87818 8.82308
3.05672 11.3005
3.23527 15.2245
3.4138 18.8507
3.59237 23.0758
3.77094 25.829
3.9495 29.9752
4.12809 34.345
4.30669 140.711
4.4853 57.656
4.6639 55.0153
4.84253 67.7735
5.02118 86.661
5.19981 369.633
5.37848 179.696
5.55716 101.329
5.73586 91.7305
5.91455 94.121
6.09328 4542.01
6.27201 80.2155
6.45075 67.3896
6.62952 62.1562
6.8083 58.1571
6.98711 55.0312
7.16591 55.0733
7.34475 75.6638
7.5236 54.0788
7.70247 55.7856
7.88135 57.3642
8.06026 61.8399
8.23919 68.8599
8.41812 84.0727
8.59709 1205.67
8.77609 97.1461
8.9551 88.7788
9.13412 81.8246
9.31318 82.6448
9.49226 84.1771
9.67134 95.046
9.85047 99.0359
10.0296 345.366
10.2088 344.312
10.388 103.802
10.5672 538.025
10.7465 85.7699
10.9257 77.2912
11.105 70.9636
11.2844 68.4252
11.4637 64.181
11.6431 62.8065
11.8225 62.1313
12.002 63.4032
12.1814 157.39
12.3609 67.0144
12.5405 63.9979
12.72 67.9677
12.8996 70.5085
13.0792 79.0499
13.2589 246.695
13.4386 117.174
13.6183 257.093
13.7981 92.6868
13.9779 75.1262
14.1577 71.4894
14.3376 70.0763
14.5175 68.2134
14.6974 69.8305
14.8774 111.442
15.0574 140.414
15.2374 69.5224
15.4175 65.6956
15.5976 65.287
15.7778 94.6227
15.958 146.785
16.1382 61.1391
16.3185 57.5208
16.4988 54.7914
16.6792 53.7391
16.8596 54.4654
17.04 55.4608
17.2205 66.9077
17.401 68.8581
17.5815 58.546
17.7622 60.7476
17.9428 73.1697
18.1237 141.3
18.3044 91.1171
18.4852 73.9801
18.666 59.7196
18.8469 57.4444
19.0278 56.2679
19.2088 58.7196
19.3898 75.6618
19.5709 53.5192
19.752 53.0502
19.9332 55.4859
20.1144 69.5584
20.2957 63.9571
20.477 52.491
20.6586 49.2929
20.84 48.3202
21.0215 48.1001
21.203 50.3935
21.3846 48.3367
21.5662 48.3906
21.7479 52.3647
21.9297 64.2926
22.1115 55.9173
22.2933 49.1009
22.4753 48.2954
22.6572 48.3465
22.8393 51.6155
23.0214 56.4574
23.2037 48.2445
23.3859 49.3644
23.5682 57.0539
23.7505 47.3427
23.9329 44.6972
24.1154 43.6391
24.2979 42.9905
24.4805 42.6617
24.6631 42.3725
24.8458 41.8145
25.0286 42.4263
25.2114 44.0951
25.3943 44.1172
25.5773 40.5406
25.7605 40.034
25.9436 40.4403
26.1268 41.4029
26.31 39.6034
26.4933 40.41
26.6767 41.7964
26.8601 40.009
27.0437 38.4553
27.2272 38.1895
27.4109 37.9449
27.5946 38.1041
27.7784 37.5776
27.9623 38.0816
28.1462 38.3995
28.3304 36.6731
28.5145 35.5351
28.6987 35.2673
28.8829 35.0816
29.0673 34.247
29.2517 33.9434
29.4361 33.7376
29.6207 32.7747
29.8053 32.4924
29.99 32.2556
30.1748 32.0523
30.3597 31.9214
30.5447 31.8607
30.7297 31.9501
30.915 31.2395
31.1002 30.8848
31.2855 30.5345
31.4708 30.455
31.6563 29.94
31.8418 29.79
32.0275 29.6173
32.2132 28.9685
32.399 28.6192
32.5848 28.2427
32.7708 27.8489
32.9569 27.7832
33.143 27.5247
33.3293 27.0775
33.5158 26.7559
33.7022 26.2838
33.8887 26.0305
34.0753 25.7006
34.262 25.465
34.4488 25.0186
34.6357 24.6954
34.8227 24.4665
35.0098 24.2507
35.1969 23.916
35.3842 23.713
35.5716 23.5506
35.759 23.1457
35.9468 22.8418
36.1345 22.7022
36.3222 22.391
36.5101 22.2311
36.6981 21.8454
36.8861 21.5655
37.0743 21.3345
37.2626 21.0588
37.451 20.7906
37.6395 20.5952
37.8281 20.3228
38.0168 19.978
38.2056 19.7437
38.3945 19.4309
38.5837 19.2308
38.7728 18.9896
38.9621 18.7322
39.1514 18.5368
39.3409 18.2852
39.5304 18.0879
39.7201 17.8408
39.9099 17.6303
40.0999 17.4052
40.2899 17.239
40.48 16.9224
40.6703 16.7416
40.8607 16.5706
41.0512 16.3297
41.242 16.0829
41.4327 15.8741
41.6236 15.6619
41.8146 15.5252
42.0057 15.2585
42.1969 15.0541
42.3882 14.9122
42.5797 14.6102
42.7713 14.4462
42.963 14.24
43.1549 14.1099
43.3468 13.8676
43.5389 13.7007
43.7312 13.5327
43.9237 13.3495
44.1162 13.1214
44.3088 13.0035
44.5016 12.8038
44.6945 12.6156
44.8875 12.4219
45.0806 12.2186
45.2739 12.1128
45.4673 11.9058
45.6609 11.7627
45.8546 11.5793
46.0484 11.4285
46.2424 11.2608
46.4365 11.1165
46.631 10.9396
46.8254 10.7488
47.0199 10.5934
47.2146 10.447
47.4095 10.2898
47.6044 10.1557
47.7996 9.94639
47.9948 9.80954
48.1902 9.7022
48.3858 9.54896
48.5815 9.44472
48.7774 9.29832
48.9734 9.14155
49.1696 9.00634
49.3661 8.84609
49.5626 8.70458
49.7592 8.61057
49.956 8.4695
50.153 8.40452
50.3501 8.22941
50.5474 8.07441
50.7448 7.98318
50.9424 7.84983
51.1402 7.71859
51.3381 7.61305
51.5362 7.48071
51.7344 7.35241
51.9328 7.20924
52.1316 7.10974
52.3304 6.97319
52.5293 6.88665
52.7284 6.73662
52.9276 6.67561
53.1271 6.52266
53.3267 6.40883
53.5265 6.28787
53.7264 6.21731
53.9266 6.12579
54.1269 5.98483
54.3274 5.86863
54.528 5.74308
54.7289 5.60222
54.9301 5.45898
55.1314 5.34096
55.3328 5.10775
55.5344 4.92178
55.7361 4.78901