File: XRD/Ni3Fe_FD0815.xy
TT I
1.27165 7.05047
1.45013 6.39605
1.62863 4.84002
1.80712 4.43903
1.98562 4.74682
2.16411 4.65302
2.34263 5.26468
2.52115 7.30456
2.69965 7.87369
2.87818 9.18113
3.05672 11.0017
3.23527 14.9662
3.4138 19.1073
3.59237 22.7761
3.77094 25.4723
3.9495 29.2335
4.12809 34.2382
4.30669 106.963
4.4853 53.5231
4.6639 54.9472
4.84253 68.4405
5.02118 86.8353
5.19981 399.324
5.37848 190.993
5.55716 101.556
5.73586 92.4159
5.91455 94.6659
6.09328 4602.28
6.27201 79.6178
6.45075 69.1492
6.62952 62.4309
6.8083 59.1694
6.98711 54.8965
7.16591 55.6041
7.34475 67.8743
7.5236 53.939
7.70247 56.3927
7.88135 57.2527
8.06026 62.1023
8.23919 68.8418
8.41812 83.1261
8.59709 1221.61
8.77609 97.0345
8.9551 88.9155
9.13412 82.5238
9.31318 84.3109
9.49226 84.3336
9.67134 94.7173
9.85047 100.669
10.0296 343.199
10.2088 347.394
10.388 104.653
10.5672 537.958
10.7465 85.2229
10.9257 77.47
11.105 70.893
11.2844 67.7167
11.4637 64.0034
11.6431 62.9815
11.8225 61.8685
12.002 63.7335
12.1814 160.247
12.3609 66.1178
12.5405 64.5846
12.72 67.4683
12.8996 70.5999
13.0792 79.709
13.2589 248.786
13.4386 117.649
13.6183 258.913
13.7981 93.1718
13.9779 74.9725
14.1577 71.1786
14.3376 69.6628
14.5175 68.2863
14.6974 70.1655
14.8774 111.854
15.0574 140.39
15.2374 68.6967
15.4175 65.5687
15.5976 65.661
15.7778 95.5976
15.958 145.952
16.1382 61.0239
16.3185 57.3795
16.4988 54.8001
16.6792 53.7364
16.8596 54.2718
17.04 55.3544
17.2205 66.8564
17.401 68.2919
17.5815 58.674
17.7622 60.6782
17.9428 73.1599
18.1237 141.286
18.3044 91.2771
18.4852 73.8979
18.666 59.6534
18.8469 57.4145
19.0278 56.2869
19.2088 58.6733
19.3898 75.6846
19.5709 53.5143
19.752 52.7211
19.9332 55.8332
20.1144 69.8025
20.2957 64.0103
20.477 52.4493
20.6586 49.0741
20.84 48.3426
21.0215 48.0442
21.203 50.603
21.3846 48.327
21.5662 48.4662
21.7479 52.1869
21.9297 63.992
22.1115 55.8019
22.2933 49.0873
22.4753 48.1256
22.6572 48.4127
22.8393 51.6982
23.0214 56.411
23.2037 48.2894
23.3859 49.4412
23.5682 56.9303
23.7505 47.4297
23.9329 44.7626
24.1154 43.6003
24.2979 42.9175
24.4805 42.3771
24.6631 42.3435
24.8458 41.6745
25.0286 42.5137
25.2114 44.2656
25.3943 44.0747
25.5773 40.458
25.7605 40.1118
25.9436 40.351
26.1268 41.2181
26.31 39.5326
26.4933 40.3731
26.6767 41.7356
26.8601 40.0221
27.0437 38.5716
27.2272 38.2275
27.4109 38.0335
27.5946 38.0136
27.7784 37.3852
27.9623 38.0499
28.1462 38.3707
28.3304 36.6493
28.5145 35.5637
28.6987 35.2681
28.8829 35.0024
29.0673 34.2319
29.2517 33.9035
29.4361 33.6809
29.6207 32.6567
29.8053 32.5199
29.99 32.1834
30.1748 32.1344
30.3597 31.8675
30.5447 31.8707
30.7297 31.8737
30.915 31.2836
31.1002 30.9067
31.2855 30.526
31.4708 30.4607
31.6563 30.0477
31.8418 29.8538
32.0275 29.6221
32.2132 29.0507
32.399 28.579
32.5848 28.2124
32.7708 27.9149
32.9569 27.6744
33.143 27.5601
33.3293 27.133
33.5158 26.6324
33.7022 26.3181
33.8887 26.1067
34.0753 25.647
34.262 25.4041
34.4488 25.0757
34.6357 24.6385
34.8227 24.4555
35.0098 24.3213
35.1969 23.9902
35.3842 23.7662
35.5716 23.551
35.759 23.226
35.9468 22.8762
36.1345 22.7159
36.3222 22.4519
36.5101 22.1358
36.6981 21.9331
36.8861 21.5354
37.0743 21.2888
37.2626 21.1091
37.451 20.7613
37.6395 20.6279
37.8281 20.2921
38.0168 19.9989
38.2056 19.7565
38.3945 19.4829
38.5837 19.2497
38.7728 19.0671
38.9621 18.6933
39.1514 18.5465
39.3409 18.2372
39.5304 18.0521
39.7201 17.8848
39.9099 17.6597
40.0999 17.3974
40.2899 17.1985
40.48 16.8821
40.6703 16.8177
40.8607 16.5225
41.0512 16.3366
41.242 16.0196
41.4327 15.8659
41.6236 15.6782
41.8146 15.4823
42.0057 15.294
42.1969 15.0487
42.3882 14.8894
42.5797 14.6918
42.7713 14.459
42.963 14.26
43.1549 14.0536
43.3468 13.8933
43.5389 13.71
43.7312 13.5378
43.9237 13.3315
44.1162 13.1121
44.3088 12.9359
44.5016 12.7786
44.6945 12.6279
44.8875 12.3798
45.0806 12.2047
45.2739 12.0686
45.4673 11.9258
45.6609 11.6818
45.8546 11.5595
46.0484 11.4095
46.2424 11.1883
46.4365 11.0545
46.631 10.9154
46.8254 10.7593
47.0199 10.6277
47.2146 10.4717
47.4095 10.256
47.6044 10.141
47.7996 9.9899
47.9948 9.82713
48.1902 9.67707
48.3858 9.58193
48.5815 9.42406
48.7774 9.27299
48.9734 9.11468
49.1696 8.98789
49.3661 8.85764
49.5626 8.74752
49.7592 8.63368
49.956 8.45112
50.153 8.35069
50.3501 8.17447
50.5474 8.10709
50.7448 7.96194
50.9424 7.84845
51.1402 7.71232
51.3381 7.60045
51.5362 7.48065
51.7344 7.36044
51.9328 7.22267
52.1316 7.10588
52.3304 6.98542
52.5293 6.88514
52.7284 6.74788
52.9276 6.65246
53.1271 6.54936
53.3267 6.42277
53.5265 6.28901
53.7264 6.24132
53.9266 6.09379
54.1269 5.96973
54.3274 5.88471
54.528 5.73539
54.7289 5.59214
54.9301 5.44047
55.1314 5.26772
55.3328 5.05278
55.5344 4.90643
55.7361 4.79013