File: XRD/Ni3Fe_FD1027.xy
TT I
1.27165 6.86377
1.45013 5.2397
1.62863 4.94399
1.80712 4.88872
1.98562 4.34563
2.16411 4.10935
2.34263 5.56306
2.52115 8.13291
2.69965 8.86302
2.87818 9.27297
3.05672 10.8483
3.23527 14.9344
3.4138 17.7509
3.59237 21.1143
3.77094 24.4383
3.9495 28.1012
4.12809 32.3735
4.30669 58.0639
4.4853 46.1876
4.6639 52.0597
4.84253 63.6899
5.02118 82.9324
5.19981 227.704
5.37848 225.948
5.55716 96.8997
5.73586 87.5741
5.91455 88.2158
6.09328 4423.01
6.27201 75.1612
6.45075 63.0503
6.62952 57.443
6.8083 54.1002
6.98711 52.3614
7.16591 51.5931
7.34475 56.0428
7.5236 61.0438
7.70247 52.8019
7.88135 54.5389
8.06026 58.8674
8.23919 65.2531
8.41812 77.248
8.59709 1061.18
8.77609 94.4935
8.9551 82.1134
9.13412 79.0013
9.31318 92.0783
9.49226 80.6021
9.67134 85.9336
9.85047 93.0902
10.0296 333.063
10.2088 452.706
10.388 97.1299
10.5672 499.803
10.7465 86.8788
10.9257 72.9967
11.105 67.9003
11.2844 64.4294
11.4637 61.5008
11.6431 60.2697
11.8225 59.316
12.002 67.9665
12.1814 145.434
12.3609 64.1644
12.5405 60.967
12.72 63.4439
12.8996 67.3836
13.0792 76.2418
13.2589 222.214
13.4386 127.339
13.6183 232.241
13.7981 100.208
13.9779 73.1607
14.1577 76.6295
14.3376 66.5318
14.5175 65.9784
14.6974 67.0136
14.8774 107.003
15.0574 159.919
15.2374 65.9982
15.4175 63.7752
15.5976 63.179
15.7778 92.1704
15.958 167.78
16.1382 59.6649
16.3185 55.2103
16.4988 53.1762
16.6792 52.1215
16.8596 52.4752
17.04 53.524
17.2205 64.1089
17.401 71.3817
17.5815 56.9604
17.7622 59.8091
17.9428 72.0233
18.1237 141.268
18.3044 88.0429
18.4852 78.8802
18.666 58.6327
18.8469 55.9711
19.0278 54.6601
19.2088 57.501
19.3898 75.9187
19.5709 52.7039
19.752 51.4622
19.9332 54.6026
20.1144 69.9332
20.2957 62.8771
20.477 52.699
20.6586 48.1066
20.84 47.8117
21.0215 46.971
21.203 49.2552
21.3846 47.5527
21.5662 47.2367
21.7479 51.081
21.9297 65.0165
22.1115 55.6616
22.2933 48.7076
22.4753 47.1832
22.6572 47.3005
22.8393 50.7166
23.0214 57.342
23.2037 47.4654
23.3859 48.9047
23.5682 56.8767
23.7505 47.7893
23.9329 44.0692
24.1154 42.7717
24.2979 42.2682
24.4805 41.725
24.6631 41.7415
24.8458 41.021
25.0286 41.7164
25.2114 43.9637
25.3943 44.126
25.5773 39.9696
25.7605 39.4316
25.9436 39.8019
26.1268 41.0911
26.31 39.0462
26.4933 39.7479
26.6767 41.6847
26.8601 39.9067
27.0437 38.1017
27.2272 37.5801
27.4109 37.4605
27.5946 37.6028
27.7784 37.1068
27.9623 37.644
28.1462 38.4776
28.3304 36.5764
28.5145 35.1731
28.6987 34.7993
28.8829 34.5278
29.0673 33.8146
29.2517 33.3696
29.4361 33.3805
29.6207 32.2881
29.8053 32.0832
29.99 31.8251
30.1748 31.8161
30.3597 31.581
30.5447 31.4564
30.7297 31.5638
30.915 31.0431
31.1002 30.5073
31.2855 30.2297
31.4708 30.2649
31.6563 29.6974
31.8418 29.5319
32.0275 29.3091
32.2132 28.7628
32.399 28.2086
32.5848 27.8388
32.7708 27.5244
32.9569 27.3676
33.143 27.2387
33.3293 26.7393
33.5158 26.416
33.7022 25.9953
33.8887 25.7316
34.0753 25.3748
34.262 25.1315
34.4488 24.7597
34.6357 24.322
34.8227 24.1876
35.0098 23.9203
35.1969 23.6115
35.3842 23.5272
35.5716 23.331
35.759 22.961
35.9468 22.6283
36.1345 22.3942
36.3222 22.2621
36.5101 21.9158
36.6981 21.6589
36.8861 21.2412
37.0743 21.069
37.2626 20.7923
37.451 20.5403
37.6395 20.4577
37.8281 20.0178
38.0168 19.8445
38.2056 19.5058
38.3945 19.3321
38.5837 19.0295
38.7728 18.8045
38.9621 18.5935
39.1514 18.3671
39.3409 18.1021
39.5304 17.8038
39.7201 17.7344
39.9099 17.4717
40.0999 17.245
40.2899 16.9386
40.48 16.7344
40.6703 16.5852
40.8607 16.4282
41.0512 16.1332
41.242 15.9182
41.4327 15.7237
41.6236 15.4958
41.8146 15.299
42.0057 15.0818
42.1969 14.8976
42.3882 14.7801
42.5797 14.4567
42.7713 14.3082
42.963 14.1219
43.1549 13.9193
43.3468 13.6978
43.5389 13.486
43.7312 13.3656
43.9237 13.1964
44.1162 13.0154
44.3088 12.7955
44.5016 12.6231
44.6945 12.4613
44.8875 12.3312
45.0806 12.1152
45.2739 11.9174
45.4673 11.8023
45.6609 11.6007
45.8546 11.4705
46.0484 11.3133
46.2424 11.1389
46.4365 10.9935
46.631 10.8092
46.8254 10.6304
47.0199 10.4852
47.2146 10.3397
47.4095 10.1496
47.6044 10.0319
47.7996 9.88011
47.9948 9.74121
48.1902 9.59471
48.3858 9.45501
48.5815 9.30878
48.7774 9.19826
48.9734 9.04362
49.1696 8.87561
49.3661 8.78264
49.5626 8.63664
49.7592 8.51599
49.956 8.37525
50.153 8.26868
50.3501 8.10792
50.5474 8.00439
50.7448 7.91593
50.9424 7.77855
51.1402 7.62809
51.3381 7.53178
51.5362 7.44048
51.7344 7.27206
51.9328 7.12235
52.1316 7.01348
52.3304 6.92712
52.5293 6.77404
52.7284 6.72978
52.9276 6.58288
53.1271 6.4999
53.3267 6.37261
53.5265 6.23215
53.7264 6.13182
53.9266 6.03503
54.1269 5.93
54.3274 5.82106
54.528 5.68729
54.7289 5.52373
54.9301 5.34434
55.1314 5.21091
55.3328 5.07279
55.5344 4.8631
55.7361 4.69781