File: XRD/Ni3Fe_FD0349.xy
TT I
1.27165 7.98748
1.45013 6.13719
1.62863 4.78725
1.80712 5.28712
1.98562 4.57021
2.16411 4.90836
2.34263 5.34916
2.52115 5.70809
2.69965 7.82847
2.87818 8.4411
3.05672 11.7102
3.23527 15.0678
3.4138 19.1353
3.59237 23.3616
3.77094 26.4072
3.9495 30.0898
4.12809 34.8324
4.30669 132.659
4.4853 57.6066
4.6639 57.1904
4.84253 69.2889
5.02118 91.8753
5.19981 599.958
5.37848 223.653
5.55716 106.426
5.73586 96.0141
5.91455 101.873
6.09328 4015.49
6.27201 85.6568
6.45075 69.1599
6.62952 63.8718
6.8083 60.0546
6.98711 57.0638
7.16591 56.2605
7.34475 75.7542
7.5236 55.6753
7.70247 56.9283
7.88135 59.454
8.06026 64.2573
8.23919 71.6063
8.41812 87.8784
8.59709 1183.62
8.77609 104.33
8.9551 91.6275
9.13412 84.424
9.31318 85.9122
9.49226 87.2937
9.67134 97.2876
9.85047 103.326
10.0296 440.175
10.2088 475.302
10.388 109.788
10.5672 484.68
10.7465 89.1326
10.9257 79.8672
11.105 73.604
11.2844 70.9942
11.4637 66.62
11.6431 64.9838
11.8225 64.2645
12.002 66.3065
12.1814 149.736
12.3609 70.4773
12.5405 66.2387
12.72 70.2859
12.8996 73.2013
13.0792 82.7608
13.2589 246.118
13.4386 133.153
13.6183 244.875
13.7981 102.201
13.9779 77.9285
14.1577 74.1063
14.3376 72.5854
14.5175 71.1235
14.6974 72.7564
14.8774 120.08
15.0574 154.612
15.2374 71.8445
15.4175 68.3086
15.5976 68.0964
15.7778 102.955
15.958 163.18
16.1382 63.4075
16.3185 59.694
16.4988 57.0442
16.6792 55.9663
16.8596 56.7099
17.04 57.9864
17.2205 69.0709
17.401 73.4714
17.5815 60.9888
17.7622 63.3215
17.9428 79.0619
18.1237 139.612
18.3044 91.768
18.4852 79.8532
18.666 62.0215
18.8469 59.6003
19.0278 58.5409
19.2088 61.9203
19.3898 76.7812
19.5709 55.8541
19.752 54.9187
19.9332 58.7144
20.1144 71.4065
20.2957 64.4703
20.477 55.239
20.6586 51.1273
20.84 50.4145
21.0215 50.0963
21.203 52.0854
21.3846 50.5767
21.5662 50.6199
21.7479 54.791
21.9297 66.1459
22.1115 57.2645
22.2933 51.3271
22.4753 50.1864
22.6572 50.5892
22.8393 53.8216
23.0214 59.0205
23.2037 50.2286
23.3859 51.6115
23.5682 57.6983
23.7505 49.7677
23.9329 46.4932
24.1154 45.2843
24.2979 44.5487
24.4805 43.9809
24.6631 44.1029
24.8458 43.401
25.0286 44.147
25.2114 45.8732
25.3943 45.8474
25.5773 42.0921
25.7605 41.551
25.9436 42.0185
26.1268 42.8345
26.31 41.3872
26.4933 41.9654
26.6767 43.3021
26.8601 41.5437
27.0437 40.0615
27.2272 39.6133
27.4109 39.5624
27.5946 39.5051
27.7784 39.085
27.9623 39.5399
28.1462 39.9215
28.3304 38.218
28.5145 36.9548
28.6987 36.6082
28.8829 36.4147
29.0673 35.6395
29.2517 35.3001
29.4361 35.0382
29.6207 34.0263
29.8053 33.7769
29.99 33.4267
30.1748 33.2668
30.3597 33.1603
30.5447 33.112
30.7297 33.118
30.915 32.5779
31.1002 31.9807
31.2855 31.7901
31.4708 31.653
31.6563 31.1267
31.8418 30.9202
32.0275 30.8187
32.2132 30.1822
32.399 29.794
32.5848 29.2605
32.7708 28.9582
32.9569 28.7774
33.143 28.5797
33.3293 28.2671
33.5158 27.8376
33.7022 27.2713
33.8887 27.0702
34.0753 26.7108
34.262 26.3363
34.4488 26.0089
34.6357 25.7126
34.8227 25.5166
35.0098 25.2199
35.1969 24.8508
35.3842 24.5956
35.5716 24.4202
35.759 24.131
35.9468 23.7689
36.1345 23.5582
36.3222 23.3213
36.5101 23.0111
36.6981 22.6908
36.8861 22.3495
37.0743 22.1433
37.2626 21.8418
37.451 21.5372
37.6395 21.3723
37.8281 21.0675
38.0168 20.7578
38.2056 20.503
38.3945 20.2161
38.5837 19.9437
38.7728 19.7149
38.9621 19.5013
39.1514 19.1636
39.3409 18.9647
39.5304 18.7295
39.7201 18.5575
39.9099 18.3526
40.0999 18.1278
40.2899 17.8581
40.48 17.5976
40.6703 17.3704
40.8607 17.1691
41.0512 16.9751
41.242 16.734
41.4327 16.5018
41.6236 16.2685
41.8146 16.0988
42.0057 15.8371
42.1969 15.6079
42.3882 15.3916
42.5797 15.2952
42.7713 15.0481
42.963 14.8272
43.1549 14.5779
43.3468 14.3964
43.5389 14.2121
43.7312 14.0155
43.9237 13.8267
44.1162 13.6373
44.3088 13.4845
44.5016 13.2345
44.6945 13.0384
44.8875 12.9231
45.0806 12.6848
45.2739 12.5713
45.4673 12.3759
45.6609 12.1339
45.8546 12.0263
46.0484 11.8405
46.2424 11.6823
46.4365 11.4665
46.631 11.3076
46.8254 11.1433
47.0199 10.9985
47.2146 10.8355
47.4095 10.6619
47.6044 10.529
47.7996 10.3471
47.9948 10.1772
48.1902 10.0619
48.3858 9.92997
48.5815 9.75461
48.7774 9.65497
48.9734 9.52421
49.1696 9.36992
49.3661 9.22486
49.5626 8.98847
49.7592 8.95563
49.956 8.78239
50.153 8.66418
50.3501 8.51
50.5474 8.3982
50.7448 8.26289
50.9424 8.12495
51.1402 8.01648
51.3381 7.88604
51.5362 7.75781
51.7344 7.64367
51.9328 7.46788
52.1316 7.35181
52.3304 7.26938
52.5293 7.13912
52.7284 7.02769
52.9276 6.86557
53.1271 6.80387
53.3267 6.66833
53.5265 6.52487
53.7264 6.41463
53.9266 6.32891
54.1269 6.19957
54.3274 6.08162
54.528 5.97978
54.7289 5.78656
54.9301 5.58465
55.1314 5.4598
55.3328 5.28489
55.5344 5.11501
55.7361 4.95384