File: XRD/Ni3Fe_FD0779.xy
TT I
1.27165 7.09413
1.45013 5.69285
1.62863 5.10676
1.80712 4.47901
1.98562 4.58636
2.16411 5.31777
2.34263 5.93362
2.52115 7.59421
2.69965 7.97858
2.87818 8.7826
3.05672 11.2142
3.23527 15.0537
3.4138 18.9105
3.59237 23.8117
3.77094 26.2302
3.9495 29.4822
4.12809 34.5006
4.30669 190.655
4.4853 63.235
4.6639 55.0955
4.84253 66.434
5.02118 86.015
5.19981 323.227
5.37848 176.376
5.55716 100.497
5.73586 91.2911
5.91455 92.6046
6.09328 4473.7
6.27201 81.3693
6.45075 66.4174
6.62952 61.9863
6.8083 57.7931
6.98711 55.2613
7.16591 54.5874
7.34475 86.059
7.5236 54.408
7.70247 55.6794
7.88135 57.5099
8.06026 61.6813
8.23919 68.8607
8.41812 84.0758
8.59709 1191.3
8.77609 97.3402
8.9551 89.7732
9.13412 80.8097
9.31318 81.301
9.49226 83.7618
9.67134 96.267
9.85047 98.4252
10.0296 326.98
10.2088 347.929
10.388 103.586
10.5672 536.963
10.7465 85.1963
10.9257 77.3931
11.105 71.0676
11.2844 69.4607
11.4637 64.0765
11.6431 62.8714
11.8225 61.8076
12.002 62.7487
12.1814 157.741
12.3609 68.7905
12.5405 63.6861
12.72 68.6221
12.8996 70.2778
13.0792 78.0657
13.2589 239.72
13.4386 117.583
13.6183 251.752
13.7981 92.865
13.9779 74.9588
14.1577 71.5042
14.3376 70.6213
14.5175 67.9413
14.6974 69.5194
14.8774 108.78
15.0574 145.228
15.2374 70.0301
15.4175 65.7454
15.5976 65.2045
15.7778 93.0365
15.958 150.71
16.1382 61.736
16.3185 57.9071
16.4988 54.8684
16.6792 53.799
16.8596 54.5017
17.04 55.2041
17.2205 66.1695
17.401 68.5285
17.5815 58.5056
17.7622 60.7688
17.9428 72.5785
18.1237 141.991
18.3044 90.0569
18.4852 74.4336
18.666 59.9568
18.8469 57.4386
19.0278 56.324
19.2088 58.5745
19.3898 76.4249
19.5709 53.4647
19.752 52.5124
19.9332 55.49
20.1144 69.2799
20.2957 64.0611
20.477 52.4147
20.6586 48.973
20.84 48.3479
21.0215 48.1578
21.203 50.4076
21.3846 48.2979
21.5662 48.2342
21.7479 52.0031
21.9297 64.2336
22.1115 55.6323
22.2933 49.232
22.4753 48.3996
22.6572 48.3726
22.8393 51.2559
23.0214 56.7483
23.2037 48.2722
23.3859 49.1469
23.5682 57.0133
23.7505 47.5237
23.9329 44.6682
24.1154 43.668
24.2979 42.8571
24.4805 42.5004
24.6631 42.3304
24.8458 41.7623
25.0286 42.2928
25.2114 44.2379
25.3943 44.0707
25.5773 40.4529
25.7605 39.8438
25.9436 40.4132
26.1268 41.3094
26.31 39.6614
26.4933 40.3809
26.6767 41.8348
26.8601 40.0251
27.0437 38.4453
27.2272 38.0657
27.4109 38.0294
27.5946 38.0887
27.7784 37.352
27.9623 38.0418
28.1462 38.3947
28.3304 36.647
28.5145 35.6127
28.6987 35.3022
28.8829 34.9585
29.0673 34.2319
29.2517 34.0456
29.4361 33.7699
29.6207 32.8437
29.8053 32.5541
29.99 32.1467
30.1748 32.2638
30.3597 31.9292
30.5447 31.7767
30.7297 31.8961
30.915 31.2162
31.1002 30.7797
31.2855 30.597
31.4708 30.5179
31.6563 30.0313
31.8418 29.8539
32.0275 29.6015
32.2132 29.0199
32.399 28.6124
32.5848 28.1306
32.7708 27.8877
32.9569 27.7152
33.143 27.5444
33.3293 27.1258
33.5158 26.7284
33.7022 26.3492
33.8887 26.0571
34.0753 25.7105
34.262 25.3541
34.4488 25.0844
34.6357 24.7264
34.8227 24.4369
35.0098 24.2747
35.1969 23.9231
35.3842 23.8083
35.5716 23.5399
35.759 23.2081
35.9468 22.8922
36.1345 22.7241
36.3222 22.4487
36.5101 22.1643
36.6981 21.9867
36.8861 21.585
37.0743 21.3411
37.2626 21.0991
37.451 20.7629
37.6395 20.6249
37.8281 20.2466
38.0168 20.0331
38.2056 19.7245
38.3945 19.56
38.5837 19.2615
38.7728 19.0506
38.9621 18.7336
39.1514 18.5423
39.3409 18.2582
39.5304 18.0729
39.7201 17.8822
39.9099 17.6183
40.0999 17.4171
40.2899 17.2268
40.48 16.9203
40.6703 16.7842
40.8607 16.6046
41.0512 16.3534
41.242 16.1062
41.4327 15.8884
41.6236 15.6176
41.8146 15.5111
42.0057 15.2476
42.1969 15.0725
42.3882 14.8902
42.5797 14.6597
42.7713 14.4571
42.963 14.2724
43.1549 14.0439
43.3468 13.8544
43.5389 13.703
43.7312 13.4955
43.9237 13.3636
44.1162 13.1809
44.3088 12.9933
44.5016 12.742
44.6945 12.609
44.8875 12.3991
45.0806 12.2373
45.2739 12.0593
45.4673 11.8922
45.6609 11.6901
45.8546 11.565
46.0484 11.4359
46.2424 11.2738
46.4365 11.078
46.631 10.9128
46.8254 10.7576
47.0199 10.599
47.2146 10.4472
47.4095 10.2936
47.6044 10.1325
47.7996 9.97357
47.9948 9.81126
48.1902 9.70205
48.3858 9.5985
48.5815 9.4677
48.7774 9.29466
48.9734 9.16981
49.1696 9.02268
49.3661 8.87084
49.5626 8.74128
49.7592 8.60172
49.956 8.47833
50.153 8.37753
50.3501 8.22137
50.5474 8.07968
50.7448 7.9966
50.9424 7.85358
51.1402 7.75424
51.3381 7.61133
51.5362 7.48803
51.7344 7.34765
51.9328 7.20718
52.1316 7.10151
52.3304 6.99629
52.5293 6.88806
52.7284 6.78415
52.9276 6.63135
53.1271 6.59535
53.3267 6.4506
53.5265 6.357
53.7264 6.21846
53.9266 6.13178
54.1269 5.9932
54.3274 5.86081
54.528 5.69307
54.7289 5.56582
54.9301 5.40173
55.1314 5.34415
55.3328 5.08264
55.5344 4.91643
55.7361 4.74767