File: XRD/Ni3Fe_FD0759.xy
TT I
1.27165 7.40534
1.45013 6.26157
1.62863 5.01313
1.80712 4.91621
1.98562 4.73348
2.16411 4.7895
2.34263 5.49583
2.52115 7.50933
2.69965 8.72314
2.87818 8.36518
3.05672 11.1277
3.23527 14.8445
3.4138 18.8308
3.59237 24.4064
3.77094 26.1587
3.9495 29.7674
4.12809 34.6136
4.30669 260.389
4.4853 69.6267
4.6639 54.9836
4.84253 66.3869
5.02118 85.217
5.19981 300.947
5.37848 187.852
5.55716 100.786
5.73586 90.8878
5.91455 91.5514
6.09328 4317.89
6.27201 82.5979
6.45075 67.0141
6.62952 62.7324
6.8083 58.6688
6.98711 55.5252
7.16591 55.1247
7.34475 100.427
7.5236 54.5022
7.70247 55.9947
7.88135 57.5026
8.06026 61.814
8.23919 69.0282
8.41812 84.3241
8.59709 1093.05
8.77609 98.7514
8.9551 92.1164
9.13412 81.0296
9.31318 81.9025
9.49226 83.6434
9.67134 99.3611
9.85047 98.6428
10.0296 302.264
10.2088 407.38
10.388 103.664
10.5672 510.853
10.7465 86.0073
10.9257 78.2125
11.105 71.3991
11.2844 70.3933
11.4637 64.7505
11.6431 63.1406
11.8225 61.9296
12.002 62.7325
12.1814 146.956
12.3609 71.2063
12.5405 64.177
12.72 70.0035
12.8996 70.1227
13.0792 77.322
13.2589 225.543
13.4386 126.794
13.6183 237.334
13.7981 98.4932
13.9779 74.9302
14.1577 72.1264
14.3376 71.5388
14.5175 68.0499
14.6974 69.6291
14.8774 105.213
15.0574 151.837
15.2374 70.7417
15.4175 66.0112
15.5976 65.1475
15.7778 90.8873
15.958 157.844
16.1382 62.821
16.3185 58.2778
16.4988 54.9587
16.6792 54.1075
16.8596 55.0344
17.04 55.2183
17.2205 65.4224
17.401 70.8573
17.5815 58.568
17.7622 60.6165
17.9428 71.7229
18.1237 138.226
18.3044 88.6699
18.4852 77.9934
18.666 59.8181
18.8469 57.4347
19.0278 56.4499
19.2088 58.794
19.3898 76.6847
19.5709 53.7407
19.752 52.7993
19.9332 55.5912
20.1144 69.35
20.2957 63.3669
20.477 53.2613
20.6586 49.2838
20.84 48.4377
21.0215 47.9865
21.203 50.2444
21.3846 48.668
21.5662 48.1922
21.7479 51.6932
21.9297 63.9139
22.1115 55.486
22.2933 49.5721
22.4753 48.5526
22.6572 48.4073
22.8393 51.0706
23.0214 57.158
23.2037 48.2588
23.3859 49.1333
23.5682 56.4099
23.7505 48.1103
23.9329 45.0675
24.1154 43.7165
24.2979 43.0864
24.4805 42.4822
24.6631 42.4812
24.8458 42.0178
25.0286 42.2898
25.2114 44.3465
25.3943 44.3571
25.5773 40.5334
25.7605 40.0493
25.9436 40.5261
26.1268 41.6149
26.31 39.738
26.4933 40.2976
26.6767 41.8697
26.8601 40.0605
27.0437 38.5791
27.2272 38.1238
27.4109 38.1281
27.5946 38.1016
27.7784 37.457
27.9623 38.1225
28.1462 38.4487
28.3304 37.0173
28.5145 35.6559
28.6987 35.3288
28.8829 35.1251
29.0673 34.3895
29.2517 34.1565
29.4361 33.9975
29.6207 32.8908
29.8053 32.5914
29.99 32.4457
30.1748 32.1852
30.3597 31.9567
30.5447 31.9434
30.7297 31.9746
30.915 31.3522
31.1002 30.8534
31.2855 30.56
31.4708 30.5336
31.6563 30.068
31.8418 29.9109
32.0275 29.6956
32.2132 29.1711
32.399 28.705
32.5848 28.2586
32.7708 27.931
32.9569 27.7951
33.143 27.6181
33.3293 27.2223
33.5158 26.7994
33.7022 26.4506
33.8887 26.1488
34.0753 25.8501
34.262 25.49
34.4488 25.1171
34.6357 24.8427
34.8227 24.5013
35.0098 24.3139
35.1969 24.0207
35.3842 23.899
35.5716 23.6553
35.759 23.2326
35.9468 22.9997
36.1345 22.6821
36.3222 22.5131
36.5101 22.2682
36.6981 21.9887
36.8861 21.6065
37.0743 21.3099
37.2626 21.08
37.451 20.8106
37.6395 20.7317
37.8281 20.3427
38.0168 20.0759
38.2056 19.8264
38.3945 19.5169
38.5837 19.2469
38.7728 19.1157
38.9621 18.8408
39.1514 18.6045
39.3409 18.3749
39.5304 18.1294
39.7201 17.9642
39.9099 17.7568
40.0999 17.4496
40.2899 17.28
40.48 16.9736
40.6703 16.8569
40.8607 16.6062
41.0512 16.4107
41.242 16.131
41.4327 15.9886
41.6236 15.6925
41.8146 15.588
42.0057 15.3959
42.1969 15.1266
42.3882 14.9786
42.5797 14.7162
42.7713 14.5933
42.963 14.3702
43.1549 14.1472
43.3468 13.9447
43.5389 13.7921
43.7312 13.5647
43.9237 13.3568
44.1162 13.1929
44.3088 13.0165
44.5016 12.8144
44.6945 12.6416
44.8875 12.5141
45.0806 12.2913
45.2739 12.1956
45.4673 11.9466
45.6609 11.7496
45.8546 11.6416
46.0484 11.4047
46.2424 11.3014
46.4365 11.1253
46.631 10.9532
46.8254 10.7749
47.0199 10.6566
47.2146 10.505
47.4095 10.3189
47.6044 10.1947
47.7996 10.0312
47.9948 9.83537
48.1902 9.75071
48.3858 9.58408
48.5815 9.47869
48.7774 9.35321
48.9734 9.18272
49.1696 9.03875
49.3661 8.87322
49.5626 8.79429
49.7592 8.64228
49.956 8.53579
50.153 8.38318
50.3501 8.22183
50.5474 8.14307
50.7448 8.00946
50.9424 7.89524
51.1402 7.77839
51.3381 7.60603
51.5362 7.52715
51.7344 7.33876
51.9328 7.27689
52.1316 7.14391
52.3304 7.03602
52.5293 6.91157
52.7284 6.80457
52.9276 6.70559
53.1271 6.56899
53.3267 6.43206
53.5265 6.34416
53.7264 6.29178
53.9266 6.14685
54.1269 6.05609
54.3274 5.93939
54.528 5.76223
54.7289 5.64217
54.9301 5.41804
55.1314 5.36173
55.3328 5.12936
55.5344 4.96468
55.7361 4.77404