File: XRD/Ni3Fe_FD1030.xy
TT I
1.27165 7.09238
1.45013 5.71609
1.62863 5.53188
1.80712 4.52578
1.98562 4.14692
2.16411 4.54034
2.34263 4.97137
2.52115 7.7018
2.69965 8.25712
2.87818 8.81033
3.05672 10.5189
3.23527 14.802
3.4138 18.1753
3.59237 21.6065
3.77094 24.2527
3.9495 28.4122
4.12809 32.6442
4.30669 56.9142
4.4853 46.5481
4.6639 52.3625
4.84253 63.5584
5.02118 82.7934
5.19981 228.52
5.37848 222.941
5.55716 96.9803
5.73586 87.5785
5.91455 88.3384
6.09328 4485.26
6.27201 75.9678
6.45075 63.0675
6.62952 57.8344
6.8083 54.4309
6.98711 52.3487
7.16591 51.4439
7.34475 56.0761
7.5236 60.4886
7.70247 52.8245
7.88135 54.5856
8.06026 58.6791
8.23919 65.2644
8.41812 77.8227
8.59709 1064.22
8.77609 94.689
8.9551 82.0739
9.13412 78.8365
9.31318 91.6573
9.49226 80.4251
9.67134 85.8162
9.85047 93.4183
10.0296 336.537
10.2088 447.609
10.388 97.2068
10.5672 502.381
10.7465 86.7893
10.9257 73.1323
11.105 67.7089
11.2844 64.4591
11.4637 61.6008
11.6431 60.4764
11.8225 59.373
12.002 67.6597
12.1814 145.721
12.3609 64.1146
12.5405 61.2322
12.72 63.4507
12.8996 67.2871
13.0792 76.0866
13.2589 223.461
13.4386 127.62
13.6183 233.216
13.7981 100.793
13.9779 73.0902
14.1577 76.6406
14.3376 66.9297
14.5175 65.914
14.6974 67.0891
14.8774 107.564
15.0574 160.648
15.2374 66.1733
15.4175 63.6606
15.5976 62.9959
15.7778 92.3536
15.958 166.999
16.1382 60.0338
16.3185 55.273
16.4988 53.0633
16.6792 52.2497
16.8596 52.7888
17.04 53.4134
17.2205 64.2659
17.401 71.7816
17.5815 56.8847
17.7622 59.9292
17.9428 72.3707
18.1237 141.22
18.3044 87.9801
18.4852 78.9635
18.666 58.6173
18.8469 56.1288
19.0278 54.7343
19.2088 57.4613
19.3898 75.9192
19.5709 52.6422
19.752 51.4585
19.9332 54.7689
20.1144 70.032
20.2957 62.8538
20.477 52.6992
20.6586 48.2522
20.84 47.765
21.0215 47.057
21.203 49.363
21.3846 47.5617
21.5662 47.2728
21.7479 51.4286
21.9297 65.2683
22.1115 55.6157
22.2933 48.941
22.4753 47.3358
22.6572 47.4105
22.8393 50.808
23.0214 57.3179
23.2037 47.5873
23.3859 49.0002
23.5682 56.9904
23.7505 47.9299
23.9329 43.9625
24.1154 42.9753
24.2979 42.1507
24.4805 41.7355
24.6631 41.7443
24.8458 40.9173
25.0286 41.6183
25.2114 43.9925
25.3943 44.1774
25.5773 39.8968
25.7605 39.436
25.9436 39.8153
26.1268 41.1051
26.31 39.2094
26.4933 39.6871
26.6767 41.7536
26.8601 39.9003
27.0437 38.1366
27.2272 37.6909
27.4109 37.673
27.5946 37.7962
27.7784 37.1305
27.9623 37.6651
28.1462 38.3932
28.3304 36.6899
28.5145 35.1631
28.6987 34.8537
28.8829 34.6689
29.0673 33.9595
29.2517 33.5481
29.4361 33.5124
29.6207 32.3021
29.8053 32.0858
29.99 31.8388
30.1748 31.7552
30.3597 31.5552
30.5447 31.4911
30.7297 31.6605
30.915 31.0399
31.1002 30.5632
31.2855 30.2265
31.4708 30.3199
31.6563 29.7931
31.8418 29.6072
32.0275 29.4506
32.2132 28.9026
32.399 28.4266
32.5848 27.8629
32.7708 27.551
32.9569 27.4283
33.143 27.2428
33.3293 26.9308
33.5158 26.4902
33.7022 26.0114
33.8887 25.7959
34.0753 25.4607
34.262 25.1356
34.4488 24.7926
34.6357 24.4811
34.8227 24.1611
35.0098 23.9532
35.1969 23.7134
35.3842 23.5204
35.5716 23.3255
35.759 22.991
35.9468 22.6462
36.1345 22.4622
36.3222 22.2195
36.5101 21.9972
36.6981 21.6445
36.8861 21.3134
37.0743 21.1177
37.2626 20.7756
37.451 20.563
37.6395 20.4479
37.8281 20.128
38.0168 19.773
38.2056 19.5304
38.3945 19.3361
38.5837 19.0606
38.7728 18.8381
38.9621 18.5558
39.1514 18.3304
39.3409 18.0688
39.5304 17.9118
39.7201 17.6782
39.9099 17.4282
40.0999 17.2945
40.2899 17.0288
40.48 16.7498
40.6703 16.5413
40.8607 16.4456
41.0512 16.1486
41.242 15.9432
41.4327 15.7035
41.6236 15.5362
41.8146 15.3646
42.0057 15.1865
42.1969 14.8884
42.3882 14.7551
42.5797 14.5226
42.7713 14.3634
42.963 14.16
43.1549 13.8965
43.3468 13.753
43.5389 13.5869
43.7312 13.343
43.9237 13.2143
44.1162 13.0245
44.3088 12.8231
44.5016 12.6339
44.6945 12.4987
44.8875 12.2697
45.0806 12.1027
45.2739 11.9397
45.4673 11.7718
45.6609 11.6068
45.8546 11.4442
46.0484 11.3004
46.2424 11.1376
46.4365 10.9961
46.631 10.7836
46.8254 10.6488
47.0199 10.4877
47.2146 10.3417
47.4095 10.1953
47.6044 10.036
47.7996 9.87072
47.9948 9.77631
48.1902 9.59223
48.3858 9.47907
48.5815 9.33822
48.7774 9.20439
48.9734 9.04835
49.1696 8.9132
49.3661 8.74924
49.5626 8.63518
49.7592 8.50192
49.956 8.39634
50.153 8.2473
50.3501 8.14798
50.5474 8.04107
50.7448 7.93209
50.9424 7.78861
51.1402 7.66102
51.3381 7.50614
51.5362 7.38366
51.7344 7.29588
51.9328 7.12856
52.1316 7.04426
52.3304 6.93241
52.5293 6.80622
52.7284 6.72812
52.9276 6.56606
53.1271 6.47975
53.3267 6.37669
53.5265 6.26799
53.7264 6.15937
53.9266 6.02796
54.1269 5.92146
54.3274 5.8357
54.528 5.70128
54.7289 5.56717
54.9301 5.34622
55.1314 5.27959
55.3328 5.06033
55.5344 4.84594
55.7361 4.77112