File: XRD/Ni3Fe_FD1067.xy
TT I
1.27165 7.11011
1.45013 5.62811
1.62863 4.44368
1.80712 3.85279
1.98562 4.60763
2.16411 4.12
2.34263 4.62545
2.52115 7.15702
2.69965 8.52777
2.87818 9.1093
3.05672 10.417
3.23527 14.9556
3.4138 18.4527
3.59237 21.4755
3.77094 24.5757
3.9495 28.2216
4.12809 32.2986
4.30669 56.7743
4.4853 45.8851
4.6639 52.7189
4.84253 64.1036
5.02118 83.3089
5.19981 229.647
5.37848 210.039
5.55716 97.5555
5.73586 88.108
5.91455 88.7092
6.09328 4531.94
6.27201 76.1451
6.45075 63.5958
6.62952 57.9091
6.8083 54.6693
6.98711 52.4877
7.16591 51.7706
7.34475 55.8339
7.5236 58.3095
7.70247 53.2558
7.88135 55.1056
8.06026 59.1968
8.23919 65.9808
8.41812 77.9084
8.59709 1103.61
8.77609 94.9347
8.9551 82.2472
9.13412 79.2566
9.31318 88.7849
9.49226 81.362
9.67134 86.5797
9.85047 94.2047
10.0296 349.13
10.2088 449.375
10.388 98.0809
10.5672 512.362
10.7465 86.5173
10.9257 73.5625
11.105 68.2999
11.2844 64.8444
11.4637 61.9754
11.6431 60.4964
11.8225 59.868
12.002 66.7023
12.1814 146.855
12.3609 64.8309
12.5405 61.4591
12.72 64.0736
12.8996 67.8771
13.0792 76.7128
13.2589 230.278
13.4386 127.356
13.6183 237.03
13.7981 100.682
13.9779 73.5589
14.1577 75.1976
14.3376 67.1313
14.5175 66.4283
14.6974 67.519
14.8774 110.611
15.0574 160.19
15.2374 66.7384
15.4175 63.969
15.5976 63.6551
15.7778 95.114
15.958 169.923
16.1382 59.865
16.3185 55.7116
16.4988 53.5643
16.6792 52.6194
16.8596 52.8751
17.04 53.9269
17.2205 65.0515
17.401 72.4061
17.5815 57.5069
17.7622 60.0698
17.9428 73.4261
18.1237 142.515
18.3044 89.1459
18.4852 79.3269
18.666 59.0428
18.8469 56.5869
19.0278 55.1809
19.2088 58.2868
19.3898 76.4373
19.5709 53.0156
19.752 51.7566
19.9332 55.2449
20.1144 70.6546
20.2957 63.5679
20.477 52.8947
20.6586 48.4708
20.84 48.074
21.0215 47.3548
21.203 49.6268
21.3846 48.0072
21.5662 47.6934
21.7479 51.9156
21.9297 65.3513
22.1115 56.1183
22.2933 49.104
22.4753 47.6322
22.6572 47.7783
22.8393 51.4329
23.0214 57.3986
23.2037 47.8043
23.3859 49.4488
23.5682 57.2767
23.7505 48.2932
23.9329 44.4145
24.1154 43.2135
24.2979 42.4704
24.4805 42.0856
24.6631 42.0401
24.8458 41.3872
25.0286 42.0379
25.2114 44.3059
25.3943 44.504
25.5773 40.2476
25.7605 39.6678
25.9436 40.1673
26.1268 41.387
26.31 39.4949
26.4933 40.1363
26.6767 42.085
26.8601 40.0653
27.0437 38.4266
27.2272 37.8949
27.4109 37.7555
27.5946 37.9123
27.7784 37.3623
27.9623 38.0719
28.1462 38.7762
28.3304 36.9936
28.5145 35.4089
28.6987 35.0724
28.8829 34.9592
29.0673 34.1408
29.2517 33.7459
29.4361 33.8195
29.6207 32.6953
29.8053 32.3737
29.99 32.0042
30.1748 32.0499
30.3597 31.8171
30.5447 31.76
30.7297 31.917
30.915 31.3049
31.1002 30.7599
31.2855 30.5297
31.4708 30.5041
31.6563 29.8943
31.8418 29.8468
32.0275 29.6408
32.2132 29.0691
32.399 28.5091
32.5848 28.0719
32.7708 27.767
32.9569 27.7668
33.143 27.4857
33.3293 27.1197
33.5158 26.7089
33.7022 26.2492
33.8887 26.0694
34.0753 25.775
34.262 25.1901
34.4488 24.8906
34.6357 24.6941
34.8227 24.3734
35.0098 24.1911
35.1969 23.8857
35.3842 23.6966
35.5716 23.5188
35.759 23.1857
35.9468 22.8475
36.1345 22.6114
36.3222 22.3251
36.5101 22.1941
36.6981 21.8432
36.8861 21.5506
37.0743 21.2439
37.2626 20.9473
37.451 20.7596
37.6395 20.537
37.8281 20.25
38.0168 19.9812
38.2056 19.7292
38.3945 19.4376
38.5837 19.2416
38.7728 19.008
38.9621 18.7169
39.1514 18.4912
39.3409 18.2739
39.5304 18.0292
39.7201 17.8341
39.9099 17.6038
40.0999 17.3712
40.2899 17.1701
40.48 16.9278
40.6703 16.6987
40.8607 16.5628
41.0512 16.3312
41.242 16.09
41.4327 15.8624
41.6236 15.6193
41.8146 15.4558
42.0057 15.2299
42.1969 15.0073
42.3882 14.8859
42.5797 14.6975
42.7713 14.4467
42.963 14.2689
43.1549 14.0789
43.3468 13.8349
43.5389 13.6893
43.7312 13.4612
43.9237 13.2041
44.1162 13.0706
44.3088 12.9236
44.5016 12.7383
44.6945 12.5333
44.8875 12.4174
45.0806 12.2066
45.2739 12.0553
45.4673 11.8469
45.6609 11.697
45.8546 11.5373
46.0484 11.4084
46.2424 11.211
46.4365 11.0979
46.631 10.8969
46.8254 10.6833
47.0199 10.5691
47.2146 10.4541
47.4095 10.2566
47.6044 10.0936
47.7996 9.95267
47.9948 9.80663
48.1902 9.64101
48.3858 9.54594
48.5815 9.38558
48.7774 9.25688
48.9734 9.1019
49.1696 8.94654
49.3661 8.87695
49.5626 8.70576
49.7592 8.59364
49.956 8.44632
50.153 8.32758
50.3501 8.2082
50.5474 8.08472
50.7448 7.95247
50.9424 7.81765
51.1402 7.7207
51.3381 7.54978
51.5362 7.45041
51.7344 7.33764
51.9328 7.22852
52.1316 7.07773
52.3304 6.97667
52.5293 6.8575
52.7284 6.72706
52.9276 6.6521
53.1271 6.5121
53.3267 6.4065
53.5265 6.31735
53.7264 6.16657
53.9266 6.08857
54.1269 5.93292
54.3274 5.885
54.528 5.69885
54.7289 5.56987
54.9301 5.43957
55.1314 5.30474
55.3328 5.07323
55.5344 4.90244
55.7361 4.75366