File: XRD/Ni3Fe_FD0099.xy
TT I
1.27165 8.67367
1.45013 6.80759
1.62863 5.96169
1.80712 5.96578
1.98562 5.64693
2.16411 4.8087
2.34263 4.48005
2.52115 3.81926
2.69965 5.53275
2.87818 6.8297
3.05672 11.2081
3.23527 14.9411
3.4138 18.2504
3.59237 21.4722
3.77094 24.7142
3.9495 28.5382
4.12809 32.2979
4.30669 37.4128
4.4853 44.0962
4.6639 53.4213
4.84253 66.1583
5.02118 94.2913
5.19981 679.904
5.37848 695.175
5.55716 112.055
5.73586 97.866
5.91455 112.01
6.09328 2140.71
6.27201 96.6516
6.45075 66.775
6.62952 59.3561
6.8083 55.1788
6.98711 52.7
7.16591 51.5039
7.34475 51.4028
7.5236 59.4627
7.70247 52.9139
7.88135 55.4001
8.06026 59.8117
8.23919 67.1368
8.41812 84.2613
8.59709 752.439
8.77609 130.317
8.9551 85.2698
9.13412 81.1234
9.31318 95.4852
9.49226 82.3642
9.67134 87.4147
9.85047 98.1651
10.0296 594.419
10.2088 1193.68
10.388 105.528
10.5672 259.057
10.7465 95.2027
10.9257 75.0983
11.105 69.2584
11.2844 65.1975
11.4637 62.5302
11.6431 61.1575
11.8225 60.0132
12.002 69.4915
12.1814 103.569
12.3609 80.9155
12.5405 62.3502
12.72 64.0816
12.8996 68.4277
13.0792 78.7821
13.2589 182.919
13.4386 254.132
13.6183 166.61
13.7981 184.064
13.9779 75.0836
14.1577 76.8779
14.3376 68.0182
14.5175 67.3217
14.6974 68.9291
14.8774 119.92
15.0574 207.509
15.2374 68.5121
15.4175 65.1882
15.5976 64.7828
15.7778 107.83
15.958 174.345
16.1382 62.1511
16.3185 56.5968
16.4988 54.1753
16.6792 53.0517
16.8596 53.294
17.04 54.4609
17.2205 63.0478
17.401 81.0532
17.5815 58.0999
17.7622 60.5688
17.9428 85.2079
18.1237 99.6897
18.3044 87.2433
18.4852 99.1858
18.666 60.2244
18.8469 57.1984
19.0278 55.8612
19.2088 61.5152
19.3898 64.8761
19.5709 57.0577
19.752 52.4569
19.9332 57.7105
20.1144 63.2319
20.2957 59.4009
20.477 60.6115
20.6586 48.9697
20.84 48.3869
21.0215 48.3043
21.203 48.425
21.3846 50.0742
21.5662 48.1026
21.7479 53.2127
21.9297 58.4136
22.1115 55.9807
22.2933 52.7745
22.4753 48.1197
22.6572 48.3055
22.8393 50.8953
23.0214 54.4728
23.2037 49.6844
23.3859 51.3601
23.5682 51.1544
23.7505 54.6349
23.9329 44.9339
24.1154 43.6522
24.2979 42.9371
24.4805 42.2722
24.6631 42.4389
24.8458 41.821
25.0286 42.1825
25.2114 43.2662
25.3943 43.6889
25.5773 41.3882
25.7605 40.0956
25.9436 40.2041
26.1268 40.6103
26.31 40.5201
26.4933 40.1937
26.6767 40.8686
26.8601 40.7173
27.0437 39.0594
27.2272 38.4148
27.4109 37.9298
27.5946 37.9603
27.7784 37.9158
27.9623 37.8007
28.1462 38.3828
28.3304 37.4195
28.5145 35.7307
28.6987 35.3042
28.8829 34.9057
29.0673 34.6678
29.2517 34.0229
29.4361 33.6039
29.6207 33.1075
29.8053 32.4533
29.99 32.1842
30.1748 31.933
30.3597 32.0262
30.5447 31.8034
30.7297 31.6439
30.915 31.5657
31.1002 30.9559
31.2855 30.5759
31.4708 30.4216
31.6563 30.3589
31.8418 29.8524
32.0275 29.55
32.2132 29.297
32.399 28.6655
32.5848 28.1639
32.7708 27.921
32.9569 27.7931
33.143 27.4463
33.3293 27.1663
33.5158 26.8278
33.7022 26.2872
33.8887 25.9444
34.0753 25.8407
34.262 25.3366
34.4488 25.0515
34.6357 24.699
34.8227 24.4056
35.0098 24.231
35.1969 23.9087
35.3842 23.6403
35.5716 23.538
35.759 23.1736
35.9468 22.8719
36.1345 22.648
36.3222 22.4692
36.5101 22.0972
36.6981 21.9061
36.8861 21.6236
37.0743 21.2277
37.2626 21.0139
37.451 20.7315
37.6395 20.5909
37.8281 20.2115
38.0168 19.9825
38.2056 19.7269
38.3945 19.4589
38.5837 19.1953
38.7728 18.9864
38.9621 18.7764
39.1514 18.5271
39.3409 18.2674
39.5304 18.0448
39.7201 17.8626
39.9099 17.6699
40.0999 17.4172
40.2899 17.2226
40.48 16.9755
40.6703 16.7299
40.8607 16.5325
41.0512 16.36
41.242 16.1048
41.4327 15.871
41.6236 15.6855
41.8146 15.4806
42.0057 15.2881
42.1969 15.0606
42.3882 14.8401
42.5797 14.6434
42.7713 14.4598
42.963 14.2596
43.1549 14.1064
43.3468 13.8563
43.5389 13.6232
43.7312 13.4773
43.9237 13.2739
44.1162 13.1323
44.3088 12.951
44.5016 12.7526
44.6945 12.573
44.8875 12.4335
45.0806 12.2185
45.2739 12.0479
45.4673 11.9308
45.6609 11.7315
45.8546 11.5811
46.0484 11.3827
46.2424 11.2473
46.4365 11.1181
46.631 10.8768
46.8254 10.6968
47.0199 10.5911
47.2146 10.433
47.4095 10.285
47.6044 10.1322
47.7996 9.94971
47.9948 9.8477
48.1902 9.72094
48.3858 9.53217
48.5815 9.46113
48.7774 9.28238
48.9734 9.16494
49.1696 8.99729
49.3661 8.89335
49.5626 8.69931
49.7592 8.59432
49.956 8.50591
50.153 8.32281
50.3501 8.21446
50.5474 8.09533
50.7448 8.01264
50.9424 7.86607
51.1402 7.77211
51.3381 7.59489
51.5362 7.48706
51.7344 7.35256
51.9328 7.24585
52.1316 7.08186
52.3304 7.02456
52.5293 6.86794
52.7284 6.79433
52.9276 6.64556
53.1271 6.56843
53.3267 6.41286
53.5265 6.31588
53.7264 6.18175
53.9266 6.13209
54.1269 5.97511
54.3274 5.87127
54.528 5.69159
54.7289 5.47901
54.9301 5.33165
55.1314 5.1853
55.3328 4.97186
55.5344 4.79847
55.7361 4.66941