File: XRD/Ni3Fe_FD0081.xy
TT I
1.27165 10.1429
1.45013 7.71494
1.62863 7.36475
1.80712 6.66596
1.98562 6.61429
2.16411 6.06529
2.34263 5.01469
2.52115 4.22387
2.69965 5.1782
2.87818 7.78522
3.05672 10.9119
3.23527 14.9334
3.4138 18.3744
3.59237 21.154
3.77094 24.7557
3.9495 28.2641
4.12809 32.1032
4.30669 37.3749
4.4853 43.8086
4.6639 53.4093
4.84253 65.9614
5.02118 99.0319
5.19981 753.333
5.37848 1295.01
5.55716 120.854
5.73586 102.25
5.91455 122.272
6.09328 1474.09
6.27201 110.627
6.45075 67.3151
6.62952 58.6012
6.8083 54.1394
6.98711 51.753
7.16591 50.4665
7.34475 50.3913
7.5236 70.9788
7.70247 52.8657
7.88135 54.2824
8.06026 58.6772
8.23919 65.8625
8.41812 84.4472
8.59709 576.571
8.77609 159.843
8.9551 85.49
9.13412 81.4561
9.31318 139.155
9.49226 81.4124
9.67134 85.7856
9.85047 96.8056
10.0296 570.243
10.2088 1468.88
10.388 106.777
10.5672 181.106
10.7465 112.819
10.9257 73.688
11.105 67.5142
11.2844 63.862
11.4637 60.8579
11.6431 60.0053
11.8225 58.9606
12.002 87.6653
12.1814 87.3531
12.3609 93.9161
12.5405 60.5155
12.72 62.1689
12.8996 66.3845
13.0792 78.8825
13.2589 155.524
13.4386 317.408
13.6183 137.7
13.7981 237.653
13.9779 73.9791
14.1577 88.2657
14.3376 66.6762
14.5175 65.505
14.6974 67.1767
14.8774 112.765
15.0574 199.273
15.2374 67.9815
15.4175 63.4002
15.5976 63.2546
15.7778 102.44
15.958 152.633
16.1382 65.7143
16.3185 55.4621
16.4988 52.7452
16.6792 51.8082
16.8596 52.1159
17.04 53.7794
17.2205 59.6272
17.401 78.2066
17.5815 56.6019
17.7622 59.9313
17.9428 82.7471
18.1237 81.1919
18.3044 89.5489
18.4852 102.573
18.666 59.4937
18.8469 55.7059
19.0278 54.4605
19.2088 59.5414
19.3898 61.2647
19.5709 58.7122
19.752 51.0231
19.9332 55.8425
20.1144 58.0337
20.2957 58.0816
20.477 62.5756
20.6586 47.7526
20.84 48.209
21.0215 46.9838
21.203 46.5975
21.3846 49.5032
21.5662 46.7961
21.7479 51.3807
21.9297 53.1897
22.1115 56.1217
22.2933 53.3584
22.4753 46.6662
22.6572 47.0437
22.8393 49.1255
23.0214 50.4364
23.2037 49.5173
23.3859 50.1412
23.5682 47.6684
23.7505 56.191
23.9329 43.9951
24.1154 42.7194
24.2979 41.7853
24.4805 41.118
24.6631 41.2524
24.8458 40.7013
25.0286 40.9449
25.2114 41.3308
25.3943 41.7687
25.5773 41.1505
25.7605 39.0679
25.9436 39.1227
26.1268 38.9472
26.31 39.922
26.4933 38.8858
26.6767 39.0571
26.8601 40.1456
27.0437 38.3639
27.2272 37.3347
27.4109 36.8315
27.5946 36.7056
27.7784 37.1319
27.9623 36.5211
28.1462 36.9286
28.3304 36.4841
28.5145 35.0181
28.6987 34.4743
28.8829 33.7539
29.0673 33.7814
29.2517 32.7992
29.4361 32.3764
29.6207 32.2485
29.8053 31.5277
29.99 31.3391
30.1748 31.0187
30.3597 31.0637
30.5447 30.8716
30.7297 30.5195
30.915 30.8175
31.1002 30.2147
31.2855 29.5432
31.4708 29.4012
31.6563 29.472
31.8418 28.8478
32.0275 28.6494
32.2132 28.4417
32.399 27.9005
32.5848 27.3467
32.7708 27.0502
32.9569 26.8666
33.143 26.523
33.3293 26.4198
33.5158 26.1451
33.7022 25.4921
33.8887 25.2282
34.0753 25.0384
34.262 24.6174
34.4488 24.2484
34.6357 23.9831
34.8227 23.6139
35.0098 23.4927
35.1969 23.2039
35.3842 22.985
35.5716 22.8124
35.759 22.6136
35.9468 22.1639
36.1345 21.904
36.3222 21.7538
36.5101 21.5198
36.6981 21.2662
36.8861 20.9939
37.0743 20.655
37.2626 20.3945
37.451 20.1523
37.6395 19.9633
37.8281 19.6803
38.0168 19.351
38.2056 19.1463
38.3945 18.9272
38.5837 18.6651
38.7728 18.4675
38.9621 18.2283
39.1514 17.9919
39.3409 17.7174
39.5304 17.5905
39.7201 17.3309
39.9099 17.1498
40.0999 16.915
40.2899 16.7118
40.48 16.4311
40.6703 16.1909
40.8607 16.1008
41.0512 15.8933
41.242 15.6074
41.4327 15.4218
41.6236 15.217
41.8146 15.0585
42.0057 14.8473
42.1969 14.6047
42.3882 14.4408
42.5797 14.2544
42.7713 14.0824
42.963 13.8257
43.1549 13.7094
43.3468 13.4802
43.5389 13.3105
43.7312 13.0974
43.9237 12.9005
44.1162 12.7829
44.3088 12.5931
44.5016 12.3952
44.6945 12.2515
44.8875 12.0768
45.0806 11.9126
45.2739 11.6962
45.4673 11.5776
45.6609 11.4048
45.8546 11.3001
46.0484 11.1054
46.2424 10.9405
46.4365 10.7831
46.631 10.6363
46.8254 10.4495
47.0199 10.2932
47.2146 10.1714
47.4095 10.0007
47.6044 9.87707
47.7996 9.73662
47.9948 9.57218
48.1902 9.45523
48.3858 9.273
48.5815 9.15895
48.7774 9.02393
48.9734 8.89593
49.1696 8.78011
49.3661 8.63536
49.5626 8.47395
49.7592 8.39026
49.956 8.31363
50.153 8.17553
50.3501 8.03634
50.5474 7.93844
50.7448 7.78932
50.9424 7.67436
51.1402 7.51377
51.3381 7.44654
51.5362 7.31484
51.7344 7.14266
51.9328 7.05573
52.1316 6.93608
52.3304 6.79979
52.5293 6.72438
52.7284 6.56098
52.9276 6.5087
53.1271 6.37357
53.3267 6.26648
53.5265 6.18156
53.7264 6.06295
53.9266 5.95637
54.1269 5.82185
54.3274 5.69314
54.528 5.51711
54.7289 5.34243
54.9301 5.11968
55.1314 5.0231
55.3328 4.7773
55.5344 4.62905
55.7361 4.53552