File: XRD/Ni3Fe_FD1077.xy
TT I
1.27165 7.08855
1.45013 5.88923
1.62863 5.02105
1.80712 4.25833
1.98562 3.97489
2.16411 3.70809
2.34263 5.26299
2.52115 7.1597
2.69965 7.96726
2.87818 8.78857
3.05672 10.6995
3.23527 14.1199
3.4138 18.158
3.59237 21.2904
3.77094 24.4371
3.9495 28.0513
4.12809 32.65
4.30669 56.3448
4.4853 46.535
4.6639 52.5551
4.84253 64.2779
5.02118 83.3101
5.19981 232.76
5.37848 203.785
5.55716 97.6838
5.73586 87.9953
5.91455 89.3538
6.09328 4469.94
6.27201 75.7869
6.45075 63.232
6.62952 57.9708
6.8083 54.7087
6.98711 52.6246
7.16591 51.3612
7.34475 55.9345
7.5236 58.3682
7.70247 53.1778
7.88135 55.0957
8.06026 59.4136
8.23919 66.0803
8.41812 78.2241
8.59709 1117.93
8.77609 94.8475
8.9551 82.5311
9.13412 79.2038
9.31318 88.2268
9.49226 81.4322
9.67134 86.8028
9.85047 94.2283
10.0296 354.016
10.2088 439.574
10.388 98.0186
10.5672 514.888
10.7465 86.1256
10.9257 73.6624
11.105 68.0274
11.2844 65.0152
11.4637 61.8398
11.6431 60.8072
11.8225 59.8577
12.002 65.9321
12.1814 147.349
12.3609 64.8462
12.5405 61.6148
12.72 64.08
12.8996 68.0397
13.0792 76.6319
13.2589 231.652
13.4386 125.416
13.6183 238.139
13.7981 99.7862
13.9779 73.3682
14.1577 74.9251
14.3376 67.423
14.5175 66.4639
14.6974 67.402
14.8774 110.756
15.0574 158.252
15.2374 66.7098
15.4175 64.3337
15.5976 63.6721
15.7778 95.6986
15.958 168.864
16.1382 59.802
16.3185 55.8116
16.4988 53.6479
16.6792 52.3986
16.8596 53.2147
17.04 53.943
17.2205 64.9098
17.401 71.7907
17.5815 57.4293
17.7622 59.858
17.9428 73.771
18.1237 142.405
18.3044 89.0219
18.4852 78.5745
18.666 58.8924
18.8469 56.5196
19.0278 55.255
19.2088 58.306
19.3898 75.8235
19.5709 53.0128
19.752 51.7161
19.9332 55.1846
20.1144 70.5738
20.2957 63.6753
20.477 52.8364
20.6586 48.2888
20.84 47.9744
21.0215 47.6906
21.203 49.8202
21.3846 48.0328
21.5662 47.5875
21.7479 51.9489
21.9297 65.18
22.1115 55.804
22.2933 49.0866
22.4753 47.5578
22.6572 47.7434
22.8393 51.3619
23.0214 57.3481
23.2037 47.9177
23.3859 49.3443
23.5682 57.2131
23.7505 48.2696
23.9329 44.3184
24.1154 43.2857
24.2979 42.6156
24.4805 42.1367
24.6631 42.1304
24.8458 41.3902
25.0286 42.1582
25.2114 44.2734
25.3943 44.3286
25.5773 40.2989
25.7605 39.6616
25.9436 40.0969
26.1268 41.3835
26.31 39.4709
26.4933 40.082
26.6767 41.942
26.8601 40.1148
27.0437 38.3102
27.2272 37.9087
27.4109 37.7486
27.5946 37.8874
27.7784 37.3362
27.9623 37.9718
28.1462 38.5675
28.3304 36.9017
28.5145 35.5201
28.6987 35.1184
28.8829 34.9533
29.0673 34.1694
29.2517 33.8637
29.4361 33.5708
29.6207 32.7362
29.8053 32.3545
29.99 32.0473
30.1748 31.9691
30.3597 31.8051
30.5447 31.6164
30.7297 31.9474
30.915 31.2931
31.1002 30.7951
31.2855 30.4582
31.4708 30.4915
31.6563 29.8566
31.8418 29.723
32.0275 29.6569
32.2132 28.9948
32.399 28.6117
32.5848 28.179
32.7708 27.7208
32.9569 27.5465
33.143 27.4261
33.3293 27.0874
33.5158 26.5999
33.7022 26.2322
33.8887 26.0074
34.0753 25.5931
34.262 25.2381
34.4488 24.9891
34.6357 24.6121
34.8227 24.3275
35.0098 24.0826
35.1969 23.8048
35.3842 23.6653
35.5716 23.4858
35.759 23.1458
35.9468 22.7537
36.1345 22.6484
36.3222 22.3107
36.5101 22.1456
36.6981 21.857
36.8861 21.625
37.0743 21.2085
37.2626 20.9116
37.451 20.7105
37.6395 20.5418
37.8281 20.17
38.0168 19.8708
38.2056 19.6647
38.3945 19.4065
38.5837 19.1426
38.7728 18.9812
38.9621 18.689
39.1514 18.4172
39.3409 18.209
39.5304 17.9436
39.7201 17.7769
39.9099 17.5951
40.0999 17.4176
40.2899 17.1123
40.48 16.8519
40.6703 16.7538
40.8607 16.4788
41.0512 16.285
41.242 15.9948
41.4327 15.8354
41.6236 15.6159
41.8146 15.508
42.0057 15.2502
42.1969 15.0281
42.3882 14.9175
42.5797 14.6241
42.7713 14.4285
42.963 14.2471
43.1549 14.0187
43.3468 13.8086
43.5389 13.628
43.7312 13.4197
43.9237 13.2834
44.1162 13.0836
44.3088 12.8604
44.5016 12.7062
44.6945 12.5676
44.8875 12.3559
45.0806 12.219
45.2739 12.0536
45.4673 11.8716
45.6609 11.6858
45.8546 11.5429
46.0484 11.352
46.2424 11.2323
46.4365 11.0647
46.631 10.8643
46.8254 10.7144
47.0199 10.5557
47.2146 10.4064
47.4095 10.2344
47.6044 10.105
47.7996 9.94238
47.9948 9.78369
48.1902 9.6782
48.3858 9.55981
48.5815 9.37656
48.7774 9.26671
48.9734 9.08643
49.1696 8.96943
49.3661 8.83489
49.5626 8.68233
49.7592 8.54367
49.956 8.45578
50.153 8.28761
50.3501 8.19452
50.5474 8.04861
50.7448 7.95517
50.9424 7.82703
51.1402 7.69888
51.3381 7.51876
51.5362 7.4471
51.7344 7.28575
51.9328 7.20197
52.1316 7.05254
52.3304 6.984
52.5293 6.83944
52.7284 6.75728
52.9276 6.60409
53.1271 6.55728
53.3267 6.4197
53.5265 6.31408
53.7264 6.1782
53.9266 6.0802
54.1269 5.97201
54.3274 5.84487
54.528 5.75464
54.7289 5.55192
54.9301 5.43543
55.1314 5.29802
55.3328 5.06345
55.5344 4.9173
55.7361 4.75445