File: XRD/Ni3Fe_FD1083.xy
TT I
1.27165 7.16347
1.45013 6.33514
1.62863 5.2065
1.80712 4.69623
1.98562 4.56247
2.16411 4.04526
2.34263 5.26808
2.52115 7.7864
2.69965 8.27944
2.87818 8.30623
3.05672 11.0908
3.23527 14.7212
3.4138 18.0456
3.59237 21.4248
3.77094 24.6667
3.9495 28.136
4.12809 32.6788
4.30669 56.255
4.4853 46.0356
4.6639 52.7741
4.84253 63.8458
5.02118 83.1396
5.19981 231.132
5.37848 203.11
5.55716 97.5588
5.73586 87.7417
5.91455 88.7139
6.09328 4440.22
6.27201 75.7233
6.45075 63.9442
6.62952 57.68
6.8083 54.3755
6.98711 52.6516
7.16591 52.0098
7.34475 55.8296
7.5236 58.0607
7.70247 53.1937
7.88135 55.0939
8.06026 59.3235
8.23919 65.8538
8.41812 77.8428
8.59709 1116.88
8.77609 94.9974
8.9551 82.1626
9.13412 79.0996
9.31318 87.8195
9.49226 80.9158
9.67134 86.7102
9.85047 93.7963
10.0296 353.118
10.2088 445.444
10.388 98.0475
10.5672 516.19
10.7465 85.9407
10.9257 73.3873
11.105 68.2918
11.2844 64.795
11.4637 61.9649
11.6431 60.8482
11.8225 59.6024
12.002 66.014
12.1814 147.08
12.3609 64.6479
12.5405 61.704
12.72 64.0694
12.8996 67.7888
13.0792 76.5833
13.2589 232.378
13.4386 125.715
13.6183 237.441
13.7981 100.209
13.9779 73.3835
14.1577 74.662
14.3376 67.4692
14.5175 66.4403
14.6974 67.6072
14.8774 110.956
15.0574 158.429
15.2374 66.642
15.4175 64.228
15.5976 63.601
15.7778 95.7311
15.958 169.156
16.1382 59.9352
16.3185 55.6224
16.4988 53.4725
16.6792 52.6111
16.8596 53.0326
17.04 53.8646
17.2205 65.0341
17.401 72.1049
17.5815 57.5545
17.7622 60.1466
17.9428 73.6782
18.1237 142.439
18.3044 89.215
18.4852 78.853
18.666 58.8437
18.8469 56.6422
19.0278 55.0174
19.2088 58.0461
19.3898 75.8857
19.5709 53.0122
19.752 51.884
19.9332 55.3481
20.1144 70.4441
20.2957 63.6253
20.477 52.9277
20.6586 48.4373
20.84 47.8297
21.0215 47.5178
21.203 49.7045
21.3846 47.981
21.5662 47.7226
21.7479 51.8837
21.9297 65.3812
22.1115 56.048
22.2933 49.2447
22.4753 47.4483
22.6572 47.8402
22.8393 51.2629
23.0214 57.3
23.2037 47.8655
23.3859 49.5792
23.5682 57.3397
23.7505 48.4734
23.9329 44.3518
24.1154 43.273
24.2979 42.591
24.4805 41.955
24.6631 42.038
24.8458 41.4161
25.0286 42.1101
25.2114 44.3452
25.3943 44.5289
25.5773 40.277
25.7605 39.5972
25.9436 40.1662
26.1268 41.4195
26.31 39.4334
26.4933 40.2324
26.6767 42.0795
26.8601 40.1172
27.0437 38.2997
27.2272 37.97
27.4109 37.7934
27.5946 38.0341
27.7784 37.2992
27.9623 38.1273
28.1462 38.7164
28.3304 36.9192
28.5145 35.4367
28.6987 35.1099
28.8829 34.8103
29.0673 34.1567
29.2517 33.7965
29.4361 33.7157
29.6207 32.6111
29.8053 32.3168
29.99 31.9646
30.1748 31.9708
30.3597 31.72
30.5447 31.7193
30.7297 31.9429
30.915 31.3257
31.1002 30.7274
31.2855 30.4389
31.4708 30.4816
31.6563 29.9766
31.8418 29.848
32.0275 29.6461
32.2132 29.0757
32.399 28.6026
32.5848 28.1032
32.7708 27.7316
32.9569 27.6353
33.143 27.4115
33.3293 27.1035
33.5158 26.7233
33.7022 26.1661
33.8887 26.0372
34.0753 25.5981
34.262 25.3674
34.4488 24.9488
34.6357 24.6723
34.8227 24.3328
35.0098 24.1888
35.1969 23.9573
35.3842 23.7574
35.5716 23.5002
35.759 23.2172
35.9468 22.8588
36.1345 22.6397
36.3222 22.4208
36.5101 22.1139
36.6981 21.8778
36.8861 21.5541
37.0743 21.1884
37.2626 20.9551
37.451 20.6974
37.6395 20.556
37.8281 20.1719
38.0168 19.9408
38.2056 19.7082
38.3945 19.3931
38.5837 19.2498
38.7728 18.9829
38.9621 18.6863
39.1514 18.4258
39.3409 18.2498
39.5304 18.0538
39.7201 17.7411
39.9099 17.5805
40.0999 17.3365
40.2899 17.086
40.48 16.9135
40.6703 16.7154
40.8607 16.5284
41.0512 16.3147
41.242 16.0659
41.4327 15.9006
41.6236 15.6076
41.8146 15.4372
42.0057 15.2185
42.1969 15.0149
42.3882 14.8143
42.5797 14.624
42.7713 14.4299
42.963 14.2615
43.1549 14.042
43.3468 13.843
43.5389 13.6368
43.7312 13.4395
43.9237 13.2336
44.1162 13.0945
44.3088 12.9299
44.5016 12.714
44.6945 12.5707
44.8875 12.3764
45.0806 12.1909
45.2739 12.0479
45.4673 11.8584
45.6609 11.6703
45.8546 11.5164
46.0484 11.3688
46.2424 11.1715
46.4365 11.0911
46.631 10.8566
46.8254 10.7434
47.0199 10.5603
47.2146 10.4073
47.4095 10.2333
47.6044 10.0953
47.7996 9.93815
47.9948 9.81268
48.1902 9.65563
48.3858 9.54988
48.5815 9.36422
48.7774 9.26705
48.9734 9.11223
49.1696 8.97155
49.3661 8.85533
49.5626 8.67567
49.7592 8.56955
49.956 8.42071
50.153 8.32235
50.3501 8.17265
50.5474 8.04036
50.7448 7.95199
50.9424 7.81865
51.1402 7.68526
51.3381 7.5549
51.5362 7.4505
51.7344 7.32614
51.9328 7.19457
52.1316 7.08281
52.3304 6.97966
52.5293 6.86079
52.7284 6.73702
52.9276 6.63655
53.1271 6.50934
53.3267 6.42379
53.5265 6.30837
53.7264 6.1972
53.9266 6.10661
54.1269 5.9164
54.3274 5.86981
54.528 5.723
54.7289 5.54069
54.9301 5.41712
55.1314 5.28057
55.3328 5.06003
55.5344 4.96552
55.7361 4.77447