File: XRD/Ni3Fe_FD0420.xy
TT I
1.27165 7.78272
1.45013 6.63445
1.62863 4.98169
1.80712 4.77284
1.98562 4.86193
2.16411 4.76462
2.34263 5.6197
2.52115 6.39357
2.69965 8.09595
2.87818 8.26709
3.05672 11.2683
3.23527 15.3974
3.4138 19.3767
3.59237 25.6705
3.77094 27.0399
3.9495 30.4062
4.12809 36.1621
4.30669 296.77
4.4853 74.1426
4.6639 56.1224
4.84253 67.8744
5.02118 88.441
5.19981 420.114
5.37848 223.671
5.55716 104.583
5.73586 94.1364
5.91455 96.6819
6.09328 3840.4
6.27201 87.0284
6.45075 69.1375
6.62952 64.4269
6.8083 60.9172
6.98711 57.2471
7.16591 57.3298
7.34475 110.0
7.5236 56.2557
7.70247 57.4054
7.88135 59.0591
8.06026 63.5899
8.23919 70.9486
8.41812 87.7462
8.59709 1060.14
8.77609 104.333
8.9551 96.0562
9.13412 83.1658
9.31318 83.7086
9.49226 85.9994
9.67134 104.115
9.85047 102.199
10.0296 350.961
10.2088 506.834
10.388 108.282
10.5672 468.685
10.7465 88.9024
10.9257 80.4225
11.105 73.6739
11.2844 73.2001
11.4637 66.2458
11.6431 65.0362
11.8225 64.0272
12.002 65.0307
12.1814 141.191
12.3609 75.2172
12.5405 65.8608
12.72 73.0972
12.8996 72.2843
13.0792 80.2994
13.2589 220.199
13.4386 139.246
13.6183 226.007
13.7981 106.419
13.9779 77.5079
14.1577 74.3813
14.3376 74.2146
14.5175 70.2962
14.6974 71.9089
14.8774 109.102
15.0574 166.091
15.2374 73.7927
15.4175 67.9192
15.5976 67.162
15.7778 94.1761
15.958 171.503
16.1382 65.0777
16.3185 60.4882
16.4988 56.8102
16.6792 55.8192
16.8596 56.6408
17.04 57.1045
17.2205 66.468
17.401 74.7791
17.5815 60.5612
17.7622 62.4395
17.9428 75.1368
18.1237 137.273
18.3044 88.8017
18.4852 83.2564
18.666 61.7106
18.8469 59.2414
19.0278 58.3436
19.2088 60.8117
19.3898 77.6843
19.5709 55.4828
19.752 54.41
19.9332 57.4196
20.1144 70.5697
20.2957 63.7662
20.477 55.8726
20.6586 50.7924
20.84 50.0154
21.0215 49.6786
21.203 51.6695
21.3846 50.2717
21.5662 49.782
21.7479 53.4153
21.9297 65.5342
22.1115 57.0011
22.2933 51.3815
22.4753 50.0253
22.6572 49.949
22.8393 52.6157
23.0214 59.2105
23.2037 49.9703
23.3859 50.8812
23.5682 57.097
23.7505 50.1406
23.9329 46.2394
24.1154 45.1301
24.2979 44.3584
24.4805 43.9318
24.6631 43.7625
24.8458 43.1882
25.0286 43.7214
25.2114 45.4873
25.3943 45.7267
25.5773 41.7256
25.7605 41.407
25.9436 41.5825
26.1268 42.6906
26.31 41.1176
26.4933 41.5772
26.6767 42.9708
26.8601 41.4448
27.0437 39.7083
27.2272 39.348
27.4109 39.3393
27.5946 39.2432
27.7784 38.6882
27.9623 39.0084
28.1462 39.73
28.3304 38.2601
28.5145 36.7979
28.6987 36.3007
28.8829 36.208
29.0673 35.39
29.2517 35.1259
29.4361 34.8951
29.6207 33.9371
29.8053 33.5674
29.99 33.2215
30.1748 33.1414
30.3597 33.0025
30.5447 32.7315
30.7297 32.809
30.915 32.4233
31.1002 31.7615
31.2855 31.451
31.4708 31.5427
31.6563 31.104
31.8418 30.7608
32.0275 30.5903
32.2132 30.0691
32.399 29.6338
32.5848 29.1893
32.7708 28.8097
32.9569 28.676
33.143 28.3587
33.3293 28.0776
33.5158 27.5587
33.7022 27.2238
33.8887 26.9211
34.0753 26.5375
34.262 26.2683
34.4488 25.8301
34.6357 25.5148
34.8227 25.1822
35.0098 25.0197
35.1969 24.7896
35.3842 24.4992
35.5716 24.3116
35.759 23.9779
35.9468 23.6572
36.1345 23.4673
36.3222 23.1826
36.5101 22.9429
36.6981 22.5962
36.8861 22.2763
37.0743 21.936
37.2626 21.7169
37.451 21.396
37.6395 21.3259
37.8281 20.9267
38.0168 20.5733
38.2056 20.3398
38.3945 20.0736
38.5837 19.8735
38.7728 19.6243
38.9621 19.3879
39.1514 19.1383
39.3409 18.9119
39.5304 18.6183
39.7201 18.5407
39.9099 18.2446
40.0999 17.999
40.2899 17.7593
40.48 17.5348
40.6703 17.3182
40.8607 17.1373
41.0512 16.9249
41.242 16.6216
41.4327 16.4594
41.6236 16.1612
41.8146 16.0401
42.0057 15.7871
42.1969 15.6232
42.3882 15.35
42.5797 15.1683
42.7713 14.9983
42.963 14.7667
43.1549 14.5484
43.3468 14.3487
43.5389 14.1756
43.7312 13.9414
43.9237 13.7834
44.1162 13.5291
44.3088 13.3675
44.5016 13.1607
44.6945 13.0193
44.8875 12.8543
45.0806 12.6178
45.2739 12.4797
45.4673 12.3284
45.6609 12.1588
45.8546 11.9582
46.0484 11.8098
46.2424 11.6437
46.4365 11.4857
46.631 11.2415
46.8254 11.0869
47.0199 10.9304
47.2146 10.7983
47.4095 10.6178
47.6044 10.4747
47.7996 10.3188
47.9948 10.1324
48.1902 10.0374
48.3858 9.86095
48.5815 9.72411
48.7774 9.60406
48.9734 9.46492
49.1696 9.29143
49.3661 9.14515
49.5626 9.05587
49.7592 8.90787
49.956 8.7876
50.153 8.62066
50.3501 8.48069
50.5474 8.36371
50.7448 8.25526
50.9424 8.1465
51.1402 7.98675
51.3381 7.83679
51.5362 7.72821
51.7344 7.59554
51.9328 7.50113
52.1316 7.33485
52.3304 7.23308
52.5293 7.11164
52.7284 6.98505
52.9276 6.89239
53.1271 6.79438
53.3267 6.65042
53.5265 6.52174
53.7264 6.45366
53.9266 6.33289
54.1269 6.1742
54.3274 6.05931
54.528 5.91375
54.7289 5.79416
54.9301 5.56713
55.1314 5.47962
55.3328 5.28284
55.5344 5.05421
55.7361 4.95089