File: XRD/Ni3Fe_FD0646.xy
TT I
1.27165 7.63313
1.45013 5.80098
1.62863 5.63516
1.80712 4.94181
1.98562 4.75796
2.16411 4.74531
2.34263 5.18956
2.52115 6.89569
2.69965 8.01834
2.87818 8.86703
3.05672 11.4403
3.23527 15.165
3.4138 18.7485
3.59237 24.8732
3.77094 26.4419
3.9495 29.7436
4.12809 35.4861
4.30669 274.246
4.4853 71.0446
4.6639 55.3172
4.84253 67.3189
5.02118 86.0474
5.19981 332.547
5.37848 197.434
5.55716 101.697
5.73586 92.2012
5.91455 93.3575
6.09328 4278.51
6.27201 84.1161
6.45075 67.7707
6.62952 63.2401
6.8083 59.1449
6.98711 56.5865
7.16591 56.2855
7.34475 104.724
7.5236 55.1096
7.70247 56.3076
7.88135 58.2202
8.06026 62.4254
8.23919 69.7394
8.41812 85.3537
8.59709 1093.96
8.77609 100.559
8.9551 93.4016
9.13412 81.9727
9.31318 82.2938
9.49226 84.561
9.67134 101.021
9.85047 99.8556
10.0296 321.232
10.2088 444.098
10.388 105.416
10.5672 497.628
10.7465 86.7117
10.9257 79.3578
11.105 72.4428
11.2844 71.6596
11.4637 65.1396
11.6431 63.9017
11.8225 62.7835
12.002 63.5558
12.1814 146.958
12.3609 73.0999
12.5405 64.7121
12.72 71.309
12.8996 71.1976
13.0792 78.6144
13.2589 225.189
13.4386 129.418
13.6183 236.321
13.7981 100.776
13.9779 76.0677
14.1577 72.8788
14.3376 72.5575
14.5175 68.9617
14.6974 70.688
14.8774 106.965
15.0574 154.333
15.2374 72.189
15.4175 66.6978
15.5976 65.9166
15.7778 92.6727
15.958 163.746
16.1382 63.6938
16.3185 59.4934
16.4988 55.6399
16.6792 54.8332
16.8596 55.669
17.04 55.8196
17.2205 65.9318
17.401 72.7203
17.5815 59.3152
17.7622 61.33
17.9428 72.8146
18.1237 138.405
18.3044 89.1609
18.4852 80.0784
18.666 60.7205
18.8469 58.1022
19.0278 57.3104
19.2088 59.5955
19.3898 77.1435
19.5709 54.5955
19.752 53.4351
19.9332 56.5126
20.1144 69.9011
20.2957 63.6729
20.477 54.3021
20.6586 49.8547
20.84 48.8014
21.0215 48.7899
21.203 50.8587
21.3846 49.1799
21.5662 48.7643
21.7479 52.4916
21.9297 64.8397
22.1115 56.229
22.2933 50.2611
22.4753 49.0734
22.6572 48.762
22.8393 51.6961
23.0214 57.8033
23.2037 48.9954
23.3859 49.8178
23.5682 56.8406
23.7505 48.7339
23.9329 45.4034
24.1154 44.3462
24.2979 43.7893
24.4805 43.1012
24.6631 43.0172
24.8458 42.313
25.0286 42.9416
25.2114 44.728
25.3943 44.9076
25.5773 41.1963
25.7605 40.5816
25.9436 40.9617
26.1268 41.958
26.31 40.1744
26.4933 40.901
26.6767 42.2964
26.8601 40.5602
27.0437 38.9959
27.2272 38.7589
27.4109 38.5158
27.5946 38.6114
27.7784 38.0555
27.9623 38.5442
28.1462 39.091
28.3304 37.3945
28.5145 36.1365
28.6987 35.7711
28.8829 35.5672
29.0673 34.9298
29.2517 34.4833
29.4361 34.28
29.6207 33.3874
29.8053 33.0365
29.99 32.7144
30.1748 32.538
30.3597 32.4104
30.5447 32.2965
30.7297 32.3388
30.915 31.7998
31.1002 31.1969
31.2855 31.086
31.4708 31.0008
31.6563 30.4936
31.8418 30.2564
32.0275 30.0588
32.2132 29.5627
32.399 29.045
32.5848 28.6419
32.7708 28.3328
32.9569 28.1338
33.143 27.8714
33.3293 27.486
33.5158 27.1194
33.7022 26.7299
33.8887 26.4459
34.0753 26.1598
34.262 25.7327
34.4488 25.3294
34.6357 25.0937
34.8227 24.7968
35.0098 24.6082
35.1969 24.2962
35.3842 24.012
35.5716 23.8416
35.759 23.5677
35.9468 23.2277
36.1345 22.9649
36.3222 22.7415
36.5101 22.5803
36.6981 22.2385
36.8861 21.8745
37.0743 21.5718
37.2626 21.3812
37.451 21.0651
37.6395 20.8826
37.8281 20.6195
38.0168 20.2649
38.2056 19.9781
38.3945 19.7646
38.5837 19.5438
38.7728 19.355
38.9621 18.9819
39.1514 18.7774
39.3409 18.5611
39.5304 18.3381
39.7201 18.1466
39.9099 17.943
40.0999 17.7121
40.2899 17.4417
40.48 17.2167
40.6703 16.9925
40.8607 16.8025
41.0512 16.5713
41.242 16.3032
41.4327 16.155
41.6236 15.9087
41.8146 15.6769
42.0057 15.5169
42.1969 15.2679
42.3882 15.0976
42.5797 14.9128
42.7713 14.7163
42.963 14.4948
43.1549 14.33
43.3468 14.0611
43.5389 13.9003
43.7312 13.726
43.9237 13.553
44.1162 13.3651
44.3088 13.2045
44.5016 12.9769
44.6945 12.7847
44.8875 12.6059
45.0806 12.3889
45.2739 12.2523
45.4673 12.0821
45.6609 11.8576
45.8546 11.7679
46.0484 11.6034
46.2424 11.4275
46.4365 11.2397
46.631 11.0781
46.8254 10.9068
47.0199 10.8144
47.2146 10.5886
47.4095 10.4392
47.6044 10.2921
47.7996 10.1723
47.9948 10.0001
48.1902 9.82881
48.3858 9.69338
48.5815 9.55548
48.7774 9.43097
48.9734 9.29525
49.1696 9.1556
49.3661 8.97971
49.5626 8.86136
49.7592 8.75644
49.956 8.59105
50.153 8.49133
50.3501 8.35263
50.5474 8.2377
50.7448 8.10477
50.9424 7.97601
51.1402 7.86697
51.3381 7.70237
51.5362 7.60449
51.7344 7.47302
51.9328 7.34069
52.1316 7.19807
52.3304 7.09101
52.5293 7.00881
52.7284 6.89899
52.9276 6.77947
53.1271 6.65015
53.3267 6.54893
53.5265 6.44776
53.7264 6.33147
53.9266 6.17523
54.1269 6.07861
54.3274 5.97331
54.528 5.83733
54.7289 5.68535
54.9301 5.52933
55.1314 5.37115
55.3328 5.16176
55.5344 4.98874
55.7361 4.85477