File: XRD/Ni3Fe_FD0056.xy
TT I
1.27165 32.6872
1.45013 26.7468
1.62863 22.7161
1.80712 20.7762
1.98562 20.4691
2.16411 20.8379
2.34263 20.555
2.52115 21.3796
2.69965 25.4958
2.87818 36.1963
3.05672 64.0292
3.23527 65.5851
3.4138 34.4448
3.59237 27.2672
3.77094 25.6587
3.9495 27.0678
4.12809 29.3632
4.30669 37.2835
4.4853 37.5068
4.6639 43.1857
4.84253 55.2714
5.02118 105.241
5.19981 321.779
5.37848 3001.55
5.55716 149.677
5.73586 103.421
5.91455 120.395
6.09328 587.188
6.27201 211.108
6.45075 64.0061
6.62952 47.7095
6.8083 42.242
6.98711 41.5284
7.16591 43.2738
7.34475 39.6247
7.5236 62.0262
7.70247 43.9977
7.88135 39.3811
8.06026 41.2102
8.23919 46.8273
8.41812 60.1535
8.59709 190.105
8.77609 340.828
8.9551 74.3671
9.13412 65.5656
9.31318 316.688
9.49226 59.4457
9.67134 58.1662
9.85047 64.6685
10.0296 124.076
10.2088 697.494
10.388 97.8805
10.5672 100.124
10.7465 188.257
10.9257 52.3117
11.105 45.5652
11.2844 43.5412
11.4637 40.3948
11.6431 39.7552
11.8225 40.401
12.002 116.574
12.1814 50.8233
12.3609 82.8479
12.5405 42.7405
12.72 40.315
12.8996 42.0714
13.0792 49.041
13.2589 69.6049
13.4386 189.416
13.6183 79.803
13.7981 180.921
13.9779 54.4273
14.1577 67.512
14.3376 46.9331
14.5175 42.5161
14.6974 42.1766
14.8774 49.5315
15.0574 79.7731
15.2374 58.6966
15.4175 42.2321
15.5976 41.1598
15.7778 46.4298
15.958 66.3372
16.1382 76.3153
16.3185 38.6269
16.4988 35.1559
16.6792 34.2543
16.8596 34.5117
17.04 41.6678
17.2205 36.2061
17.401 41.6779
17.5815 39.1915
17.7622 38.7748
17.9428 41.7323
18.1237 46.4462
18.3044 78.7037
18.4852 56.6771
18.666 47.7508
18.8469 37.4287
19.0278 35.7673
19.2088 36.2141
19.3898 47.6184
19.5709 43.7279
19.752 34.461
19.9332 33.5961
20.1144 34.594
20.2957 42.2166
20.477 39.7354
20.6586 33.0411
20.84 35.2204
21.0215 30.6482
21.203 30.366
21.3846 31.3902
21.5662 31.608
21.7479 31.3047
21.9297 32.6069
22.1115 40.4682
22.2933 36.9063
22.4753 31.768
22.6572 30.6837
22.8393 32.34
23.0214 31.9717
23.2037 36.732
23.3859 31.8545
23.5682 33.0927
23.7505 35.848
23.9329 31.4902
24.1154 29.5367
24.2979 28.0448
24.4805 27.5878
24.6631 27.9839
24.8458 27.5757
25.0286 27.005
25.2114 27.2744
25.3943 28.5819
25.5773 28.9345
25.7605 26.459
25.9436 26.6506
26.1268 25.9501
26.31 26.913
26.4933 26.0436
26.6767 25.8415
26.8601 27.4928
27.0437 27.3317
27.2272 25.3995
27.4109 24.8515
27.5946 24.9817
27.7784 25.1087
27.9623 24.5957
28.1462 25.2163
28.3304 25.5247
28.5145 24.5145
28.6987 23.6288
28.8829 23.0518
29.0673 22.9644
29.2517 22.6367
29.4361 22.163
29.6207 22.0341
29.8053 21.6866
29.99 21.3789
30.1748 21.3915
30.3597 21.1092
30.5447 21.0424
30.7297 20.8438
30.915 21.0414
31.1002 21.0577
31.2855 20.4144
31.4708 20.1831
31.6563 20.311
31.8418 20.1632
32.0275 19.822
32.2132 19.8228
32.399 19.5153
32.5848 19.0811
32.7708 18.6806
32.9569 18.7263
33.143 18.4363
33.3293 18.2681
33.5158 18.2286
33.7022 17.8856
33.8887 17.6115
34.0753 17.3577
34.262 17.2258
34.4488 16.8861
34.6357 16.7189
34.8227 16.5417
35.0098 16.4253
35.1969 16.1689
35.3842 15.9933
35.5716 15.9495
35.759 15.9277
35.9468 15.597
36.1345 15.3996
36.3222 15.2368
36.5101 15.1769
36.6981 14.9091
36.8861 14.735
37.0743 14.5235
37.2626 14.3189
37.451 14.2084
37.6395 14.0418
37.8281 13.8807
38.0168 13.7389
38.2056 13.5117
38.3945 13.3375
38.5837 13.1918
38.7728 13.0275
38.9621 12.8364
39.1514 12.7071
39.3409 12.5557
39.5304 12.4286
39.7201 12.2754
39.9099 12.1451
40.0999 11.9968
40.2899 11.8793
40.48 11.6571
40.6703 11.5413
40.8607 11.4759
41.0512 11.3065
41.242 11.1541
41.4327 11.02
41.6236 10.8247
41.8146 10.7517
42.0057 10.6551
42.1969 10.4784
42.3882 10.3655
42.5797 10.1858
42.7713 10.0701
42.963 9.91808
43.1549 9.78381
43.3468 9.66098
43.5389 9.57538
43.7312 9.41472
43.9237 9.29228
44.1162 9.17346
44.3088 9.04549
44.5016 8.9197
44.6945 8.80408
44.8875 8.68219
45.0806 8.60562
45.2739 8.49217
45.4673 8.37059
45.6609 8.26797
45.8546 8.13057
46.0484 7.99609
46.2424 7.9105
46.4365 7.8286
46.631 7.71824
46.8254 7.57664
47.0199 7.46381
47.2146 7.35081
47.4095 7.23646
47.6044 7.18162
47.7996 7.01907
47.9948 6.93215
48.1902 6.87199
48.3858 6.74453
48.5815 6.66761
48.7774 6.59118
48.9734 6.48436
49.1696 6.38591
49.3661 6.29703
49.5626 6.16343
49.7592 6.15145
49.956 6.035
50.153 5.97123
50.3501 5.84754
50.5474 5.78323
50.7448 5.68389
50.9424 5.60694
51.1402 5.51296
51.3381 5.42904
51.5362 5.35661
51.7344 5.30695
51.9328 5.16671
52.1316 5.10905
52.3304 4.99411
52.5293 4.9173
52.7284 4.8808
52.9276 4.8177
53.1271 4.69996
53.3267 4.62031
53.5265 4.54633
53.7264 4.46405
53.9266 4.43745
54.1269 4.29434
54.3274 4.23922
54.528 4.06538
54.7289 3.96243
54.9301 3.88824
55.1314 3.73828
55.3328 3.5592
55.5344 3.46145
55.7361 3.35785