File: XRD/Ni3Fe_FD0339.xy
TT I
1.27165 8.03636
1.45013 6.3668
1.62863 5.3441
1.80712 4.84171
1.98562 4.62386
2.16411 4.77535
2.34263 4.45802
2.52115 5.55472
2.69965 6.83498
2.87818 8.94809
3.05672 11.5623
3.23527 14.9041
3.4138 18.6736
3.59237 23.6677
3.77094 26.2859
3.9495 30.2246
4.12809 34.9971
4.30669 151.017
4.4853 59.6608
4.6639 57.0453
4.84253 70.0489
5.02118 92.0588
5.19981 577.501
5.37848 225.685
5.55716 106.77
5.73586 96.4209
5.91455 101.583
6.09328 4079.99
6.27201 85.9579
6.45075 69.2865
6.62952 63.7118
6.8083 59.8997
6.98711 57.132
7.16591 56.6865
7.34475 79.5197
7.5236 55.7117
7.70247 57.7052
7.88135 59.4954
8.06026 64.1758
8.23919 71.3452
8.41812 88.1704
8.59709 1167.66
8.77609 104.226
8.9551 92.1551
9.13412 84.4679
9.31318 85.7699
9.49226 87.2684
9.67134 98.3265
9.85047 103.526
10.0296 432.281
10.2088 490.019
10.388 109.725
10.5672 484.873
10.7465 89.42
10.9257 80.1138
11.105 73.9407
11.2844 71.3994
11.4637 66.5684
11.6431 65.3233
11.8225 64.1228
12.002 66.08
12.1814 149.47
12.3609 71.1974
12.5405 66.2012
12.72 70.7295
12.8996 73.2241
13.0792 82.5192
13.2589 244.988
13.4386 133.511
13.6183 242.344
13.7981 102.889
13.9779 78.2736
14.1577 74.3753
14.3376 72.9106
14.5175 71.0323
14.6974 72.8692
14.8774 118.975
15.0574 156.073
15.2374 72.347
15.4175 68.3603
15.5976 68.1522
15.7778 102.485
15.958 165.35
16.1382 64.0656
16.3185 60.0352
16.4988 56.7927
16.6792 55.8723
16.8596 56.5346
17.04 57.8876
17.2205 69.136
17.401 74.03
17.5815 61.0219
17.7622 63.422
17.9428 78.8762
18.1237 140.009
18.3044 91.5759
18.4852 80.0647
18.666 62.2763
18.8469 59.7301
19.0278 58.6091
19.2088 61.6804
19.3898 77.2211
19.5709 55.8222
19.752 54.9652
19.9332 58.5387
20.1144 71.4798
20.2957 64.5118
20.477 55.2234
20.6586 51.1811
20.84 50.2663
21.0215 50.075
21.203 52.0924
21.3846 50.5898
21.5662 50.546
21.7479 54.834
21.9297 66.2773
22.1115 57.2829
22.2933 51.349
22.4753 50.3316
22.6572 50.57
22.8393 53.8199
23.0214 59.192
23.2037 50.3745
23.3859 51.6773
23.5682 57.6762
23.7505 50.0115
23.9329 46.4689
24.1154 45.3835
24.2979 44.7182
24.4805 44.257
24.6631 44.0333
24.8458 43.5621
25.0286 44.313
25.2114 46.0259
25.3943 46.0028
25.5773 42.2797
25.7605 41.7974
25.9436 42.0388
26.1268 42.9664
26.31 41.4205
26.4933 41.9766
26.6767 43.3586
26.8601 41.6961
27.0437 40.067
27.2272 39.741
27.4109 39.5413
27.5946 39.71
27.7784 38.9917
27.9623 39.4621
28.1462 40.0063
28.3304 38.2037
28.5145 36.9759
28.6987 36.7534
28.8829 36.4415
29.0673 35.6511
29.2517 35.3343
29.4361 35.1517
29.6207 34.0861
29.8053 33.8793
29.99 33.5195
30.1748 33.358
30.3597 33.2301
30.5447 33.1601
30.7297 33.1202
30.915 32.6282
31.1002 32.0308
31.2855 31.7553
31.4708 31.6249
31.6563 31.2949
31.8418 31.1245
32.0275 30.7116
32.2132 30.2802
32.399 29.7412
32.5848 29.3642
32.7708 29.0705
32.9569 28.8289
33.143 28.6036
33.3293 28.2235
33.5158 27.814
33.7022 27.2866
33.8887 27.0539
34.0753 26.6945
34.262 26.3925
34.4488 26.0126
34.6357 25.6928
34.8227 25.443
35.0098 25.1492
35.1969 24.9216
35.3842 24.6792
35.5716 24.4263
35.759 24.1781
35.9468 23.7618
36.1345 23.5435
36.3222 23.3078
36.5101 23.0962
36.6981 22.7423
36.8861 22.3696
37.0743 22.0564
37.2626 21.893
37.451 21.5977
37.6395 21.4874
37.8281 21.0611
38.0168 20.8263
38.2056 20.4534
38.3945 20.2692
38.5837 19.9827
38.7728 19.7888
38.9621 19.4419
39.1514 19.1933
39.3409 19.0202
39.5304 18.7702
39.7201 18.5277
39.9099 18.3243
40.0999 18.0656
40.2899 17.8491
40.48 17.5457
40.6703 17.3712
40.8607 17.2463
41.0512 16.9827
41.242 16.7326
41.4327 16.5615
41.6236 16.2371
41.8146 16.1408
42.0057 15.8378
42.1969 15.6298
42.3882 15.4858
42.5797 15.2793
42.7713 15.0646
42.963 14.7974
43.1549 14.587
43.3468 14.4251
43.5389 14.2089
43.7312 14.0103
43.9237 13.8448
44.1162 13.6218
44.3088 13.4111
44.5016 13.2506
44.6945 13.1004
44.8875 12.8937
45.0806 12.6891
45.2739 12.5474
45.4673 12.3821
45.6609 12.1686
45.8546 11.9996
46.0484 11.8365
46.2424 11.6825
46.4365 11.4624
46.631 11.3444
46.8254 11.1252
47.0199 10.9647
47.2146 10.8586
47.4095 10.6445
47.6044 10.5015
47.7996 10.3471
47.9948 10.2311
48.1902 10.0313
48.3858 9.91126
48.5815 9.77131
48.7774 9.65965
48.9734 9.49499
49.1696 9.35092
49.3661 9.18183
49.5626 9.05793
49.7592 8.92921
49.956 8.81139
50.153 8.67853
50.3501 8.52388
50.5474 8.4244
50.7448 8.29105
50.9424 8.13286
51.1402 8.04862
51.3381 7.89653
51.5362 7.79324
51.7344 7.64232
51.9328 7.50451
52.1316 7.34654
52.3304 7.28321
52.5293 7.14289
52.7284 7.01433
52.9276 6.89052
53.1271 6.78141
53.3267 6.63289
53.5265 6.51703
53.7264 6.4798
53.9266 6.34352
54.1269 6.25164
54.3274 6.06399
54.528 5.92102
54.7289 5.7977
54.9301 5.56999
55.1314 5.52397
55.3328 5.30521
55.5344 5.11343
55.7361 4.89085