File: XRD/Ni3Fe_FD0055.xy
TT I
1.27165 32.4415
1.45013 26.8737
1.62863 22.4238
1.80712 21.108
1.98562 20.7399
2.16411 20.4062
2.34263 21.4086
2.52115 21.8262
2.69965 26.0023
2.87818 36.5695
3.05672 63.7503
3.23527 65.616
3.4138 33.7231
3.59237 26.6932
3.77094 25.7736
3.9495 27.18
4.12809 29.5026
4.30669 37.5149
4.4853 37.7458
4.6639 43.0874
4.84253 55.3957
5.02118 105.167
5.19981 318.676
5.37848 3042.99
5.55716 150.207
5.73586 103.503
5.91455 120.314
6.09328 581.729
6.27201 213.431
6.45075 64.5458
6.62952 47.3749
6.8083 42.1409
6.98711 41.1541
7.16591 43.6862
7.34475 39.8545
7.5236 61.1625
7.70247 43.9309
7.88135 38.9943
8.06026 41.2122
8.23919 46.803
8.41812 59.6241
8.59709 188.681
8.77609 349.21
8.9551 74.3904
9.13412 65.7413
9.31318 320.008
9.49226 59.5912
9.67134 58.353
9.85047 64.3543
10.0296 122.668
10.2088 694.787
10.388 98.6561
10.5672 99.7804
10.7465 191.01
10.9257 52.2687
11.105 45.6503
11.2844 43.1464
11.4637 40.3975
11.6431 39.6266
11.8225 40.3586
12.002 116.032
12.1814 50.856
12.3609 83.8536
12.5405 42.4835
12.72 40.3204
12.8996 42.0102
13.0792 48.703
13.2589 69.7069
13.4386 189.126
13.6183 80.3511
13.7981 181.659
13.9779 54.5656
14.1577 66.7959
14.3376 46.9609
14.5175 42.2321
14.6974 42.1306
14.8774 49.6925
15.0574 79.2962
15.2374 58.9113
15.4175 42.1856
15.5976 41.1345
15.7778 46.4918
15.958 65.8602
16.1382 77.2354
16.3185 38.4651
16.4988 35.1411
16.6792 34.4073
16.8596 34.3339
17.04 41.9026
17.2205 35.8685
17.401 41.5064
17.5815 39.2696
17.7622 38.6445
17.9428 41.2322
18.1237 46.3477
18.3044 79.4783
18.4852 56.5834
18.666 48.0439
18.8469 37.3543
19.0278 35.7559
19.2088 36.1119
19.3898 47.4939
19.5709 43.945
19.752 34.3921
19.9332 33.7205
20.1144 34.5854
20.2957 42.2861
20.477 39.5981
20.6586 33.0952
20.84 35.204
21.0215 30.5867
21.203 30.3367
21.3846 31.4757
21.5662 31.7204
21.7479 31.2821
21.9297 32.5169
22.1115 40.6585
22.2933 37.1808
22.4753 31.8755
22.6572 30.7927
22.8393 32.1747
23.0214 31.8839
23.2037 36.8646
23.3859 31.8474
23.5682 33.1468
23.7505 35.9432
23.9329 31.4333
24.1154 29.624
24.2979 28.1091
24.4805 27.5443
24.6631 27.8644
24.8458 27.5212
25.0286 27.0336
25.2114 27.1995
25.3943 28.6169
25.5773 29.094
25.7605 26.5411
25.9436 26.8458
26.1268 25.9522
26.31 27.0438
26.4933 26.0696
26.6767 25.8978
26.8601 27.4933
27.0437 27.4454
27.2272 25.4507
27.4109 24.9417
27.5946 25.0908
27.7784 25.2561
27.9623 24.5247
28.1462 25.3388
28.3304 25.6744
28.5145 24.5648
28.6987 23.6518
28.8829 22.9516
29.0673 22.8464
29.2517 22.6843
29.4361 22.1344
29.6207 22.0776
29.8053 21.6837
29.99 21.314
30.1748 21.467
30.3597 21.056
30.5447 21.0853
30.7297 20.868
30.915 21.1197
31.1002 21.1084
31.2855 20.472
31.4708 20.2424
31.6563 20.2366
31.8418 20.1951
32.0275 19.7735
32.2132 19.9285
32.399 19.5519
32.5848 19.1224
32.7708 18.783
32.9569 18.7519
33.143 18.4689
33.3293 18.2368
33.5158 18.3157
33.7022 17.8172
33.8887 17.6784
34.0753 17.4209
34.262 17.1742
34.4488 16.9892
34.6357 16.7373
34.8227 16.5646
35.0098 16.3226
35.1969 16.2448
35.3842 16.0469
35.5716 15.963
35.759 15.9187
35.9468 15.6356
36.1345 15.4451
36.3222 15.2319
36.5101 15.1309
36.6981 14.883
36.8861 14.7962
37.0743 14.5965
37.2626 14.363
37.451 14.1722
37.6395 14.0786
37.8281 13.8738
38.0168 13.7249
38.2056 13.5594
38.3945 13.3474
38.5837 13.1334
38.7728 13.1193
38.9621 12.8258
39.1514 12.6842
39.3409 12.551
39.5304 12.4305
39.7201 12.3164
39.9099 12.1544
40.0999 12.019
40.2899 11.8978
40.48 11.6999
40.6703 11.593
40.8607 11.4346
41.0512 11.3044
41.242 11.161
41.4327 10.995
41.6236 10.8694
41.8146 10.7538
42.0057 10.6433
42.1969 10.4656
42.3882 10.3404
42.5797 10.2217
42.7713 10.1027
42.963 9.95298
43.1549 9.84961
43.3468 9.66837
43.5389 9.53698
43.7312 9.45444
43.9237 9.2748
44.1162 9.1543
44.3088 9.05165
44.5016 8.9114
44.6945 8.83399
44.8875 8.69886
45.0806 8.56597
45.2739 8.46598
45.4673 8.3374
45.6609 8.238
45.8546 8.11854
46.0484 8.03457
46.2424 7.93616
46.4365 7.79628
46.631 7.71934
46.8254 7.57668
47.0199 7.41807
47.2146 7.36974
47.4095 7.25264
47.6044 7.16398
47.7996 7.0368
47.9948 6.96545
48.1902 6.84216
48.3858 6.77216
48.5815 6.70367
48.7774 6.60618
48.9734 6.52304
49.1696 6.4103
49.3661 6.29738
49.5626 6.184
49.7592 6.11792
49.956 6.04923
50.153 5.9556
50.3501 5.86462
50.5474 5.76929
50.7448 5.6771
50.9424 5.65118
51.1402 5.56031
51.3381 5.44713
51.5362 5.37664
51.7344 5.248
51.9328 5.19112
52.1316 5.10599
52.3304 5.06655
52.5293 4.93012
52.7284 4.87632
52.9276 4.79608
53.1271 4.75
53.3267 4.69058
53.5265 4.58717
53.7264 4.47943
53.9266 4.39172
54.1269 4.3048
54.3274 4.21153
54.528 4.07969
54.7289 3.90412
54.9301 3.84397
55.1314 3.77505
55.3328 3.5616
55.5344 3.45922
55.7361 3.40625