File: XRD/Ni3Fe_FD0413.xy
TT I
1.27165 7.40475
1.45013 6.5544
1.62863 5.08205
1.80712 5.31023
1.98562 4.85979
2.16411 4.91061
2.34263 5.14448
2.52115 5.94961
2.69965 7.13909
2.87818 8.71359
3.05672 10.9911
3.23527 15.1194
3.4138 19.2662
3.59237 25.0176
3.77094 26.7915
3.9495 30.6464
4.12809 35.2508
4.30669 280.694
4.4853 72.9954
4.6639 56.4439
4.84253 67.7266
5.02118 88.5393
5.19981 421.589
5.37848 223.94
5.55716 104.948
5.73586 94.5824
5.91455 96.853
6.09328 3884.0
6.27201 86.7598
6.45075 69.0702
6.62952 64.4295
6.8083 60.4903
6.98711 57.5559
7.16591 57.2863
7.34475 106.774
7.5236 56.0953
7.70247 57.365
7.88135 58.8503
8.06026 63.5174
8.23919 71.2019
8.41812 87.8845
8.59709 1061.46
8.77609 104.095
8.9551 95.2174
9.13412 83.0983
9.31318 83.9366
9.49226 85.7243
9.67134 103.247
9.85047 102.152
10.0296 355.85
10.2088 520.545
10.388 108.254
10.5672 469.242
10.7465 89.0327
10.9257 80.5739
11.105 73.4115
11.2844 73.0159
11.4637 66.4184
11.6431 65.0473
11.8225 63.866
12.002 64.8452
12.1814 142.093
12.3609 74.8426
12.5405 66.1078
12.72 72.9143
12.8996 72.1733
13.0792 80.4111
13.2589 222.328
13.4386 139.337
13.6183 226.581
13.7981 106.728
13.9779 77.3798
14.1577 74.4898
14.3376 73.732
14.5175 70.0738
14.6974 72.0714
14.8774 109.374
15.0574 165.404
15.2374 73.3784
15.4175 67.805
15.5976 67.063
15.7778 94.8926
15.958 171.35
16.1382 64.9792
16.3185 60.2918
16.4988 56.8307
16.6792 55.8274
16.8596 56.6442
17.04 57.1333
17.2205 66.9678
17.401 74.6057
17.5815 60.5691
17.7622 62.6176
17.9428 75.346
18.1237 136.932
18.3044 89.1283
18.4852 82.7997
18.666 61.8979
18.8469 59.3481
19.0278 58.1021
19.2088 60.8957
19.3898 77.5615
19.5709 55.6868
19.752 54.4436
19.9332 57.226
20.1144 70.4237
20.2957 63.9276
20.477 55.9449
20.6586 50.8079
20.84 49.9993
21.0215 49.7501
21.203 51.6964
21.3846 50.2397
21.5662 49.9283
21.7479 53.5432
21.9297 65.3318
22.1115 57.0386
22.2933 51.2563
22.4753 49.8876
22.6572 49.8932
22.8393 52.5154
23.0214 58.97
23.2037 49.9443
23.3859 50.7207
23.5682 57.1949
23.7505 50.0462
23.9329 46.1589
24.1154 45.1312
24.2979 44.3709
24.4805 43.8203
24.6631 43.9018
24.8458 43.0591
25.0286 43.6517
25.2114 45.577
25.3943 45.8033
25.5773 41.9678
25.7605 41.4957
25.9436 41.6877
26.1268 42.6754
26.31 41.069
26.4933 41.6611
26.6767 43.1078
26.8601 41.4808
27.0437 39.807
27.2272 39.3644
27.4109 39.1186
27.5946 39.2944
27.7784 38.7268
27.9623 39.108
28.1462 39.6732
28.3304 38.1979
28.5145 36.7524
28.6987 36.4673
28.8829 36.2091
29.0673 35.4954
29.2517 35.135
29.4361 34.8001
29.6207 33.8034
29.8053 33.5865
29.99 33.4019
30.1748 33.16
30.3597 32.962
30.5447 32.806
30.7297 32.9579
30.915 32.3843
31.1002 31.8973
31.2855 31.6456
31.4708 31.5489
31.6563 31.1599
31.8418 30.7874
32.0275 30.6119
32.2132 30.128
32.399 29.6106
32.5848 29.0726
32.7708 28.8697
32.9569 28.6514
33.143 28.3618
33.3293 28.0661
33.5158 27.7355
33.7022 27.1463
33.8887 26.8924
34.0753 26.6134
34.262 26.2047
34.4488 25.9141
34.6357 25.5437
34.8227 25.2096
35.0098 25.0836
35.1969 24.7579
35.3842 24.4221
35.5716 24.2999
35.759 23.9481
35.9468 23.6973
36.1345 23.4164
36.3222 23.1978
36.5101 22.9315
36.6981 22.6233
36.8861 22.2478
37.0743 21.9803
37.2626 21.7363
37.451 21.4467
37.6395 21.2732
37.8281 20.9841
38.0168 20.6894
38.2056 20.4504
38.3945 20.1164
38.5837 19.8698
38.7728 19.6527
38.9621 19.4571
39.1514 19.1042
39.3409 18.9035
39.5304 18.7233
39.7201 18.4709
39.9099 18.2842
40.0999 18.0069
40.2899 17.7397
40.48 17.5133
40.6703 17.3377
40.8607 17.1264
41.0512 16.9116
41.242 16.591
41.4327 16.4563
41.6236 16.1854
41.8146 16.0871
42.0057 15.7639
42.1969 15.5658
42.3882 15.3995
42.5797 15.1468
42.7713 14.9613
42.963 14.7084
43.1549 14.559
43.3468 14.3848
43.5389 14.1489
43.7312 13.9164
43.9237 13.749
44.1162 13.58
44.3088 13.3441
44.5016 13.1655
44.6945 13.051
44.8875 12.8512
45.0806 12.6329
45.2739 12.4879
45.4673 12.3324
45.6609 12.1313
45.8546 11.9547
46.0484 11.8035
46.2424 11.5731
46.4365 11.481
46.631 11.268
46.8254 11.1273
47.0199 10.9403
47.2146 10.7693
47.4095 10.623
47.6044 10.4537
47.7996 10.3067
47.9948 10.1533
48.1902 9.98246
48.3858 9.88816
48.5815 9.73785
48.7774 9.6004
48.9734 9.4739
49.1696 9.34214
49.3661 9.14822
49.5626 9.0222
49.7592 8.87127
49.956 8.77922
50.153 8.58719
50.3501 8.50829
50.5474 8.36311
50.7448 8.2434
50.9424 8.10965
51.1402 7.97929
51.3381 7.82721
51.5362 7.73385
51.7344 7.61345
51.9328 7.47587
52.1316 7.33057
52.3304 7.21393
52.5293 7.08768
52.7284 6.98208
52.9276 6.87362
53.1271 6.76128
53.3267 6.63371
53.5265 6.52495
53.7264 6.38534
53.9266 6.30456
54.1269 6.19512
54.3274 6.07373
54.528 5.97321
54.7289 5.75623
54.9301 5.60213
55.1314 5.48119
55.3328 5.31023
55.5344 5.0717
55.7361 4.85556