File: XRD/Ni3Fe_FD0270.xy
TT I
1.27165 8.13433
1.45013 6.61948
1.62863 5.53347
1.80712 5.01503
1.98562 5.16716
2.16411 4.92831
2.34263 4.64053
2.52115 5.32572
2.69965 6.61617
2.87818 8.6992
3.05672 11.3388
3.23527 14.783
3.4138 19.3114
3.59237 24.0897
3.77094 26.8677
3.9495 30.4138
4.12809 35.5473
4.30669 192.688
4.4853 64.8052
4.6639 57.5164
4.84253 70.6036
5.02118 92.8055
5.19981 535.693
5.37848 266.164
5.55716 109.112
5.73586 97.8359
5.91455 102.997
6.09328 3678.81
6.27201 89.8944
6.45075 71.1559
6.62952 65.5111
6.8083 60.9096
6.98711 57.7957
7.16591 57.8959
7.34475 89.0849
7.5236 56.6071
7.70247 58.5888
7.88135 60.0234
8.06026 64.8457
8.23919 72.6373
8.41812 89.3061
8.59709 1075.76
8.77609 109.76
8.9551 95.1402
9.13412 85.5314
9.31318 86.5462
9.49226 88.1294
9.67134 101.715
9.85047 104.731
10.0296 429.725
10.2088 607.787
10.388 110.674
10.5672 457.003
10.7465 91.4848
10.9257 82.2167
11.105 75.1187
11.2844 72.8625
11.4637 67.61
11.6431 66.3722
11.8225 64.9208
12.002 66.5942
12.1814 142.829
12.3609 74.8039
12.5405 67.2962
12.72 72.4348
12.8996 74.1935
13.0792 83.1338
13.2589 225.951
13.4386 153.962
13.6183 227.801
13.7981 114.155
13.9779 79.2707
14.1577 75.6149
14.3376 74.0282
14.5175 71.8841
14.6974 73.5418
14.8774 115.286
15.0574 175.348
15.2374 74.0551
15.4175 69.2232
15.5976 68.7597
15.7778 100.245
15.958 177.191
16.1382 65.4414
16.3185 60.8522
16.4988 57.9047
16.6792 56.8654
16.8596 57.6079
17.04 58.4674
17.2205 68.1883
17.401 77.4604
17.5815 61.7813
17.7622 63.9567
17.9428 79.3618
18.1237 136.227
18.3044 90.8875
18.4852 85.5294
18.666 62.9219
18.8469 60.5157
19.0278 59.2185
19.2088 62.6441
19.3898 77.5747
19.5709 56.922
19.752 55.6377
19.9332 58.832
20.1144 71.5346
20.2957 64.7461
20.477 57.3839
20.6586 51.9288
20.84 50.8843
21.0215 50.8315
21.203 52.4292
21.3846 51.3798
21.5662 50.9375
21.7479 54.7114
21.9297 66.0938
22.1115 57.7447
22.2933 52.4438
22.4753 50.9893
22.6572 51.1209
22.8393 53.7725
23.0214 59.9954
23.2037 51.2486
23.3859 51.9579
23.5682 57.8452
23.7505 51.3644
23.9329 47.1418
24.1154 46.0458
24.2979 45.4333
24.4805 44.7839
24.6631 44.6778
24.8458 44.0736
25.0286 44.573
25.2114 46.3785
25.3943 46.3959
25.5773 42.6838
25.7605 42.1426
25.9436 42.4468
26.1268 43.3526
26.31 41.8324
26.4933 42.2797
26.6767 43.6955
26.8601 42.2446
27.0437 40.6901
27.2272 40.1495
27.4109 39.9387
27.5946 40.0019
27.7784 39.5399
27.9623 39.8468
28.1462 40.4434
28.3304 38.8645
28.5145 37.4544
28.6987 37.0471
28.8829 36.8976
29.0673 36.1518
29.2517 35.7242
29.4361 35.6692
29.6207 34.6516
29.8053 34.331
29.99 33.9156
30.1748 33.7343
30.3597 33.6367
30.5447 33.4821
30.7297 33.4523
30.915 33.0112
31.1002 32.3408
31.2855 32.1223
31.4708 31.9805
31.6563 31.6256
31.8418 31.3452
32.0275 31.1706
32.2132 30.6626
32.399 30.1946
32.5848 29.6902
32.7708 29.3667
32.9569 29.2122
33.143 28.9111
33.3293 28.5404
33.5158 28.1606
33.7022 27.718
33.8887 27.4915
34.0753 27.0372
34.262 26.7193
34.4488 26.4263
34.6357 26.0038
34.8227 25.756
35.0098 25.4795
35.1969 25.1521
35.3842 25.0143
35.5716 24.6761
35.759 24.3857
35.9468 24.0736
36.1345 23.8873
36.3222 23.5849
36.5101 23.3467
36.6981 23.0067
36.8861 22.6956
37.0743 22.3578
37.2626 22.1481
37.451 21.9191
37.6395 21.7112
37.8281 21.3538
38.0168 21.0674
38.2056 20.7231
38.3945 20.5796
38.5837 20.2719
38.7728 20.0317
38.9621 19.7394
39.1514 19.539
39.3409 19.2041
39.5304 18.9935
39.7201 18.8509
39.9099 18.5793
40.0999 18.3058
40.2899 18.0275
40.48 17.8477
40.6703 17.6713
40.8607 17.4597
41.0512 17.1899
41.242 16.9145
41.4327 16.7702
41.6236 16.5108
41.8146 16.2882
42.0057 16.0631
42.1969 15.8555
42.3882 15.639
42.5797 15.426
42.7713 15.2342
42.963 14.992
43.1549 14.8071
43.3468 14.6079
43.5389 14.4158
43.7312 14.1952
43.9237 14.0545
44.1162 13.8281
44.3088 13.6332
44.5016 13.3947
44.6945 13.2495
44.8875 13.0799
45.0806 12.8791
45.2739 12.6804
45.4673 12.5342
45.6609 12.354
45.8546 12.1597
46.0484 12.0027
46.2424 11.8296
46.4365 11.6712
46.631 11.4247
46.8254 11.3347
47.0199 11.1242
47.2146 11.0068
47.4095 10.8301
47.6044 10.6429
47.7996 10.5335
47.9948 10.3524
48.1902 10.1869
48.3858 10.0588
48.5815 9.89622
48.7774 9.80139
48.9734 9.63296
49.1696 9.50661
49.3661 9.33219
49.5626 9.14347
49.7592 9.05181
49.956 8.88737
50.153 8.75822
50.3501 8.64977
50.5474 8.51079
50.7448 8.38229
50.9424 8.23355
51.1402 8.10225
51.3381 7.96158
51.5362 7.87486
51.7344 7.72102
51.9328 7.58886
52.1316 7.47149
52.3304 7.40185
52.5293 7.24182
52.7284 7.14592
52.9276 6.98099
53.1271 6.84926
53.3267 6.79138
53.5265 6.63703
53.7264 6.52828
53.9266 6.42542
54.1269 6.30671
54.3274 6.1841
54.528 6.0549
54.7289 5.84909
54.9301 5.68424
55.1314 5.54467
55.3328 5.35827
55.5344 5.12314
55.7361 4.9777