File: XRD/Ni3Fe_FD0778.xy
TT I
1.27165 7.11134
1.45013 5.95024
1.62863 5.86822
1.80712 5.05716
1.98562 5.2588
2.16411 4.99244
2.34263 5.40742
2.52115 6.93822
2.69965 8.4016
2.87818 8.99622
3.05672 11.3293
3.23527 14.8836
3.4138 19.0957
3.59237 23.9117
3.77094 26.0246
3.9495 29.4912
4.12809 35.048
4.30669 197.33
4.4853 63.248
4.6639 54.7011
4.84253 66.6793
5.02118 85.6886
5.19981 317.679
5.37848 177.663
5.55716 100.575
5.73586 90.9394
5.91455 92.9132
6.09328 4432.05
6.27201 80.9483
6.45075 66.335
6.62952 62.0181
6.8083 57.9682
6.98711 54.9326
7.16591 54.5479
7.34475 86.9783
7.5236 54.2088
7.70247 55.7266
7.88135 57.3449
8.06026 61.3908
8.23919 68.5566
8.41812 84.1753
8.59709 1182.29
8.77609 96.8851
8.9551 90.1224
9.13412 81.1273
9.31318 81.4749
9.49226 83.8721
9.67134 96.4492
9.85047 98.6958
10.0296 323.242
10.2088 352.295
10.388 102.985
10.5672 535.611
10.7465 85.6504
10.9257 76.9364
11.105 70.8845
11.2844 69.1373
11.4637 64.3007
11.6431 63.0696
11.8225 61.9619
12.002 62.7895
12.1814 157.232
12.3609 68.966
12.5405 63.5835
12.72 69.0277
12.8996 70.1521
13.0792 78.0627
13.2589 237.746
13.4386 117.805
13.6183 251.07
13.7981 93.1702
13.9779 74.8959
14.1577 71.3864
14.3376 70.5623
14.5175 67.9972
14.6974 69.7398
14.8774 108.588
15.0574 144.294
15.2374 69.9558
15.4175 65.6405
15.5976 64.8691
15.7778 92.6092
15.958 150.872
16.1382 61.9358
16.3185 58.0356
16.4988 54.9415
16.6792 53.8068
16.8596 54.5724
17.04 55.093
17.2205 66.1802
17.401 68.5034
17.5815 58.7557
17.7622 60.8481
17.9428 72.5668
18.1237 142.009
18.3044 90.0093
18.4852 75.0193
18.666 59.5795
18.8469 57.3248
19.0278 56.1368
19.2088 58.7911
19.3898 76.4418
19.5709 53.3185
19.752 52.7703
19.9332 55.6874
20.1144 69.6401
20.2957 63.951
20.477 52.7493
20.6586 48.9739
20.84 48.308
21.0215 48.0765
21.203 50.4261
21.3846 48.4441
21.5662 48.2447
21.7479 51.942
21.9297 64.2047
22.1115 55.7137
22.2933 49.1811
22.4753 48.1834
22.6572 48.3556
22.8393 51.4268
23.0214 56.7642
23.2037 48.2052
23.3859 49.2276
23.5682 56.9106
23.7505 47.5194
23.9329 44.7735
24.1154 43.6281
24.2979 42.9527
24.4805 42.4077
24.6631 42.2578
24.8458 41.707
25.0286 42.418
25.2114 44.2564
25.3943 44.2104
25.5773 40.4928
25.7605 39.9596
25.9436 40.4974
26.1268 41.2946
26.31 39.5508
26.4933 40.3669
26.6767 41.7538
26.8601 39.9296
27.0437 38.4613
27.2272 38.174
27.4109 38.0328
27.5946 38.0402
27.7784 37.5128
27.9623 38.0482
28.1462 38.3625
28.3304 36.6816
28.5145 35.4746
28.6987 35.2254
28.8829 35.0242
29.0673 34.2838
29.2517 33.9554
29.4361 33.6801
29.6207 32.9142
29.8053 32.4686
29.99 32.2398
30.1748 32.2074
30.3597 31.866
30.5447 31.8036
30.7297 31.8941
30.915 31.3105
31.1002 30.7697
31.2855 30.5657
31.4708 30.4651
31.6563 29.9135
31.8418 29.8952
32.0275 29.5802
32.2132 29.1385
32.399 28.6478
32.5848 28.1686
32.7708 27.854
32.9569 27.8311
33.143 27.488
33.3293 27.2375
33.5158 26.7152
33.7022 26.2478
33.8887 26.2012
34.0753 25.6599
34.262 25.3727
34.4488 25.0386
34.6357 24.6901
34.8227 24.4233
35.0098 24.2114
35.1969 24.0003
35.3842 23.7254
35.5716 23.5219
35.759 23.2171
35.9468 22.9181
36.1345 22.6766
36.3222 22.4178
36.5101 22.1441
36.6981 21.9221
36.8861 21.5692
37.0743 21.3079
37.2626 21.027
37.451 20.7862
37.6395 20.5928
37.8281 20.2719
38.0168 20.0364
38.2056 19.8085
38.3945 19.4489
38.5837 19.3119
38.7728 19.046
38.9621 18.7599
39.1514 18.5021
39.3409 18.3012
39.5304 18.0435
39.7201 17.8794
39.9099 17.6935
40.0999 17.4041
40.2899 17.1769
40.48 16.9203
40.6703 16.7146
40.8607 16.551
41.0512 16.3642
41.242 16.1321
41.4327 15.9002
41.6236 15.6723
41.8146 15.5041
42.0057 15.2395
42.1969 15.0727
42.3882 14.8875
42.5797 14.6324
42.7713 14.4523
42.963 14.2925
43.1549 14.1073
43.3468 13.8864
43.5389 13.7028
43.7312 13.5001
43.9237 13.3189
44.1162 13.1337
44.3088 12.9463
44.5016 12.7431
44.6945 12.6034
44.8875 12.4345
45.0806 12.2473
45.2739 12.0522
45.4673 11.941
45.6609 11.7242
45.8546 11.577
46.0484 11.3973
46.2424 11.2805
46.4365 11.1056
46.631 10.9327
46.8254 10.782
47.0199 10.6271
47.2146 10.496
47.4095 10.2859
47.6044 10.1467
47.7996 9.99634
47.9948 9.83356
48.1902 9.6657
48.3858 9.59115
48.5815 9.45756
48.7774 9.26388
48.9734 9.14421
49.1696 9.03487
49.3661 8.88682
49.5626 8.71321
49.7592 8.62063
49.956 8.48911
50.153 8.36138
50.3501 8.19264
50.5474 8.11499
50.7448 7.95709
50.9424 7.8511
51.1402 7.73512
51.3381 7.58896
51.5362 7.49486
51.7344 7.35384
51.9328 7.2634
52.1316 7.11172
52.3304 7.00191
52.5293 6.91257
52.7284 6.77092
52.9276 6.64286
53.1271 6.58361
53.3267 6.43539
53.5265 6.31159
53.7264 6.23177
53.9266 6.12663
54.1269 6.01403
54.3274 5.89717
54.528 5.73898
54.7289 5.55984
54.9301 5.43678
55.1314 5.32267
55.3328 5.0703
55.5344 4.89702
55.7361 4.78979