File: XRD/Ni3Fe_FD0250.xy
TT I
1.27165 8.17155
1.45013 6.11977
1.62863 5.27308
1.80712 4.98553
1.98562 4.61051
2.16411 4.86607
2.34263 4.89212
2.52115 5.21298
2.69965 7.21219
2.87818 7.84393
3.05672 10.926
3.23527 15.1126
3.4138 18.6969
3.59237 22.4243
3.77094 26.0169
3.9495 30.2344
4.12809 34.9679
4.30669 40.7675
4.4853 48.3993
4.6639 58.4851
4.84253 71.467
5.02118 96.5912
5.19981 896.214
5.37848 262.05
5.55716 111.605
5.73586 100.88
5.91455 109.522
6.09328 3753.65
6.27201 88.5089
6.45075 70.9146
6.62952 64.363
6.8083 60.1839
6.98711 57.6527
7.16591 56.8867
7.34475 55.9759
7.5236 55.8437
7.70247 58.23
7.88135 60.3029
8.06026 65.4002
8.23919 73.0987
8.41812 90.4249
8.59709 1094.23
8.77609 109.367
8.9551 90.8832
9.13412 87.0771
9.31318 88.029
9.49226 89.7377
9.67134 95.6298
9.85047 106.54
10.0296 513.459
10.2088 515.574
10.388 115.63
10.5672 456.068
10.7465 91.8969
10.9257 80.3129
11.105 74.8922
11.2844 70.7141
11.4637 67.7637
11.6431 66.1114
11.8225 65.1622
12.002 68.6701
12.1814 142.117
12.3609 69.6851
12.5405 67.3251
12.72 69.6492
12.8996 74.882
13.0792 86.971
13.2589 233.09
13.4386 145.983
13.6183 229.349
13.7981 108.963
13.9779 79.8555
14.1577 75.1769
14.3376 72.9147
14.5175 72.477
14.6974 74.4804
14.8774 120.276
15.0574 166.537
15.2374 72.2612
15.4175 69.9194
15.5976 69.7546
15.7778 104.068
15.958 168.917
16.1382 63.542
16.3185 60.1435
16.4988 57.9673
16.6792 56.7939
16.8596 57.2029
17.04 59.2543
17.2205 69.1524
17.401 76.8255
17.5815 62.1426
17.7622 64.487
17.9428 82.6729
18.1237 139.411
18.3044 90.5365
18.4852 82.6095
18.666 63.2447
18.8469 60.8787
19.0278 59.542
19.2088 62.8422
19.3898 76.7304
19.5709 56.7334
19.752 56.1272
19.9332 59.356
20.1144 72.4291
20.2957 64.6748
20.477 56.4168
20.6586 51.9258
20.84 51.1211
21.0215 51.0647
21.203 52.4959
21.3846 51.5481
21.5662 51.8357
21.7479 55.3908
21.9297 66.6367
22.1115 57.6669
22.2933 52.2907
22.4753 50.8865
22.6572 51.8715
22.8393 54.1895
23.0214 59.7248
23.2037 51.269
23.3859 52.6185
23.5682 57.7344
23.7505 50.8206
23.9329 47.2356
24.1154 46.1112
24.2979 45.5052
24.4805 44.8002
24.6631 44.8363
24.8458 44.3029
25.0286 45.0009
25.2114 46.4413
25.3943 46.4201
25.5773 42.7514
25.7605 42.2637
25.9436 42.5785
26.1268 43.5435
26.31 42.0898
26.4933 42.4673
26.6767 43.8643
26.8601 42.2372
27.0437 40.6883
27.2272 40.2402
27.4109 39.9866
27.5946 40.1477
27.7784 39.6019
27.9623 40.0026
28.1462 40.3313
28.3304 38.8198
28.5145 37.4596
28.6987 37.0654
28.8829 36.9139
29.0673 36.1736
29.2517 35.7715
29.4361 35.6769
29.6207 34.6788
29.8053 34.3446
29.99 33.9497
30.1748 33.8023
30.3597 33.7657
30.5447 33.5803
30.7297 33.5897
30.915 33.0125
31.1002 32.5393
31.2855 32.2733
31.4708 32.1466
31.6563 31.7272
31.8418 31.3239
32.0275 31.1832
32.2132 30.7278
32.399 30.162
32.5848 29.785
32.7708 29.3882
32.9569 29.2637
33.143 28.8899
33.3293 28.607
33.5158 28.225
33.7022 27.7119
33.8887 27.4352
34.0753 27.1272
34.262 26.7297
34.4488 26.4409
34.6357 26.0753
34.8227 25.7277
35.0098 25.449
35.1969 25.2866
35.3842 24.98
35.5716 24.8279
35.759 24.4854
35.9468 24.1565
36.1345 23.8222
36.3222 23.6352
36.5101 23.3363
36.6981 23.0731
36.8861 22.7118
37.0743 22.4627
37.2626 22.1945
37.451 21.9252
37.6395 21.667
37.8281 21.3816
38.0168 21.1193
38.2056 20.8599
38.3945 20.5036
38.5837 20.2697
38.7728 19.9762
38.9621 19.6882
39.1514 19.5119
39.3409 19.2726
39.5304 19.0207
39.7201 18.8171
39.9099 18.5722
40.0999 18.3169
40.2899 18.1229
40.48 17.8468
40.6703 17.6609
40.8607 17.4328
41.0512 17.148
41.242 16.9281
41.4327 16.7345
41.6236 16.4983
41.8146 16.2707
42.0057 16.0401
42.1969 15.8294
42.3882 15.6337
42.5797 15.4071
42.7713 15.2332
42.963 15.05
43.1549 14.8057
43.3468 14.5853
43.5389 14.3791
43.7312 14.2014
43.9237 13.9711
44.1162 13.8417
44.3088 13.6025
44.5016 13.4019
44.6945 13.2374
44.8875 13.0594
45.0806 12.8855
45.2739 12.701
45.4673 12.5022
45.6609 12.3932
45.8546 12.1608
46.0484 12.006
46.2424 11.852
46.4365 11.6275
46.631 11.4419
46.8254 11.2817
47.0199 11.1536
47.2146 10.9914
47.4095 10.8455
47.6044 10.6601
47.7996 10.5043
47.9948 10.3705
48.1902 10.192
48.3858 10.0519
48.5815 9.88229
48.7774 9.75111
48.9734 9.61402
49.1696 9.46622
49.3661 9.32518
49.5626 9.16116
49.7592 9.04636
49.956 8.91374
50.153 8.76391
50.3501 8.61239
50.5474 8.50829
50.7448 8.39721
50.9424 8.24749
51.1402 8.07674
51.3381 7.95968
51.5362 7.83294
51.7344 7.70671
51.9328 7.59119
52.1316 7.41449
52.3304 7.30829
52.5293 7.24156
52.7284 7.11757
52.9276 6.98102
53.1271 6.89555
53.3267 6.76619
53.5265 6.62239
53.7264 6.51434
53.9266 6.44596
54.1269 6.29608
54.3274 6.17855
54.528 5.99932
54.7289 5.85921
54.9301 5.68862
55.1314 5.55893
55.3328 5.33836
55.5344 5.12721
55.7361 5.0188