File: XRD/Ni3Fe_FD0133.xy
TT I
1.27165 7.8334
1.45013 7.13703
1.62863 5.82184
1.80712 5.26746
1.98562 5.30546
2.16411 4.54592
2.34263 4.19783
2.52115 4.01567
2.69965 5.14624
2.87818 8.20553
3.05672 11.096
3.23527 14.8741
3.4138 18.6229
3.59237 21.4463
3.77094 24.7609
3.9495 28.5309
4.12809 32.3881
4.30669 37.4046
4.4853 44.7697
4.6639 53.4193
4.84253 65.7453
5.02118 90.6999
5.19981 574.814
5.37848 479.478
5.55716 108.348
5.73586 95.4665
5.91455 105.917
6.09328 2591.52
6.27201 90.0439
6.45075 66.2289
6.62952 59.4847
6.8083 55.2373
6.98711 53.4378
7.16591 52.0987
7.34475 51.8372
7.5236 56.4047
7.70247 53.5976
7.88135 55.6365
8.06026 60.1716
8.23919 67.4806
8.41812 82.9698
8.59709 855.974
8.77609 118.102
8.9551 84.9653
9.13412 80.6416
9.31318 86.9007
9.49226 83.1335
9.67134 88.279
9.85047 98.2775
10.0296 553.425
10.2088 1014.71
10.388 104.154
10.5672 315.339
10.7465 90.9521
10.9257 75.4182
11.105 69.707
11.2844 65.8375
11.4637 62.958
11.6431 61.6643
11.8225 60.6867
12.002 65.4828
12.1814 114.489
12.3609 75.9541
12.5405 62.9966
12.72 64.5529
12.8996 69.1814
13.0792 78.938
13.2589 199.509
13.4386 219.994
13.6183 186.655
13.7981 159.982
13.9779 75.4844
14.1577 74.2527
14.3376 68.461
14.5175 67.8104
14.6974 69.294
14.8774 120.682
15.0574 205.977
15.2374 68.7361
15.4175 65.6784
15.5976 65.1616
15.7778 107.118
15.958 183.853
16.1382 61.4274
16.3185 56.9916
16.4988 54.5197
16.6792 53.5481
16.8596 53.7635
17.04 54.987
17.2205 64.5212
17.401 81.2892
17.5815 58.6378
17.7622 60.9472
17.9428 83.613
18.1237 111.515
18.3044 87.9504
18.4852 95.6981
18.666 60.3756
18.8469 57.755
19.0278 56.2327
19.2088 61.3853
19.3898 68.0182
19.5709 56.1532
19.752 52.8995
19.9332 57.968
20.1144 65.8294
20.2957 60.5347
20.477 59.2639
20.6586 49.4696
20.84 48.6804
21.0215 48.871
21.203 49.4305
21.3846 50.2965
21.5662 48.67
21.7479 53.7955
21.9297 61.0157
22.1115 56.1778
22.2933 52.3325
22.4753 48.5971
22.6572 48.8017
22.8393 51.761
23.0214 56.2893
23.2037 49.7
23.3859 51.4586
23.5682 52.9382
23.7505 53.4183
23.9329 45.2829
24.1154 44.0773
24.2979 43.3917
24.4805 42.6504
24.6631 42.92
24.8458 42.3326
25.0286 42.7426
25.2114 44.269
25.3943 44.5512
25.5773 41.5791
25.7605 40.6009
25.9436 40.7877
26.1268 41.3523
26.31 40.6667
26.4933 40.6535
26.6767 41.6755
26.8601 41.1333
27.0437 39.3929
27.2272 38.7173
27.4109 38.4375
27.5946 38.4516
27.7784 38.3743
27.9623 38.288
28.1462 39.0349
28.3304 37.7471
28.5145 36.0812
28.6987 35.7774
28.8829 35.4404
29.0673 34.9851
29.2517 34.3448
29.4361 33.9915
29.6207 33.3478
29.8053 32.9356
29.99 32.5775
30.1748 32.3134
30.3597 32.3937
30.5447 32.074
30.7297 32.2055
30.915 31.9984
31.1002 31.1001
31.2855 30.8835
31.4708 30.79
31.6563 30.7029
31.8418 30.1865
32.0275 30.0012
32.2132 29.5433
32.399 29.0753
32.5848 28.5392
32.7708 28.2048
32.9569 28.0305
33.143 27.8306
33.3293 27.5114
33.5158 27.226
33.7022 26.6001
33.8887 26.3264
34.0753 26.0171
34.262 25.681
34.4488 25.3611
34.6357 24.9567
34.8227 24.7042
35.0098 24.5139
35.1969 24.1859
35.3842 24.0001
35.5716 23.8367
35.759 23.5667
35.9468 23.1528
36.1345 22.9579
36.3222 22.7361
36.5101 22.4786
36.6981 22.1487
36.8861 21.8806
37.0743 21.4705
37.2626 21.2501
37.451 21.0142
37.6395 20.9115
37.8281 20.5225
38.0168 20.2173
38.2056 19.9618
38.3945 19.726
38.5837 19.4044
38.7728 19.2664
38.9621 19.0186
39.1514 18.6636
39.3409 18.5194
39.5304 18.2576
39.7201 18.0456
39.9099 17.8619
40.0999 17.6136
40.2899 17.3367
40.48 17.1393
40.6703 16.9648
40.8607 16.738
41.0512 16.5154
41.242 16.2882
41.4327 16.0728
41.6236 15.8141
41.8146 15.6229
42.0057 15.4244
42.1969 15.214
42.3882 15.0862
42.5797 14.7917
42.7713 14.6332
42.963 14.4332
43.1549 14.2185
43.3468 14.0327
43.5389 13.825
43.7312 13.6182
43.9237 13.4543
44.1162 13.2688
44.3088 13.0932
44.5016 12.9074
44.6945 12.7019
44.8875 12.5564
45.0806 12.3779
45.2739 12.1991
45.4673 12.0398
45.6609 11.84
45.8546 11.6965
46.0484 11.5545
46.2424 11.4078
46.4365 11.2218
46.631 11.0386
46.8254 10.8331
47.0199 10.7311
47.2146 10.5556
47.4095 10.3648
47.6044 10.2133
47.7996 10.0584
47.9948 9.9675
48.1902 9.82196
48.3858 9.64897
48.5815 9.52046
48.7774 9.39259
48.9734 9.25128
49.1696 9.11498
49.3661 8.9492
49.5626 8.83199
49.7592 8.68235
49.956 8.53674
50.153 8.45305
50.3501 8.29065
50.5474 8.19382
50.7448 8.08198
50.9424 7.96076
51.1402 7.80924
51.3381 7.68851
51.5362 7.56631
51.7344 7.4101
51.9328 7.30609
52.1316 7.16578
52.3304 7.10184
52.5293 6.97759
52.7284 6.83869
52.9276 6.74403
53.1271 6.64531
53.3267 6.49039
53.5265 6.40239
53.7264 6.29038
53.9266 6.20538
54.1269 6.03595
54.3274 5.879
54.528 5.76692
54.7289 5.57178
54.9301 5.37526
55.1314 5.29324
55.3328 5.00321
55.5344 4.83849
55.7361 4.73986