File: XRD/Ni3Fe_FD0331.xy
TT I
1.27165 7.24206
1.45013 6.28266
1.62863 5.2556
1.80712 4.80015
1.98562 4.81369
2.16411 4.3033
2.34263 5.16901
2.52115 6.0861
2.69965 7.19908
2.87818 8.55452
3.05672 11.1495
3.23527 15.1698
3.4138 19.452
3.59237 24.1628
3.77094 26.4076
3.9495 30.1564
4.12809 34.9801
4.30669 171.611
4.4853 62.2047
4.6639 57.0355
4.84253 69.1275
5.02118 91.2814
5.19981 557.091
5.37848 227.847
5.55716 106.447
5.73586 96.5104
5.91455 101.098
6.09328 4037.09
6.27201 86.4961
6.45075 69.5427
6.62952 64.2329
6.8083 60.2785
6.98711 57.261
7.16591 56.5854
7.34475 84.1498
7.5236 55.9418
7.70247 57.6012
7.88135 59.1419
8.06026 63.9507
8.23919 71.5122
8.41812 88.3234
8.59709 1157.73
8.77609 104.602
8.9551 92.8133
9.13412 84.5135
9.31318 85.783
9.49226 87.1652
9.67134 99.7131
9.85047 103.695
10.0296 422.671
10.2088 495.26
10.388 109.189
10.5672 480.647
10.7465 89.4517
10.9257 80.2252
11.105 73.5472
11.2844 71.8387
11.4637 66.7236
11.6431 65.4016
11.8225 64.5525
12.002 66.0397
12.1814 148.438
12.3609 71.7285
12.5405 66.3652
12.72 71.5862
12.8996 73.2909
13.0792 82.3912
13.2589 242.514
13.4386 134.082
13.6183 240.07
13.7981 103.112
13.9779 78.074
14.1577 74.5418
14.3376 73.225
14.5175 71.042
14.6974 72.7292
14.8774 117.984
15.0574 157.474
15.2374 72.6613
15.4175 68.3611
15.5976 67.7992
15.7778 101.394
15.958 166.346
16.1382 64.2379
16.3185 60.0669
16.4988 57.1656
16.6792 56.1922
16.8596 56.8129
17.04 57.6654
17.2205 69.0709
17.401 74.4671
17.5815 61.0648
17.7622 63.0596
17.9428 78.685
18.1237 140.154
18.3044 91.4377
18.4852 80.7773
18.666 62.2295
18.8469 59.791
19.0278 58.6313
19.2088 62.0413
19.3898 77.425
19.5709 55.982
19.752 54.9995
19.9332 58.2633
20.1144 71.307
20.2957 64.5602
20.477 55.4245
20.6586 51.3421
20.84 50.2775
21.0215 50.3077
21.203 52.0675
21.3846 50.5857
21.5662 50.5368
21.7479 54.5423
21.9297 66.479
22.1115 57.3166
22.2933 51.5832
22.4753 50.3745
22.6572 50.8057
22.8393 53.6622
23.0214 59.0573
23.2037 50.2402
23.3859 51.4992
23.5682 57.6869
23.7505 49.9336
23.9329 46.7389
24.1154 45.5046
24.2979 44.95
24.4805 44.1862
24.6631 44.2019
24.8458 43.5595
25.0286 44.211
25.2114 46.0101
25.3943 46.0459
25.5773 42.1907
25.7605 41.7793
25.9436 42.124
26.1268 42.9199
26.31 41.413
26.4933 42.02
26.6767 43.3743
26.8601 41.621
27.0437 39.9969
27.2272 39.8112
27.4109 39.6153
27.5946 39.5239
27.7784 39.0731
27.9623 39.54
28.1462 39.9536
28.3304 38.3598
28.5145 36.9988
28.6987 36.72
28.8829 36.4856
29.0673 35.6739
29.2517 35.2383
29.4361 35.0923
29.6207 34.0736
29.8053 33.8918
29.99 33.639
30.1748 33.4053
30.3597 33.1745
30.5447 33.0668
30.7297 33.1771
30.915 32.5995
31.1002 32.1024
31.2855 31.9537
31.4708 31.6281
31.6563 31.24
31.8418 30.9477
32.0275 30.9016
32.2132 30.2268
32.399 29.7877
32.5848 29.1867
32.7708 29.0808
32.9569 28.8815
33.143 28.6451
33.3293 28.2595
33.5158 27.7744
33.7022 27.4149
33.8887 27.1082
34.0753 26.7406
34.262 26.3273
34.4488 26.0676
34.6357 25.7717
34.8227 25.4293
35.0098 25.1194
35.1969 24.8857
35.3842 24.6015
35.5716 24.444
35.759 24.1454
35.9468 23.86
36.1345 23.5533
36.3222 23.2995
36.5101 23.0514
36.6981 22.7457
36.8861 22.4208
37.0743 22.0807
37.2626 21.889
37.451 21.6482
37.6395 21.3615
37.8281 21.0633
38.0168 20.7404
38.2056 20.4883
38.3945 20.2685
38.5837 20.0755
38.7728 19.7515
38.9621 19.5353
39.1514 19.2537
39.3409 19.0412
39.5304 18.7817
39.7201 18.5846
39.9099 18.2965
40.0999 18.1421
40.2899 17.877
40.48 17.5881
40.6703 17.3966
40.8607 17.2306
41.0512 17.0156
41.242 16.7582
41.4327 16.496
41.6236 16.2814
41.8146 16.0972
42.0057 15.8666
42.1969 15.6056
42.3882 15.3764
42.5797 15.258
42.7713 15.0106
42.963 14.8875
43.1549 14.6467
43.3468 14.3846
43.5389 14.2572
43.7312 14.0295
43.9237 13.8945
44.1162 13.611
44.3088 13.4709
44.5016 13.2174
44.6945 13.0803
44.8875 12.8732
45.0806 12.7225
45.2739 12.5266
45.4673 12.3526
45.6609 12.2041
45.8546 12.0211
46.0484 11.8472
46.2424 11.675
46.4365 11.544
46.631 11.3239
46.8254 11.1591
47.0199 10.9908
47.2146 10.8756
47.4095 10.6875
47.6044 10.5181
47.7996 10.3701
47.9948 10.2036
48.1902 10.0853
48.3858 9.94906
48.5815 9.80317
48.7774 9.67251
48.9734 9.49564
49.1696 9.37513
49.3661 9.17742
49.5626 9.03032
49.7592 8.95725
49.956 8.83106
50.153 8.68342
50.3501 8.52724
50.5474 8.39637
50.7448 8.29058
50.9424 8.19432
51.1402 8.00959
51.3381 7.88108
51.5362 7.75212
51.7344 7.62185
51.9328 7.49708
52.1316 7.38932
52.3304 7.26878
52.5293 7.13284
52.7284 7.05468
52.9276 6.89557
53.1271 6.81766
53.3267 6.64721
53.5265 6.57125
53.7264 6.41985
53.9266 6.33051
54.1269 6.21365
54.3274 6.10037
54.528 5.93511
54.7289 5.80803
54.9301 5.64403
55.1314 5.49758
55.3328 5.31406
55.5344 5.11895
55.7361 4.92153