File: XRD/Ni3Fe_FD0304.xy
TT I
1.27165 8.12313
1.45013 6.03935
1.62863 5.70126
1.80712 5.21723
1.98562 4.64968
2.16411 4.73544
2.34263 5.40227
2.52115 5.24838
2.69965 6.76721
2.87818 8.28392
3.05672 11.1206
3.23527 15.3278
3.4138 19.3623
3.59237 25.5182
3.77094 27.0479
3.9495 30.9666
4.12809 36.3696
4.30669 318.084
4.4853 77.4686
4.6639 56.9011
4.84253 69.1648
5.02118 90.5212
5.19981 485.345
5.37848 257.321
5.55716 106.703
5.73586 95.9598
5.91455 99.4334
6.09328 3660.95
6.27201 90.0966
6.45075 70.4582
6.62952 65.7062
6.8083 61.6732
6.98711 58.0001
7.16591 58.2401
7.34475 115.142
7.5236 57.0341
7.70247 58.288
7.88135 59.7214
8.06026 64.2003
8.23919 71.9888
8.41812 89.7921
8.59709 970.8
8.77609 107.804
8.9551 98.558
9.13412 84.673
9.31318 85.244
9.49226 86.7381
9.67134 106.677
9.85047 103.406
10.0296 369.959
10.2088 591.951
10.388 110.417
10.5672 443.461
10.7465 90.8114
10.9257 81.9661
11.105 74.4204
11.2844 74.3135
11.4637 67.7267
11.6431 65.9172
11.8225 64.6849
12.002 66.0735
12.1814 135.092
12.3609 77.5723
12.5405 66.8406
12.72 74.4123
12.8996 73.3776
13.0792 81.4838
13.2589 208.878
13.4386 149.86
13.6183 211.271
13.7981 112.81
13.9779 78.5605
14.1577 75.4444
14.3376 75.3784
14.5175 71.2009
14.6974 72.8694
14.8774 108.101
15.0574 175.476
15.2374 74.8499
15.4175 68.6145
15.5976 68.0767
15.7778 94.5384
15.958 181.755
16.1382 66.4186
16.3185 61.3995
16.4988 57.587
16.6792 56.5735
16.8596 57.5442
17.04 57.8191
17.2205 66.8107
17.401 77.7647
17.5815 61.3704
17.7622 63.2346
17.9428 76.6511
18.1237 137.43
18.3044 88.4129
18.4852 86.1224
18.666 62.6512
18.8469 60.0673
19.0278 59.2377
19.2088 61.9893
19.3898 78.6012
19.5709 56.6215
19.752 55.2165
19.9332 58.168
20.1144 71.2906
20.2957 63.6807
20.477 56.8639
20.6586 51.5223
20.84 50.6212
21.0215 50.4124
21.203 52.1977
21.3846 50.9409
21.5662 50.3828
21.7479 54.1306
21.9297 66.3654
22.1115 57.3836
22.2933 52.3462
22.4753 50.9552
22.6572 50.5877
22.8393 52.842
23.0214 60.1662
23.2037 50.7449
23.3859 51.5649
23.5682 57.1566
23.7505 51.1452
23.9329 47.0336
24.1154 45.693
24.2979 45.0818
24.4805 44.421
24.6631 44.4357
24.8458 43.7706
25.0286 44.2902
25.2114 46.0019
25.3943 46.4687
25.5773 42.498
25.7605 41.822
25.9436 42.1127
26.1268 43.0492
26.31 41.6914
26.4933 42.0999
26.6767 43.4558
26.8601 42.0447
27.0437 40.2415
27.2272 39.8402
27.4109 39.5576
27.5946 39.6625
27.7784 39.2595
27.9623 39.5165
28.1462 40.4219
28.3304 38.7896
28.5145 37.3334
28.6987 36.9635
28.8829 36.7517
29.0673 35.9993
29.2517 35.4877
29.4361 35.3448
29.6207 34.3021
29.8053 34.066
29.99 33.7964
30.1748 33.5063
30.3597 33.4767
30.5447 33.202
30.7297 33.2541
30.915 32.8221
31.1002 32.2705
31.2855 31.9796
31.4708 31.8807
31.6563 31.5183
31.8418 31.0862
32.0275 31.0296
32.2132 30.4582
32.399 29.9352
32.5848 29.5238
32.7708 29.2143
32.9569 29.0857
33.143 28.6263
33.3293 28.3753
33.5158 28.0367
33.7022 27.5635
33.8887 27.2737
34.0753 26.9377
34.262 26.498
34.4488 26.2033
34.6357 25.916
34.8227 25.5909
35.0098 25.4178
35.1969 25.0332
35.3842 24.8837
35.5716 24.6497
35.759 24.255
35.9468 23.9801
36.1345 23.7645
36.3222 23.3886
36.5101 23.1834
36.6981 22.9057
36.8861 22.5873
37.0743 22.3386
37.2626 22.0407
37.451 21.7326
37.6395 21.5927
37.8281 21.2432
38.0168 20.8819
38.2056 20.6299
38.3945 20.4252
38.5837 20.1309
38.7728 19.9477
38.9621 19.6967
39.1514 19.4326
39.3409 19.1548
39.5304 18.931
39.7201 18.6803
39.9099 18.5029
40.0999 18.2269
40.2899 18.0128
40.48 17.6979
40.6703 17.5285
40.8607 17.3567
41.0512 17.1452
41.242 16.8423
41.4327 16.6005
41.6236 16.4058
41.8146 16.2711
42.0057 16.0278
42.1969 15.7882
42.3882 15.5702
42.5797 15.3925
42.7713 15.199
42.963 14.9792
43.1549 14.7343
43.3468 14.4892
43.5389 14.3622
43.7312 14.1122
43.9237 13.9108
44.1162 13.7845
44.3088 13.5961
44.5016 13.3613
44.6945 13.2535
44.8875 12.9749
45.0806 12.8244
45.2739 12.65
45.4673 12.4625
45.6609 12.3093
45.8546 12.1311
46.0484 11.9539
46.2424 11.772
46.4365 11.6106
46.631 11.4265
46.8254 11.2321
47.0199 11.0823
47.2146 10.9384
47.4095 10.7626
47.6044 10.5595
47.7996 10.4378
47.9948 10.3013
48.1902 10.1652
48.3858 10.0198
48.5815 9.87741
48.7774 9.70832
48.9734 9.57734
49.1696 9.44089
49.3661 9.27573
49.5626 9.12675
49.7592 9.02786
49.956 8.90641
50.153 8.72007
50.3501 8.5896
50.5474 8.47193
50.7448 8.34522
50.9424 8.20031
51.1402 8.10869
51.3381 7.96391
51.5362 7.8599
51.7344 7.70609
51.9328 7.50347
52.1316 7.41819
52.3304 7.31684
52.5293 7.19949
52.7284 7.08774
52.9276 6.9651
53.1271 6.83776
53.3267 6.75168
53.5265 6.60408
53.7264 6.48941
53.9266 6.37974
54.1269 6.26302
54.3274 6.1915
54.528 6.04019
54.7289 5.85976
54.9301 5.67448
55.1314 5.52964
55.3328 5.33445
55.5344 5.12316
55.7361 5.0045