File: XRD/Ni3Fe_FD0058.xy
TT I
1.27165 32.2801
1.45013 26.9696
1.62863 22.9408
1.80712 20.592
1.98562 20.4418
2.16411 20.156
2.34263 20.5772
2.52115 21.3964
2.69965 26.0837
2.87818 35.9448
3.05672 63.8401
3.23527 64.8418
3.4138 34.0164
3.59237 27.083
3.77094 25.8923
3.9495 26.7752
4.12809 29.6721
4.30669 37.5169
4.4853 37.7715
4.6639 43.6284
4.84253 56.0432
5.02118 105.946
5.19981 328.205
5.37848 2919.77
5.55716 149.245
5.73586 103.966
5.91455 121.413
6.09328 598.101
6.27201 206.258
6.45075 64.3614
6.62952 47.8915
6.8083 42.4711
6.98711 41.6755
7.16591 43.4494
7.34475 39.9576
7.5236 63.6088
7.70247 44.0597
7.88135 39.5809
8.06026 41.4875
8.23919 47.0974
8.41812 60.8303
8.59709 193.094
8.77609 325.201
8.9551 74.6929
9.13412 66.305
9.31318 309.571
9.49226 60.0784
9.67134 58.5215
9.85047 65.1736
10.0296 127.543
10.2088 702.141
10.388 97.0514
10.5672 101.328
10.7465 181.759
10.9257 52.2806
11.105 45.9963
11.2844 43.808
11.4637 41.1235
11.6431 40.1255
11.8225 40.7784
12.002 116.838
12.1814 51.3231
12.3609 81.3033
12.5405 42.8463
12.72 40.8392
12.8996 42.3664
13.0792 49.7106
13.2589 69.8533
13.4386 188.599
13.6183 79.4043
13.7981 177.934
13.9779 54.5093
14.1577 69.1943
14.3376 47.0407
14.5175 42.6213
14.6974 42.5513
14.8774 50.1968
15.0574 81.5428
15.2374 57.2759
15.4175 42.686
15.5976 41.3604
15.7778 46.8474
15.958 67.3518
16.1382 74.1178
16.3185 38.5566
16.4988 35.4086
16.6792 34.5596
16.8596 34.6423
17.04 41.2262
17.2205 36.3388
17.401 41.9599
17.5815 38.9542
17.7622 38.9397
17.9428 41.5029
18.1237 46.7301
18.3044 76.4391
18.4852 56.8128
18.666 47.1858
18.8469 37.4175
19.0278 36.0346
19.2088 36.3628
19.3898 47.7217
19.5709 43.4629
19.752 34.4774
19.9332 33.8115
20.1144 34.8052
20.2957 41.771
20.477 39.5061
20.6586 33.1412
20.84 35.2586
21.0215 30.8467
21.203 30.307
21.3846 31.6486
21.5662 31.6264
21.7479 31.2244
21.9297 32.573
22.1115 39.92
22.2933 36.5776
22.4753 31.6836
22.6572 30.6894
22.8393 32.1473
23.0214 32.066
23.2037 36.1075
23.3859 31.8843
23.5682 32.8495
23.7505 35.7568
23.9329 31.0965
24.1154 29.4382
24.2979 27.9966
24.4805 27.5186
24.6631 28.0136
24.8458 27.5425
25.0286 26.9959
25.2114 27.1953
25.3943 28.3725
25.5773 28.7503
25.7605 26.4647
25.9436 26.6563
26.1268 25.9327
26.31 26.8571
26.4933 25.9661
26.6767 25.8833
26.8601 27.4318
27.0437 27.1206
27.2272 25.3368
27.4109 24.8972
27.5946 24.8663
27.7784 24.983
27.9623 24.5362
28.1462 25.0254
28.3304 25.4376
28.5145 24.4659
28.6987 23.6209
28.8829 22.9177
29.0673 22.8253
29.2517 22.454
29.4361 22.1156
29.6207 22.0895
29.8053 21.5844
29.99 21.3798
30.1748 21.4225
30.3597 21.0455
30.5447 21.0496
30.7297 20.8141
30.915 21.1055
31.1002 20.9338
31.2855 20.5056
31.4708 20.2107
31.6563 20.2098
31.8418 20.0527
32.0275 19.7245
32.2132 19.7687
32.399 19.4429
32.5848 18.9916
32.7708 18.7147
32.9569 18.7084
33.143 18.4696
33.3293 18.2391
33.5158 18.1719
33.7022 17.7476
33.8887 17.5477
34.0753 17.3771
34.262 17.1409
34.4488 16.8759
34.6357 16.7264
34.8227 16.5343
35.0098 16.3275
35.1969 16.2359
35.3842 15.9926
35.5716 15.8661
35.759 15.8576
35.9468 15.5805
36.1345 15.377
36.3222 15.2158
36.5101 15.1423
36.6981 14.9562
36.8861 14.7666
37.0743 14.5514
37.2626 14.3525
37.451 14.2059
37.6395 14.0954
37.8281 13.8473
38.0168 13.6542
38.2056 13.5468
38.3945 13.3303
38.5837 13.1995
38.7728 13.0262
38.9621 12.9078
39.1514 12.6772
39.3409 12.5428
39.5304 12.3534
39.7201 12.2653
39.9099 12.0889
40.0999 11.9849
40.2899 11.8623
40.48 11.6538
40.6703 11.543
40.8607 11.402
41.0512 11.2866
41.242 11.1021
41.4327 10.9854
41.6236 10.8446
41.8146 10.719
42.0057 10.576
42.1969 10.4744
42.3882 10.3204
42.5797 10.1483
42.7713 10.0217
42.963 9.89071
43.1549 9.73548
43.3468 9.63679
43.5389 9.56446
43.7312 9.40178
43.9237 9.29399
44.1162 9.12233
44.3088 9.0357
44.5016 8.91178
44.6945 8.808
44.8875 8.69041
45.0806 8.56088
45.2739 8.43327
45.4673 8.35204
45.6609 8.16501
45.8546 8.12309
46.0484 7.98121
46.2424 7.87898
46.4365 7.81824
46.631 7.68917
46.8254 7.56807
47.0199 7.44367
47.2146 7.35675
47.4095 7.24973
47.6044 7.13091
47.7996 7.00568
47.9948 6.92644
48.1902 6.82454
48.3858 6.73781
48.5815 6.64721
48.7774 6.53727
48.9734 6.4682
49.1696 6.35951
49.3661 6.28087
49.5626 6.1733
49.7592 6.13277
49.956 6.02955
50.153 5.93658
50.3501 5.84156
50.5474 5.75353
50.7448 5.69242
50.9424 5.6045
51.1402 5.49359
51.3381 5.41417
51.5362 5.32429
51.7344 5.25913
51.9328 5.15791
52.1316 5.07814
52.3304 5.03055
52.5293 4.92191
52.7284 4.8754
52.9276 4.78729
53.1271 4.73609
53.3267 4.62007
53.5265 4.53239
53.7264 4.44709
53.9266 4.36841
54.1269 4.29986
54.3274 4.23487
54.528 4.06611
54.7289 3.92883
54.9301 3.85933
55.1314 3.68225
55.3328 3.55401
55.5344 3.43205
55.7361 3.33292