File: XRD/Ni3Fe_FD0212.xy
TT I
1.27165 7.79228
1.45013 7.02897
1.62863 6.40271
1.80712 5.56408
1.98562 5.33945
2.16411 4.36689
2.34263 4.42315
2.52115 4.90329
2.69965 6.14979
2.87818 7.9329
3.05672 10.8865
3.23527 15.1924
3.4138 19.3544
3.59237 22.5969
3.77094 26.082
3.9495 30.1339
4.12809 34.8441
4.30669 40.705
4.4853 48.7691
4.6639 58.3448
4.84253 72.0243
5.02118 97.1144
5.19981 888.186
5.37848 281.684
5.55716 112.978
5.73586 101.316
5.91455 111.743
6.09328 3578.74
6.27201 89.8078
6.45075 71.5089
6.62952 64.1526
6.8083 60.2008
6.98711 57.5621
7.16591 56.8051
7.34475 55.7402
7.5236 56.7006
7.70247 58.1224
7.88135 60.3938
8.06026 65.3043
8.23919 73.388
8.41812 90.8138
8.59709 1048.16
8.77609 111.846
8.9551 91.0276
9.13412 87.0167
9.31318 88.7187
9.49226 89.8539
9.67134 95.7025
9.85047 107.142
10.0296 525.302
10.2088 593.464
10.388 114.419
10.5672 436.835
10.7465 92.7735
10.9257 80.9666
11.105 74.9197
11.2844 70.8657
11.4637 68.1374
11.6431 66.5034
11.8225 65.4923
12.002 68.7857
12.1814 138.03
12.3609 70.6313
12.5405 67.7817
12.72 69.9687
12.8996 75.0094
13.0792 86.1889
13.2589 225.992
13.4386 152.737
13.6183 222.476
13.7981 114.369
13.9779 80.2184
14.1577 75.6462
14.3376 73.181
14.5175 72.6401
14.6974 74.8853
14.8774 119.323
15.0574 177.375
15.2374 72.4838
15.4175 69.9333
15.5976 70.0341
15.7778 103.838
15.958 178.612
16.1382 64.3105
16.3185 60.4823
16.4988 58.1859
16.6792 57.1623
16.8596 57.6161
17.04 59.3816
17.2205 68.9045
17.401 78.0239
17.5815 62.5235
17.7622 64.6478
17.9428 83.1943
18.1237 137.433
18.3044 90.1119
18.4852 85.3495
18.666 63.582
18.8469 61.0913
19.0278 59.6569
19.2088 63.2777
19.3898 76.3202
19.5709 57.2423
19.752 56.281
19.9332 59.7569
20.1144 72.393
20.2957 64.3533
20.477 57.2107
20.6586 52.0744
20.84 51.4315
21.0215 51.209
21.203 52.7557
21.3846 51.7617
21.5662 51.8209
21.7479 55.5989
21.9297 66.4931
22.1115 57.8321
22.2933 52.8433
22.4753 50.9266
22.6572 52.0431
22.8393 54.2706
23.0214 60.0901
23.2037 51.469
23.3859 52.7787
23.5682 57.3864
23.7505 51.749
23.9329 47.6263
24.1154 46.288
24.2979 45.645
24.4805 44.9995
24.6631 44.9739
24.8458 44.4746
25.0286 45.2518
25.2114 46.5972
25.3943 46.7907
25.5773 43.0491
25.7605 42.6607
25.9436 42.747
26.1268 43.8251
26.31 42.394
26.4933 42.6626
26.6767 43.9846
26.8601 42.4777
27.0437 40.7836
27.2272 40.5559
27.4109 40.2967
27.5946 40.3715
27.7784 39.8851
27.9623 39.9817
28.1462 40.6088
28.3304 38.9868
28.5145 37.7367
28.6987 37.3127
28.8829 36.9814
29.0673 36.4148
29.2517 35.9492
29.4361 35.8351
29.6207 34.7911
29.8053 34.4547
29.99 34.0846
30.1748 33.9713
30.3597 33.8756
30.5447 33.7792
30.7297 33.6522
30.915 33.2001
31.1002 32.6336
31.2855 32.3574
31.4708 32.2738
31.6563 32.0082
31.8418 31.5659
32.0275 31.3569
32.2132 30.8445
32.399 30.3563
32.5848 29.8264
32.7708 29.518
32.9569 29.4489
33.143 29.2095
33.3293 28.7805
33.5158 28.3444
33.7022 27.8792
33.8887 27.6272
34.0753 27.3094
34.262 26.853
34.4488 26.4723
34.6357 26.1636
34.8227 25.926
35.0098 25.5619
35.1969 25.3737
35.3842 25.1251
35.5716 24.9353
35.759 24.5834
35.9468 24.2722
36.1345 24.03
36.3222 23.7411
36.5101 23.4768
36.6981 23.177
36.8861 22.8893
37.0743 22.5322
37.2626 22.2777
37.451 21.9153
37.6395 21.9105
37.8281 21.4207
38.0168 21.1786
38.2056 20.8967
38.3945 20.6744
38.5837 20.3619
38.7728 20.1816
38.9621 19.9025
39.1514 19.6258
39.3409 19.3552
39.5304 19.1223
39.7201 18.948
39.9099 18.6991
40.0999 18.4236
40.2899 18.1943
40.48 17.9658
40.6703 17.688
40.8607 17.5669
41.0512 17.2866
41.242 17.024
41.4327 16.776
41.6236 16.616
41.8146 16.3835
42.0057 16.1538
42.1969 15.9519
42.3882 15.7691
42.5797 15.5452
42.7713 15.3312
42.963 15.0973
43.1549 14.8971
43.3468 14.6737
43.5389 14.4618
43.7312 14.3135
43.9237 14.0578
44.1162 13.8789
44.3088 13.7368
44.5016 13.4775
44.6945 13.3104
44.8875 13.121
45.0806 12.9488
45.2739 12.8027
45.4673 12.6063
45.6609 12.402
45.8546 12.2465
46.0484 12.0425
46.2424 11.8696
46.4365 11.7119
46.631 11.5683
46.8254 11.3336
47.0199 11.1826
47.2146 11.0408
47.4095 10.8808
47.6044 10.7184
47.7996 10.5345
47.9948 10.3895
48.1902 10.2557
48.3858 10.0928
48.5815 9.97537
48.7774 9.80282
48.9734 9.715
49.1696 9.50035
49.3661 9.34747
49.5626 9.21163
49.7592 9.07929
49.956 8.95709
50.153 8.83413
50.3501 8.66816
50.5474 8.52852
50.7448 8.40791
50.9424 8.28457
51.1402 8.17233
51.3381 7.98681
51.5362 7.90325
51.7344 7.78377
51.9328 7.62313
52.1316 7.46131
52.3304 7.42224
52.5293 7.26237
52.7284 7.1537
52.9276 7.03798
53.1271 6.87035
53.3267 6.79173
53.5265 6.67076
53.7264 6.55364
53.9266 6.44339
54.1269 6.32352
54.3274 6.16839
54.528 6.00613
54.7289 5.86126
54.9301 5.70703
55.1314 5.58505
55.3328 5.34688
55.5344 5.13384
55.7361 4.97398