File: XRD/Ni3Fe_FD0428.xy
TT I
1.27165 7.25507
1.45013 5.92311
1.62863 5.60937
1.80712 4.91348
1.98562 4.83976
2.16411 4.88336
2.34263 4.9998
2.52115 6.4592
2.69965 6.99338
2.87818 8.83768
3.05672 10.8003
3.23527 14.9428
3.4138 19.1484
3.59237 24.8408
3.77094 26.7127
3.9495 30.5463
4.12809 35.3374
4.30669 256.872
4.4853 69.9835
4.6639 56.6017
4.84253 67.9753
5.02118 88.4348
5.19981 415.37
5.37848 209.042
5.55716 104.106
5.73586 93.5731
5.91455 97.1105
6.09328 4041.5
6.27201 85.4809
6.45075 68.3926
6.62952 64.1214
6.8083 59.9424
6.98711 56.953
7.16591 56.8744
7.34475 101.571
7.5236 56.022
7.70247 57.2754
7.88135 58.798
8.06026 63.0678
8.23919 70.4676
8.41812 87.2956
8.59709 1127.49
8.77609 102.707
8.9551 94.1283
9.13412 82.7677
9.31318 83.872
9.49226 85.7772
9.67134 102.079
9.85047 101.824
10.0296 355.276
10.2088 442.89
10.388 107.178
10.5672 499.101
10.7465 88.3528
10.9257 80.1397
11.105 73.1291
11.2844 72.4328
11.4637 66.1231
11.6431 64.6704
11.8225 63.6446
12.002 64.7663
12.1814 149.232
12.3609 73.1428
12.5405 65.7434
12.72 72.1988
12.8996 71.9753
13.0792 80.2457
13.2589 229.279
13.4386 131.404
13.6183 236.344
13.7981 101.065
13.9779 77.2194
14.1577 74.0939
14.3376 73.4989
14.5175 69.8253
14.6974 71.5693
14.8774 110.444
15.0574 159.608
15.2374 72.9796
15.4175 67.749
15.5976 67.1729
15.7778 95.6726
15.958 163.546
16.1382 64.4501
16.3185 59.9746
16.4988 56.5105
16.6792 55.6639
16.8596 56.4799
17.04 56.8867
17.2205 67.1399
17.401 72.9493
17.5815 60.4224
17.7622 62.5201
17.9428 75.1117
18.1237 141.342
18.3044 90.1597
18.4852 80.1624
18.666 61.7451
18.8469 59.2396
19.0278 58.0533
19.2088 60.856
19.3898 78.1056
19.5709 55.3395
19.752 54.2912
19.9332 57.3004
20.1144 71.2108
20.2957 64.1253
20.477 54.9916
20.6586 50.6196
20.84 49.7105
21.0215 49.449
21.203 51.7055
21.3846 49.9703
21.5662 49.8064
21.7479 53.4665
21.9297 65.9411
22.1115 56.8165
22.2933 51.0325
22.4753 49.9141
22.6572 49.7755
22.8393 52.7483
23.0214 58.8706
23.2037 49.7386
23.3859 50.6991
23.5682 57.5906
23.7505 49.425
23.9329 46.1122
24.1154 44.9976
24.2979 44.3864
24.4805 43.7139
24.6631 43.6992
24.8458 43.0573
25.0286 43.7188
25.2114 45.4998
25.3943 45.6734
25.5773 41.7847
25.7605 41.2979
25.9436 41.6404
26.1268 42.6568
26.31 40.8123
26.4933 41.464
26.6767 42.9993
26.8601 41.1082
27.0437 39.5872
27.2272 39.2926
27.4109 39.0132
27.5946 39.1023
27.7784 38.554
27.9623 39.1589
28.1462 39.5863
28.3304 37.9564
28.5145 36.6461
28.6987 36.2666
28.8829 36.1447
29.0673 35.3271
29.2517 34.9203
29.4361 34.8954
29.6207 33.8545
29.8053 33.6037
29.99 33.2309
30.1748 33.0762
30.3597 32.862
30.5447 32.6769
30.7297 32.8388
30.915 32.2002
31.1002 31.6447
31.2855 31.4961
31.4708 31.3527
31.6563 30.8598
31.8418 30.6618
32.0275 30.5582
32.2132 29.9001
32.399 29.4408
32.5848 29.043
32.7708 28.6689
32.9569 28.5034
33.143 28.3211
33.3293 27.9562
33.5158 27.5888
33.7022 27.1112
33.8887 26.809
34.0753 26.4504
34.262 26.1232
34.4488 25.7749
34.6357 25.4494
34.8227 25.2448
35.0098 24.9913
35.1969 24.7279
35.3842 24.385
35.5716 24.2478
35.759 23.967
35.9468 23.5322
36.1345 23.2905
36.3222 23.0384
36.5101 22.8558
36.6981 22.531
36.8861 22.2234
37.0743 21.8387
37.2626 21.6638
37.451 21.353
37.6395 21.22
37.8281 20.9287
38.0168 20.6248
38.2056 20.4179
38.3945 20.0889
38.5837 19.806
38.7728 19.5767
38.9621 19.3141
39.1514 19.0583
39.3409 18.8096
39.5304 18.6155
39.7201 18.4429
39.9099 18.2079
40.0999 17.9176
40.2899 17.7182
40.48 17.4574
40.6703 17.2768
40.8607 17.056
41.0512 16.8685
41.242 16.6154
41.4327 16.3969
41.6236 16.1968
41.8146 16.0137
42.0057 15.8098
42.1969 15.4823
42.3882 15.3808
42.5797 15.1408
42.7713 14.967
42.963 14.7374
43.1549 14.5327
43.3468 14.2995
43.5389 14.0835
43.7312 13.9062
43.9237 13.776
44.1162 13.5253
44.3088 13.3247
44.5016 13.1233
44.6945 12.9162
44.8875 12.7539
45.0806 12.573
45.2739 12.4447
45.4673 12.2341
45.6609 12.0656
45.8546 11.895
46.0484 11.7431
46.2424 11.5634
46.4365 11.4262
46.631 11.2422
46.8254 11.0595
47.0199 10.9297
47.2146 10.7533
47.4095 10.6119
47.6044 10.4008
47.7996 10.308
47.9948 10.14
48.1902 9.98536
48.3858 9.86102
48.5815 9.70545
48.7774 9.53982
48.9734 9.42583
49.1696 9.28156
49.3661 9.13219
49.5626 8.97983
49.7592 8.84962
49.956 8.74244
50.153 8.60676
50.3501 8.47531
50.5474 8.34717
50.7448 8.21725
50.9424 8.0649
51.1402 7.95998
51.3381 7.81069
51.5362 7.70002
51.7344 7.53482
51.9328 7.43773
52.1316 7.3356
52.3304 7.21171
52.5293 7.04144
52.7284 6.98111
52.9276 6.85895
53.1271 6.77477
53.3267 6.63374
53.5265 6.50517
53.7264 6.41379
53.9266 6.29728
54.1269 6.15373
54.3274 6.0781
54.528 5.89172
54.7289 5.74317
54.9301 5.57604
55.1314 5.43391
55.3328 5.27602
55.5344 5.07328
55.7361 4.92785