File: XRD/Ni3Fe_FD0638.xy
TT I
1.27165 7.65974
1.45013 5.68634
1.62863 5.45653
1.80712 4.69447
1.98562 5.33589
2.16411 5.37971
2.34263 5.62463
2.52115 6.96896
2.69965 8.03323
2.87818 9.16842
3.05672 11.3429
3.23527 14.8842
3.4138 19.0931
3.59237 24.5236
3.77094 26.3263
3.9495 29.9228
4.12809 34.9499
4.30669 256.049
4.4853 69.6746
4.6639 55.3057
4.84253 67.4952
5.02118 86.3001
5.19981 336.704
5.37848 196.032
5.55716 102.1
5.73586 92.0633
5.91455 93.5653
6.09328 4381.52
6.27201 84.6492
6.45075 67.1238
6.62952 63.4053
6.8083 59.305
6.98711 56.2344
7.16591 55.8249
7.34475 100.661
7.5236 55.2687
7.70247 56.4593
7.88135 57.9873
8.06026 62.6192
8.23919 69.9287
8.41812 85.843
8.59709 1119.9
8.77609 100.5
8.9551 92.9551
9.13412 82.2589
9.31318 82.5591
9.49226 84.4632
9.67134 100.71
9.85047 99.7375
10.0296 326.863
10.2088 436.082
10.388 105.052
10.5672 500.068
10.7465 87.0035
10.9257 79.0016
11.105 72.267
11.2844 71.3611
11.4637 65.2628
11.6431 64.1691
11.8225 62.8871
12.002 63.7172
12.1814 147.41
12.3609 72.3508
12.5405 64.9059
12.72 71.1871
12.8996 71.0021
13.0792 78.6026
13.2589 229.744
13.4386 127.679
13.6183 240.818
13.7981 100.764
13.9779 76.0249
14.1577 73.0687
14.3376 72.3923
14.5175 68.8737
14.6974 70.7105
14.8774 108.012
15.0574 152.622
15.2374 71.927
15.4175 66.4546
15.5976 65.973
15.7778 93.1659
15.958 159.824
16.1382 63.7243
16.3185 59.1082
16.4988 55.7208
16.6792 54.6503
16.8596 55.6632
17.04 55.8399
17.2205 66.4537
17.401 72.2783
17.5815 59.2164
17.7622 61.3039
17.9428 72.9888
18.1237 138.252
18.3044 89.8494
18.4852 79.3466
18.666 60.6895
18.8469 58.2475
19.0278 57.1048
19.2088 59.5657
19.3898 76.7465
19.5709 54.4379
19.752 53.5011
19.9332 56.1997
20.1144 69.9496
20.2957 63.6693
20.477 54.0497
20.6586 49.8224
20.84 49.1941
21.0215 48.7496
21.203 50.836
21.3846 49.1881
21.5662 48.8896
21.7479 52.3672
21.9297 64.7834
22.1115 56.123
22.2933 50.0903
22.4753 49.2034
22.6572 48.9002
22.8393 51.655
23.0214 57.8753
23.2037 48.9624
23.3859 49.6343
23.5682 56.8647
23.7505 48.556
23.9329 45.4889
24.1154 44.2053
24.2979 43.68
24.4805 43.082
24.6631 42.8872
24.8458 42.1559
25.0286 42.768
25.2114 44.841
25.3943 44.8047
25.5773 41.2206
25.7605 40.6478
25.9436 41.0045
26.1268 41.7499
26.31 40.3268
26.4933 40.8031
26.6767 42.3251
26.8601 40.6966
27.0437 39.0547
27.2272 38.6575
27.4109 38.3804
27.5946 38.4971
27.7784 37.9225
27.9623 38.4996
28.1462 38.9468
28.3304 37.345
28.5145 36.1213
28.6987 35.6916
28.8829 35.5686
29.0673 34.784
29.2517 34.3574
29.4361 34.3183
29.6207 33.2946
29.8053 32.8902
29.99 32.6527
30.1748 32.5348
30.3597 32.3993
30.5447 32.2513
30.7297 32.3558
30.915 31.7991
31.1002 31.2592
31.2855 30.9857
31.4708 30.8595
31.6563 30.5356
31.8418 30.2339
32.0275 30.0756
32.2132 29.5739
32.399 29.1035
32.5848 28.6127
32.7708 28.265
32.9569 28.1754
33.143 27.8968
33.3293 27.5371
33.5158 27.1577
33.7022 26.6433
33.8887 26.3986
34.0753 26.0408
34.262 25.7847
34.4488 25.4836
34.6357 25.0523
34.8227 24.8142
35.0098 24.603
35.1969 24.2679
35.3842 24.1564
35.5716 23.8463
35.759 23.5425
35.9468 23.184
36.1345 23.0153
36.3222 22.7966
36.5101 22.568
36.6981 22.2487
36.8861 21.9141
37.0743 21.5872
37.2626 21.3595
37.451 21.1001
37.6395 20.8842
37.8281 20.6376
38.0168 20.3105
38.2056 20.0773
38.3945 19.6895
38.5837 19.5824
38.7728 19.2668
38.9621 19.0541
39.1514 18.7463
39.3409 18.5406
39.5304 18.4199
39.7201 18.0877
39.9099 17.9265
40.0999 17.6963
40.2899 17.4106
40.48 17.2328
40.6703 17.0227
40.8607 16.8356
41.0512 16.5656
41.242 16.363
41.4327 16.1579
41.6236 15.8854
41.8146 15.7135
42.0057 15.4921
42.1969 15.3002
42.3882 15.0945
42.5797 14.8613
42.7713 14.7433
42.963 14.441
43.1549 14.3215
43.3468 14.0904
43.5389 13.9042
43.7312 13.7084
43.9237 13.5207
44.1162 13.3621
44.3088 13.1731
44.5016 12.9911
44.6945 12.7474
44.8875 12.6321
45.0806 12.4211
45.2739 12.2384
45.4673 12.0976
45.6609 11.8875
45.8546 11.7966
46.0484 11.5884
46.2424 11.4381
46.4365 11.268
46.631 11.0614
46.8254 10.9125
47.0199 10.7506
47.2146 10.6441
47.4095 10.4338
47.6044 10.2777
47.7996 10.1527
47.9948 9.97559
48.1902 9.83281
48.3858 9.72424
48.5815 9.60423
48.7774 9.43082
48.9734 9.30775
49.1696 9.13742
49.3661 9.00809
49.5626 8.86918
49.7592 8.74838
49.956 8.6523
50.153 8.49893
50.3501 8.31074
50.5474 8.21514
50.7448 8.08981
50.9424 7.98475
51.1402 7.84015
51.3381 7.72004
51.5362 7.59408
51.7344 7.46698
51.9328 7.34503
52.1316 7.20082
52.3304 7.06217
52.5293 6.96842
52.7284 6.9005
52.9276 6.763
53.1271 6.62757
53.3267 6.52638
53.5265 6.42375
53.7264 6.30934
53.9266 6.20951
54.1269 6.11606
54.3274 5.98972
54.528 5.82982
54.7289 5.67991
54.9301 5.4536
55.1314 5.38173
55.3328 5.15994
55.5344 4.9772
55.7361 4.85161