File: XRD/Ni3Fe_FD0392.xy
TT I
1.27165 7.43998
1.45013 6.32751
1.62863 5.57277
1.80712 5.01635
1.98562 4.96217
2.16411 5.07752
2.34263 4.84548
2.52115 6.06129
2.69965 6.99222
2.87818 8.20088
3.05672 11.3967
3.23527 14.7509
3.4138 18.8312
3.59237 24.8517
3.77094 26.3069
3.9495 30.6701
4.12809 35.4221
4.30669 227.576
4.4853 67.5929
4.6639 56.3493
4.84253 68.7036
5.02118 89.8067
5.19981 450.977
5.37848 224.341
5.55716 105.163
5.73586 95.3981
5.91455 98.7121
6.09328 4013.82
6.27201 87.0405
6.45075 69.5101
6.62952 64.5697
6.8083 60.2172
6.98711 57.0151
7.16591 57.3209
7.34475 95.1826
7.5236 56.0097
7.70247 57.4777
7.88135 59.1893
8.06026 63.6551
8.23919 71.4616
8.41812 87.944
8.59709 1129.65
8.77609 105.011
8.9551 94.7728
9.13412 84.1462
9.31318 85.0677
9.49226 86.3943
9.67134 101.789
9.85047 102.783
10.0296 380.03
10.2088 500.362
10.388 108.203
10.5672 478.003
10.7465 89.2961
10.9257 80.8476
11.105 73.8177
11.2844 72.6277
11.4637 66.5492
11.6431 65.2925
11.8225 64.0161
12.002 65.3138
12.1814 148.285
12.3609 73.692
12.5405 66.1748
12.72 72.1081
12.8996 72.824
13.0792 81.0074
13.2589 233.943
13.4386 138.885
13.6183 237.635
13.7981 106.547
13.9779 77.6154
14.1577 74.4371
14.3376 73.7224
14.5175 70.695
14.6974 72.2096
14.8774 113.149
15.0574 164.354
15.2374 73.2346
15.4175 68.1047
15.5976 67.5514
15.7778 97.5665
15.958 169.018
16.1382 64.5036
16.3185 60.4243
16.4988 57.0212
16.6792 55.9472
16.8596 56.7117
17.04 57.3098
17.2205 67.8971
17.401 74.7466
17.5815 60.8957
17.7622 62.8451
17.9428 76.3988
18.1237 137.583
18.3044 90.596
18.4852 82.276
18.666 62.1149
18.8469 59.7297
19.0278 58.5276
19.2088 61.2166
19.3898 77.0167
19.5709 55.8444
19.752 54.6874
19.9332 57.9844
20.1144 70.7446
20.2957 64.2677
20.477 55.8125
20.6586 50.9729
20.84 50.2551
21.0215 49.9145
21.203 51.8644
21.3846 50.4554
21.5662 50.1237
21.7479 53.8639
21.9297 65.5944
22.1115 57.2099
22.2933 51.466
22.4753 50.3903
22.6572 50.2709
22.8393 53.0609
23.0214 58.9497
23.2037 50.1469
23.3859 51.1516
23.5682 57.4192
23.7505 50.1505
23.9329 46.5735
24.1154 45.32
24.2979 44.6838
24.4805 44.0404
24.6631 43.9708
24.8458 43.4187
25.0286 43.8798
25.2114 45.7498
25.3943 45.7835
25.5773 42.0571
25.7605 41.6246
25.9436 41.8435
26.1268 42.7293
26.31 41.2771
26.4933 41.835
26.6767 43.1656
26.8601 41.6469
27.0437 39.8669
27.2272 39.5206
27.4109 39.3144
27.5946 39.2474
27.7784 38.587
27.9623 39.1603
28.1462 39.6699
28.3304 38.1824
28.5145 37.0605
28.6987 36.6623
28.8829 36.2635
29.0673 35.6171
29.2517 35.2599
29.4361 35.0125
29.6207 34.0323
29.8053 33.7715
29.99 33.4706
30.1748 33.2034
30.3597 33.1743
30.5447 32.942
30.7297 33.0771
30.915 32.4291
31.1002 31.9423
31.2855 31.6234
31.4708 31.5758
31.6563 31.2308
31.8418 30.8997
32.0275 30.6901
32.2132 30.1429
32.399 29.6277
32.5848 29.2011
32.7708 28.8234
32.9569 28.7412
33.143 28.3809
33.3293 28.0861
33.5158 27.7161
33.7022 27.2385
33.8887 26.995
34.0753 26.6556
34.262 26.335
34.4488 25.9874
34.6357 25.6173
34.8227 25.3115
35.0098 25.0749
35.1969 24.8172
35.3842 24.611
35.5716 24.3621
35.759 24.0793
35.9468 23.7059
36.1345 23.5026
36.3222 23.2422
36.5101 22.9218
36.6981 22.7099
36.8861 22.3276
37.0743 22.0608
37.2626 21.8448
37.451 21.5775
37.6395 21.2897
37.8281 21.0326
38.0168 20.7542
38.2056 20.4215
38.3945 20.173
38.5837 19.9758
38.7728 19.6817
38.9621 19.4722
39.1514 19.1629
39.3409 18.8473
39.5304 18.7061
39.7201 18.5063
39.9099 18.296
40.0999 18.0802
40.2899 17.7682
40.48 17.5597
40.6703 17.3463
40.8607 17.1593
41.0512 16.9557
41.242 16.6715
41.4327 16.458
41.6236 16.2477
41.8146 16.0272
42.0057 15.8016
42.1969 15.5955
42.3882 15.4044
42.5797 15.2164
42.7713 14.9916
42.963 14.7455
43.1549 14.5623
43.3468 14.3975
43.5389 14.1743
43.7312 13.995
43.9237 13.8171
44.1162 13.6367
44.3088 13.4022
44.5016 13.2458
44.6945 13.0394
44.8875 12.9041
45.0806 12.6835
45.2739 12.5551
45.4673 12.3566
45.6609 12.1001
45.8546 11.9392
46.0484 11.8334
46.2424 11.6417
46.4365 11.4994
46.631 11.3309
46.8254 11.0872
47.0199 10.9519
47.2146 10.814
47.4095 10.6379
47.6044 10.4654
47.7996 10.3384
47.9948 10.1998
48.1902 10.0418
48.3858 9.91925
48.5815 9.74923
48.7774 9.61555
48.9734 9.45294
49.1696 9.30954
49.3661 9.15725
49.5626 9.03396
49.7592 8.93855
49.956 8.77444
50.153 8.63942
50.3501 8.53559
50.5474 8.38486
50.7448 8.25043
50.9424 8.16219
51.1402 7.97847
51.3381 7.89277
51.5362 7.73008
51.7344 7.61982
51.9328 7.50027
52.1316 7.3689
52.3304 7.24605
52.5293 7.15962
52.7284 7.00529
52.9276 6.88816
53.1271 6.84529
53.3267 6.63792
53.5265 6.53782
53.7264 6.40011
53.9266 6.30455
54.1269 6.21838
54.3274 6.09544
54.528 5.9368
54.7289 5.7563
54.9301 5.60619
55.1314 5.49596
55.3328 5.30165
55.5344 5.14129
55.7361 4.88128