File: XRD/Ni3Fe_FD0315.xy
TT I
1.27165 7.44866
1.45013 6.60794
1.62863 5.30643
1.80712 4.88327
1.98562 4.50685
2.16411 4.77425
2.34263 4.37087
2.52115 5.85453
2.69965 7.22504
2.87818 8.4367
3.05672 11.2133
3.23527 15.0471
3.4138 19.0525
3.59237 25.1758
3.77094 26.5493
3.9495 30.3321
4.12809 35.51
4.30669 248.722
4.4853 69.4757
4.6639 57.093
4.84253 69.16
5.02118 91.0209
5.19981 500.472
5.37848 235.154
5.55716 106.015
5.73586 95.943
5.91455 100.61
6.09328 3943.94
6.27201 88.204
6.45075 69.8605
6.62952 65.0597
6.8083 60.8937
6.98711 57.9648
7.16591 57.1157
7.34475 101.082
7.5236 56.5686
7.70247 58.1578
7.88135 59.9178
8.06026 64.088
8.23919 71.3669
8.41812 88.9389
8.59709 1083.6
8.77609 105.43
8.9551 95.4537
9.13412 84.3232
9.31318 85.4082
9.49226 87.0754
9.67134 102.974
9.85047 103.106
10.0296 384.731
10.2088 514.683
10.388 109.396
10.5672 476.464
10.7465 89.4816
10.9257 81.3733
11.105 73.8787
11.2844 73.0776
11.4637 66.7696
11.6431 65.6497
11.8225 64.664
12.002 65.708
12.1814 144.65
12.3609 74.3888
12.5405 66.7138
12.72 73.0951
12.8996 73.2594
13.0792 81.3446
13.2589 226.812
13.4386 137.872
13.6183 229.595
13.7981 105.698
13.9779 77.8972
14.1577 75.1032
14.3376 74.3348
14.5175 70.902
14.6974 72.8115
14.8774 112.312
15.0574 162.624
15.2374 73.6636
15.4175 68.451
15.5976 68.0045
15.7778 96.9971
15.958 172.66
16.1382 65.4337
16.3185 60.8379
16.4988 57.2103
16.6792 56.2415
16.8596 57.0721
17.04 57.8753
17.2205 67.9658
17.401 75.0359
17.5815 61.3848
17.7622 63.2644
17.9428 77.1823
18.1237 140.418
18.3044 90.3159
18.4852 82.0696
18.666 62.3973
18.8469 59.9378
19.0278 58.8342
19.2088 61.8843
19.3898 78.3392
19.5709 56.0893
19.752 55.1157
19.9332 58.0743
20.1144 71.6346
20.2957 64.4216
20.477 56.0813
20.6586 51.3793
20.84 50.317
21.0215 50.3292
21.203 52.2181
21.3846 50.6823
21.5662 50.5073
21.7479 54.1665
21.9297 66.5279
22.1115 57.4499
22.2933 51.7356
22.4753 50.5833
22.6572 50.6687
22.8393 53.3808
23.0214 59.6567
23.2037 50.3345
23.3859 51.4997
23.5682 57.6134
23.7505 50.368
23.9329 46.7317
24.1154 45.5033
24.2979 44.8458
24.4805 44.3635
24.6631 44.3266
24.8458 43.6792
25.0286 44.3027
25.2114 45.9273
25.3943 46.1289
25.5773 42.3252
25.7605 41.9356
25.9436 42.0247
26.1268 43.0336
26.31 41.3537
26.4933 41.9776
26.6767 43.4962
26.8601 41.7396
27.0437 40.2305
27.2272 39.8678
27.4109 39.7513
27.5946 39.5647
27.7784 39.119
27.9623 39.4721
28.1462 40.0873
28.3304 38.4388
28.5145 37.0424
28.6987 36.7271
28.8829 36.5921
29.0673 35.8386
29.2517 35.3485
29.4361 35.2622
29.6207 34.2402
29.8053 34.084
29.99 33.6975
30.1748 33.5048
30.3597 33.3089
30.5447 33.0952
30.7297 33.2154
30.915 32.5345
31.1002 32.0473
31.2855 31.8463
31.4708 31.7405
31.6563 31.3604
31.8418 31.0361
32.0275 30.8537
32.2132 30.321
32.399 29.8555
32.5848 29.3968
32.7708 29.0379
32.9569 28.9002
33.143 28.6766
33.3293 28.2727
33.5158 27.9255
33.7022 27.4815
33.8887 27.1792
34.0753 26.8313
34.262 26.486
34.4488 26.1245
34.6357 25.7805
34.8227 25.4429
35.0098 25.2569
35.1969 25.0139
35.3842 24.7829
35.5716 24.4993
35.759 24.1854
35.9468 23.7993
36.1345 23.61
36.3222 23.3588
36.5101 23.0914
36.6981 22.8247
36.8861 22.4977
37.0743 22.1663
37.2626 22.0137
37.451 21.694
37.6395 21.5028
37.8281 21.1673
38.0168 20.9017
38.2056 20.6338
38.3945 20.3377
38.5837 20.0996
38.7728 19.8536
38.9621 19.5791
39.1514 19.3267
39.3409 19.0492
39.5304 18.8911
39.7201 18.7169
39.9099 18.4222
40.0999 18.1659
40.2899 17.9268
40.48 17.655
40.6703 17.5218
40.8607 17.3076
41.0512 17.025
41.242 16.7712
41.4327 16.6349
41.6236 16.357
41.8146 16.1635
42.0057 15.9018
42.1969 15.7029
42.3882 15.5635
42.5797 15.3375
42.7713 15.1108
42.963 14.9584
43.1549 14.6844
43.3468 14.4319
43.5389 14.2732
43.7312 14.0885
43.9237 13.9266
44.1162 13.7198
44.3088 13.4628
44.5016 13.34
44.6945 13.1443
44.8875 12.9839
45.0806 12.7764
45.2739 12.5879
45.4673 12.438
45.6609 12.1761
45.8546 12.0411
46.0484 11.9201
46.2424 11.7112
46.4365 11.5618
46.631 11.3352
46.8254 11.223
47.0199 11.0014
47.2146 10.8832
47.4095 10.715
47.6044 10.5601
47.7996 10.4063
47.9948 10.2702
48.1902 10.1507
48.3858 9.9782
48.5815 9.83103
48.7774 9.70346
48.9734 9.54815
49.1696 9.40514
49.3661 9.22868
49.5626 9.10271
49.7592 8.97447
49.956 8.88967
50.153 8.71414
50.3501 8.58749
50.5474 8.40451
50.7448 8.3303
50.9424 8.20958
51.1402 8.0469
51.3381 7.945
51.5362 7.78341
51.7344 7.65352
51.9328 7.52054
52.1316 7.38674
52.3304 7.28876
52.5293 7.1788
52.7284 7.05982
52.9276 6.93549
53.1271 6.87261
53.3267 6.71072
53.5265 6.56927
53.7264 6.45161
53.9266 6.37478
54.1269 6.23291
54.3274 6.14234
54.528 5.98649
54.7289 5.84676
54.9301 5.59132
55.1314 5.50514
55.3328 5.33971
55.5344 5.12818
55.7361 4.98278