File: XRD/Ni3Fe_FD0266.xy
TT I
1.27165 7.72227
1.45013 6.4495
1.62863 5.04621
1.80712 5.33971
1.98562 4.64746
2.16411 4.63394
2.34263 5.10717
2.52115 6.00185
2.69965 6.28936
2.87818 8.43614
3.05672 11.3181
3.23527 14.8833
3.4138 19.2101
3.59237 24.3003
3.77094 26.6253
3.9495 30.4129
4.12809 35.462
4.30669 169.489
4.4853 62.3869
4.6639 57.8141
4.84253 70.4318
5.02118 93.6228
5.19981 549.611
5.37848 267.466
5.55716 109.964
5.73586 98.9813
5.91455 104.668
6.09328 3713.65
6.27201 90.0386
6.45075 71.1965
6.62952 65.4913
6.8083 61.1343
6.98711 58.0957
7.16591 57.8596
7.34475 84.4464
7.5236 56.7187
7.70247 58.6978
7.88135 59.7146
8.06026 64.9916
8.23919 72.8755
8.41812 89.9679
8.59709 1102.41
8.77609 110.14
8.9551 94.6637
9.13412 86.0492
9.31318 87.3987
9.49226 88.7657
9.67134 100.904
9.85047 105.592
10.0296 442.509
10.2088 604.097
10.388 111.415
10.5672 456.024
10.7465 91.8123
10.9257 81.7014
11.105 75.1325
11.2844 72.9134
11.4637 67.6408
11.6431 66.4967
11.8225 65.2335
12.002 66.9134
12.1814 144.563
12.3609 74.4609
12.5405 67.594
12.72 72.1838
12.8996 74.1143
13.0792 82.8436
13.2589 230.241
13.4386 150.734
13.6183 230.597
13.7981 114.582
13.9779 79.7226
14.1577 75.4606
14.3376 74.4165
14.5175 72.1462
14.6974 73.7796
14.8774 116.951
15.0574 176.669
15.2374 73.94
15.4175 69.5402
15.5976 68.7884
15.7778 101.511
15.958 175.313
16.1382 65.2529
16.3185 61.0133
16.4988 57.9108
16.6792 56.9421
16.8596 57.5917
17.04 58.5063
17.2205 68.6491
17.401 77.5986
17.5815 61.9383
17.7622 64.0577
17.9428 80.5083
18.1237 135.809
18.3044 91.1584
18.4852 85.5275
18.666 63.0661
18.8469 60.8521
19.0278 59.5502
19.2088 62.8053
19.3898 76.9338
19.5709 57.0214
19.752 55.665
19.9332 59.406
20.1144 71.9403
20.2957 64.7964
20.477 57.1547
20.6586 51.9456
20.84 51.0327
21.0215 50.9242
21.203 52.5102
21.3846 51.6103
21.5662 51.1052
21.7479 55.0939
21.9297 66.1563
22.1115 57.9131
22.2933 52.5105
22.4753 51.0363
22.6572 51.0354
22.8393 53.6913
23.0214 59.7753
23.2037 51.1357
23.3859 52.1995
23.5682 57.5519
23.7505 51.4569
23.9329 47.2748
24.1154 46.2136
24.2979 45.348
24.4805 44.7629
24.6631 44.6595
24.8458 43.9951
25.0286 44.7008
25.2114 46.4552
25.3943 46.3031
25.5773 42.8391
25.7605 42.154
25.9436 42.4754
26.1268 43.3668
26.31 41.9728
26.4933 42.4516
26.6767 43.6271
26.8601 42.1631
27.0437 40.672
27.2272 40.2985
27.4109 40.1427
27.5946 40.0357
27.7784 39.5738
27.9623 39.9194
28.1462 40.5213
28.3304 38.8399
28.5145 37.4868
28.6987 37.2351
28.8829 36.8856
29.0673 36.2669
29.2517 35.8738
29.4361 35.4921
29.6207 34.6315
29.8053 34.3092
29.99 34.0236
30.1748 33.8233
30.3597 33.7074
30.5447 33.5009
30.7297 33.5915
30.915 33.0104
31.1002 32.5035
31.2855 32.2351
31.4708 31.9834
31.6563 31.6671
31.8418 31.4923
32.0275 31.1638
32.2132 30.707
32.399 30.2392
32.5848 29.7737
32.7708 29.3293
32.9569 29.1509
33.143 28.9807
33.3293 28.6462
33.5158 28.2994
33.7022 27.7007
33.8887 27.5118
34.0753 27.1314
34.262 26.7463
34.4488 26.5183
34.6357 26.0489
34.8227 25.8095
35.0098 25.5423
35.1969 25.1697
35.3842 24.8912
35.5716 24.7118
35.759 24.4106
35.9468 24.0044
36.1345 23.884
36.3222 23.6035
36.5101 23.4472
36.6981 23.0843
36.8861 22.7712
37.0743 22.381
37.2626 22.2215
37.451 21.8947
37.6395 21.721
37.8281 21.3948
38.0168 21.0951
38.2056 20.7697
38.3945 20.4975
38.5837 20.2723
38.7728 20.0182
38.9621 19.8675
39.1514 19.5205
39.3409 19.2854
39.5304 19.0618
39.7201 18.9
39.9099 18.4996
40.0999 18.4392
40.2899 18.1184
40.48 17.8283
40.6703 17.7064
40.8607 17.3897
41.0512 17.2186
41.242 16.9736
41.4327 16.7779
41.6236 16.5676
41.8146 16.333
42.0057 16.0604
42.1969 15.9222
42.3882 15.7035
42.5797 15.4355
42.7713 15.2458
42.963 15.0428
43.1549 14.804
43.3468 14.6008
43.5389 14.4401
43.7312 14.2226
43.9237 14.0231
44.1162 13.84
44.3088 13.6365
44.5016 13.4556
44.6945 13.2702
44.8875 13.0997
45.0806 12.8889
45.2739 12.7493
45.4673 12.5175
45.6609 12.3382
45.8546 12.2103
46.0484 12.0067
46.2424 11.7811
46.4365 11.6816
46.631 11.5042
46.8254 11.3055
47.0199 11.1446
47.2146 11.0481
47.4095 10.7845
47.6044 10.6753
47.7996 10.4972
47.9948 10.339
48.1902 10.197
48.3858 10.0465
48.5815 9.93641
48.7774 9.77698
48.9734 9.6411
49.1696 9.47226
49.3661 9.35247
49.5626 9.16845
49.7592 9.05581
49.956 8.8864
50.153 8.77611
50.3501 8.62521
50.5474 8.52116
50.7448 8.38002
50.9424 8.25018
51.1402 8.14574
51.3381 7.99289
51.5362 7.86513
51.7344 7.70087
51.9328 7.60709
52.1316 7.43759
52.3304 7.33684
52.5293 7.23
52.7284 7.10461
52.9276 6.98017
53.1271 6.85534
53.3267 6.71558
53.5265 6.65506
53.7264 6.47642
53.9266 6.36897
54.1269 6.30823
54.3274 6.18186
54.528 5.96993
54.7289 5.84307
54.9301 5.67198
55.1314 5.552
55.3328 5.3265
55.5344 5.13297
55.7361 5.02551