File: XRD/Ni3Fe_FD0080.xy
TT I
1.27165 10.7015
1.45013 7.62886
1.62863 7.34692
1.80712 6.57294
1.98562 6.56289
2.16411 5.44509
2.34263 5.24834
2.52115 4.42109
2.69965 5.25024
2.87818 7.87447
3.05672 11.2206
3.23527 15.4406
3.4138 18.5469
3.59237 21.2775
3.77094 24.2747
3.9495 27.7365
4.12809 31.9166
4.30669 37.417
4.4853 43.7048
4.6639 53.0611
4.84253 65.8531
5.02118 99.2413
5.19981 756.705
5.37848 1348.29
5.55716 120.864
5.73586 101.924
5.91455 122.34
6.09328 1416.76
6.27201 111.385
6.45075 66.8314
6.62952 58.1103
6.8083 53.8276
6.98711 51.5052
7.16591 50.826
7.34475 50.254
7.5236 73.0715
7.70247 52.7356
7.88135 53.8274
8.06026 58.1091
8.23919 65.4227
8.41812 84.4919
8.59709 552.98
8.77609 161.356
8.9551 84.6435
9.13412 81.2129
9.31318 145.102
9.49226 81.0254
9.67134 85.2429
9.85047 96.5582
10.0296 559.068
10.2088 1459.07
10.388 106.141
10.5672 174.57
10.7465 114.497
10.9257 73.1531
11.105 66.8849
11.2844 62.99
11.4637 60.4744
11.6431 59.2309
11.8225 58.7913
12.002 89.429
12.1814 85.1308
12.3609 93.7511
12.5405 60.4683
12.72 61.6346
12.8996 65.6941
13.0792 78.6822
13.2589 151.538
13.4386 316.71
13.6183 134.233
13.7981 238.713
13.9779 73.4927
14.1577 89.5889
14.3376 66.2657
14.5175 64.9695
14.6974 66.2143
14.8774 110.386
15.0574 196.197
15.2374 67.4809
15.4175 62.6413
15.5976 62.366
15.7778 100.408
15.958 150.075
16.1382 65.6407
16.3185 54.8863
16.4988 52.531
16.6792 51.2115
16.8596 51.5718
17.04 53.6227
17.2205 58.8714
17.401 77.1489
17.5815 55.9036
17.7622 59.4028
17.9428 81.3636
18.1237 79.2646
18.3044 88.7584
18.4852 101.764
18.666 59.0882
18.8469 55.2608
19.0278 53.8665
19.2088 58.9082
19.3898 60.594
19.5709 58.1267
19.752 50.5627
19.9332 55.2871
20.1144 56.9254
20.2957 57.3881
20.477 61.928
20.6586 47.4038
20.84 47.6429
21.0215 46.5486
21.203 46.0063
21.3846 48.9688
21.5662 46.318
21.7479 50.5075
21.9297 52.2289
22.1115 55.7084
22.2933 52.7513
22.4753 46.3173
22.6572 46.5133
22.8393 48.4429
23.0214 49.6826
23.2037 49.0248
23.3859 49.4415
23.5682 47.0286
23.7505 55.4391
23.9329 43.4511
24.1154 42.1815
24.2979 41.3673
24.4805 40.7115
24.6631 40.7946
24.8458 40.4049
25.0286 40.5243
25.2114 40.8564
25.3943 41.3153
25.5773 40.5842
25.7605 38.6804
25.9436 38.7734
26.1268 38.4883
26.31 39.5778
26.4933 38.4379
26.6767 38.5675
26.8601 39.6703
27.0437 38.0003
27.2272 36.9747
27.4109 36.375
27.5946 36.3977
27.7784 36.6341
27.9623 35.9873
28.1462 36.4808
28.3304 36.0378
28.5145 34.5838
28.6987 33.9479
28.8829 33.4475
29.0673 33.4319
29.2517 32.5192
29.4361 31.9945
29.6207 32.1129
29.8053 31.34
29.99 30.9522
30.1748 30.7261
30.3597 30.8208
30.5447 30.4705
30.7297 30.145
30.915 30.5383
31.1002 29.8318
31.2855 29.3648
31.4708 29.0089
31.6563 29.1918
31.8418 28.6159
32.0275 28.331
32.2132 28.1483
32.399 27.6286
32.5848 27.0167
32.7708 26.7865
32.9569 26.6064
33.143 26.2558
33.3293 26.0449
33.5158 25.9032
33.7022 25.2202
33.8887 24.9375
34.0753 24.7125
34.262 24.2374
34.4488 24.07
34.6357 23.7972
34.8227 23.3667
35.0098 23.1995
35.1969 22.9549
35.3842 22.789
35.5716 22.483
35.759 22.3475
35.9468 21.9175
36.1345 21.7199
36.3222 21.5026
36.5101 21.2933
36.6981 20.9999
36.8861 20.6718
37.0743 20.4045
37.2626 20.1479
37.451 19.916
37.6395 19.7858
37.8281 19.4338
38.0168 19.1422
38.2056 18.8518
38.3945 18.6951
38.5837 18.4593
38.7728 18.2807
38.9621 18.0419
39.1514 17.7395
39.3409 17.508
39.5304 17.3045
39.7201 17.069
39.9099 16.9761
40.0999 16.7297
40.2899 16.4987
40.48 16.3402
40.6703 16.1351
40.8607 15.9495
41.0512 15.683
41.242 15.443
41.4327 15.2722
41.6236 15.0462
41.8146 14.8646
42.0057 14.7231
42.1969 14.4701
42.3882 14.299
42.5797 14.1095
42.7713 13.9123
42.963 13.6912
43.1549 13.5037
43.3468 13.3289
43.5389 13.1525
43.7312 12.9529
43.9237 12.8023
44.1162 12.6346
44.3088 12.4437
44.5016 12.2479
44.6945 12.0854
44.8875 11.9345
45.0806 11.7681
45.2739 11.6108
45.4673 11.4583
45.6609 11.2479
45.8546 11.1227
46.0484 11.027
46.2424 10.8049
46.4365 10.6827
46.631 10.4917
46.8254 10.3671
47.0199 10.1938
47.2146 10.0213
47.4095 9.88533
47.6044 9.69343
47.7996 9.59574
47.9948 9.45768
48.1902 9.33509
48.3858 9.22181
48.5815 9.06682
48.7774 8.9849
48.9734 8.8169
49.1696 8.67755
49.3661 8.48875
49.5626 8.42783
49.7592 8.30884
49.956 8.19626
50.153 8.03507
50.3501 7.91618
50.5474 7.81795
50.7448 7.68758
50.9424 7.59434
51.1402 7.49061
51.3381 7.36733
51.5362 7.24212
51.7344 7.08197
51.9328 6.96506
52.1316 6.86968
52.3304 6.75692
52.5293 6.61396
52.7284 6.52542
52.9276 6.42371
53.1271 6.34247
53.3267 6.18841
53.5265 6.12064
53.7264 5.97281
53.9266 5.87199
54.1269 5.72884
54.3274 5.63259
54.528 5.46643
54.7289 5.29061
54.9301 5.04792
55.1314 4.90584
55.3328 4.72182
55.5344 4.58721
55.7361 4.51001