File: XRD/Ni3Fe_FD0307.xy
TT I
1.27165 7.49539
1.45013 6.44372
1.62863 5.75013
1.80712 5.00967
1.98562 4.57703
2.16411 5.28892
2.34263 5.5214
2.52115 5.84413
2.69965 7.42931
2.87818 8.69865
3.05672 11.3387
3.23527 15.1684
3.4138 19.5528
3.59237 25.1141
3.77094 26.8433
3.9495 30.6408
4.12809 36.1026
4.30669 325.426
4.4853 78.6902
4.6639 56.6678
4.84253 68.8526
5.02118 90.024
5.19981 480.801
5.37848 254.586
5.55716 106.883
5.73586 95.6936
5.91455 99.6562
6.09328 3662.01
6.27201 89.6594
6.45075 70.3473
6.62952 65.9148
6.8083 61.8212
6.98711 58.2142
7.16591 57.6291
7.34475 117.019
7.5236 56.9699
7.70247 58.5553
7.88135 59.6052
8.06026 64.276
8.23919 72.1485
8.41812 89.4661
8.59709 961.325
8.77609 107.854
8.9551 98.4085
9.13412 84.7084
9.31318 85.3452
9.49226 87.2948
9.67134 106.712
9.85047 103.329
10.0296 366.478
10.2088 589.661
10.388 110.78
10.5672 441.423
10.7465 90.7026
10.9257 81.9975
11.105 74.7104
11.2844 74.3712
11.4637 67.1102
11.6431 65.9549
11.8225 64.78
12.002 65.8316
12.1814 134.675
12.3609 78.2874
12.5405 67.0955
12.72 74.7632
12.8996 73.1635
13.0792 81.527
13.2589 208.325
13.4386 150.263
13.6183 210.087
13.7981 112.156
13.9779 78.4076
14.1577 75.5268
14.3376 75.4745
14.5175 70.946
14.6974 72.9206
14.8774 107.715
15.0574 175.495
15.2374 75.1753
15.4175 68.7994
15.5976 67.869
15.7778 94.3762
15.958 182.649
16.1382 66.4321
16.3185 61.5438
16.4988 57.5133
16.6792 56.5324
16.8596 57.3135
17.04 57.875
17.2205 66.8636
17.401 77.5214
17.5815 61.2068
17.7622 63.4473
17.9428 76.3777
18.1237 137.026
18.3044 88.1801
18.4852 85.8058
18.666 62.7022
18.8469 60.1986
19.0278 58.9725
19.2088 61.8257
19.3898 78.4909
19.5709 56.4366
19.752 55.0661
19.9332 57.8328
20.1144 71.1031
20.2957 63.4702
20.477 57.05
20.6586 51.4662
20.84 50.5727
21.0215 50.356
21.203 52.1939
21.3846 51.0394
21.5662 50.4861
21.7479 53.8231
21.9297 66.0872
22.1115 57.443
22.2933 52.0311
22.4753 50.9365
22.6572 50.6029
22.8393 52.8094
23.0214 59.7839
23.2037 50.6715
23.3859 51.5478
23.5682 57.1434
23.7505 51.0099
23.9329 46.8392
24.1154 45.6954
24.2979 45.0065
24.4805 44.4056
24.6631 44.376
24.8458 43.8267
25.0286 44.206
25.2114 45.8259
25.3943 46.4174
25.5773 42.456
25.7605 41.935
25.9436 42.0016
26.1268 43.1904
26.31 41.5052
26.4933 41.9808
26.6767 43.5294
26.8601 41.9641
27.0437 40.2206
27.2272 39.8742
27.4109 39.6486
27.5946 39.7908
27.7784 39.3111
27.9623 39.457
28.1462 40.2409
28.3304 38.7422
28.5145 37.2271
28.6987 36.873
28.8829 36.6278
29.0673 35.8811
29.2517 35.5362
29.4361 35.3288
29.6207 34.4356
29.8053 34.103
29.99 33.7828
30.1748 33.5111
30.3597 33.433
30.5447 33.2005
30.7297 33.2466
30.915 32.7902
31.1002 32.1945
31.2855 31.8937
31.4708 31.8805
31.6563 31.5398
31.8418 31.1496
32.0275 30.9812
32.2132 30.401
32.399 29.907
32.5848 29.4473
32.7708 29.2874
32.9569 28.9712
33.143 28.7186
33.3293 28.3578
33.5158 28.0712
33.7022 27.5459
33.8887 27.3186
34.0753 26.9682
34.262 26.5461
34.4488 26.1691
34.6357 25.9011
34.8227 25.5066
35.0098 25.2816
35.1969 25.0397
35.3842 24.8045
35.5716 24.6416
35.759 24.2712
35.9468 24.0342
36.1345 23.7329
36.3222 23.4793
36.5101 23.2047
36.6981 22.8568
36.8861 22.5743
37.0743 22.2651
37.2626 22.0433
37.451 21.755
37.6395 21.5952
37.8281 21.2357
38.0168 21.0073
38.2056 20.6589
38.3945 20.3778
38.5837 20.1291
38.7728 19.9395
38.9621 19.6822
39.1514 19.3546
39.3409 19.1449
39.5304 18.8924
39.7201 18.6299
39.9099 18.4939
40.0999 18.2203
40.2899 17.971
40.48 17.68
40.6703 17.5305
40.8607 17.2943
41.0512 17.1373
41.242 16.9289
41.4327 16.6524
41.6236 16.4251
41.8146 16.2391
42.0057 16.0194
42.1969 15.787
42.3882 15.5542
42.5797 15.3775
42.7713 15.1733
42.963 14.939
43.1549 14.7533
43.3468 14.4812
43.5389 14.3145
43.7312 14.1289
43.9237 13.9758
44.1162 13.6943
44.3088 13.5654
44.5016 13.3923
44.6945 13.1961
44.8875 13.0273
45.0806 12.7824
45.2739 12.6185
45.4673 12.4929
45.6609 12.2569
45.8546 12.0939
46.0484 11.9975
46.2424 11.7459
46.4365 11.6126
46.631 11.4023
46.8254 11.2482
47.0199 11.1175
47.2146 10.9439
47.4095 10.757
47.6044 10.6157
47.7996 10.433
47.9948 10.2897
48.1902 10.1528
48.3858 10.029
48.5815 9.86192
48.7774 9.71147
48.9734 9.61712
49.1696 9.4187
49.3661 9.33087
49.5626 9.14612
49.7592 9.01484
49.956 8.86929
50.153 8.73705
50.3501 8.57426
50.5474 8.45086
50.7448 8.34343
50.9424 8.17681
51.1402 8.07857
51.3381 7.93573
51.5362 7.81215
51.7344 7.71715
51.9328 7.55746
52.1316 7.4462
52.3304 7.28578
52.5293 7.19939
52.7284 7.1219
52.9276 6.96563
53.1271 6.85865
53.3267 6.73475
53.5265 6.57857
53.7264 6.51777
53.9266 6.36162
54.1269 6.28182
54.3274 6.1545
54.528 6.01885
54.7289 5.82212
54.9301 5.6739
55.1314 5.6056
55.3328 5.27211
55.5344 5.13403
55.7361 4.98532