File: XRD/Ni3Fe_FD0964.xy
TT I
1.27165 7.15326
1.45013 5.9423
1.62863 4.86902
1.80712 4.57986
1.98562 4.51513
2.16411 5.15925
2.34263 5.78156
2.52115 7.71262
2.69965 8.49746
2.87818 9.02799
3.05672 11.2053
3.23527 15.4377
3.4138 19.1625
3.59237 24.3155
3.77094 25.8013
3.9495 29.4387
4.12809 34.3069
4.30669 190.368
4.4853 62.3155
4.6639 54.763
4.84253 66.7706
5.02118 85.4263
5.19981 284.354
5.37848 172.649
5.55716 99.9814
5.73586 90.0355
5.91455 90.9641
6.09328 4639.64
6.27201 80.3526
6.45075 66.3262
6.62952 62.0797
6.8083 57.7179
6.98711 54.8842
7.16591 54.4699
7.34475 85.0872
7.5236 53.8454
7.70247 55.0659
7.88135 56.9769
8.06026 61.1246
8.23919 68.0948
8.41812 82.8796
8.59709 1160.55
8.77609 96.2911
8.9551 89.54
9.13412 80.8426
9.31318 81.3527
9.49226 82.9906
9.67134 96.1219
9.85047 97.5728
10.0296 304.916
10.2088 355.55
10.388 101.821
10.5672 526.339
10.7465 84.4692
10.9257 76.5348
11.105 70.7618
11.2844 68.9456
11.4637 63.8692
11.6431 62.7558
11.8225 61.5035
12.002 62.3297
12.1814 156.023
12.3609 68.4475
12.5405 63.3691
12.72 68.3048
12.8996 69.6066
13.0792 77.1199
13.2589 237.038
13.4386 118.567
13.6183 249.123
13.7981 94.2085
13.9779 74.3807
14.1577 70.7991
14.3376 69.934
14.5175 67.3977
14.6974 68.9881
14.8774 106.674
15.0574 144.463
15.2374 69.4369
15.4175 65.343
15.5976 64.2647
15.7778 91.5584
15.958 148.348
16.1382 61.2411
16.3185 57.6547
16.4988 54.2701
16.6792 53.5089
16.8596 54.3073
17.04 54.8012
17.2205 65.5753
17.401 69.232
17.5815 57.9948
17.7622 60.056
17.9428 71.1428
18.1237 137.199
18.3044 90.0439
18.4852 74.8388
18.666 59.2679
18.8469 56.9779
19.0278 55.6525
19.2088 58.1007
19.3898 74.7364
19.5709 53.1294
19.752 52.2549
19.9332 55.0528
20.1144 68.7373
20.2957 63.7739
20.477 52.3655
20.6586 48.7636
20.84 47.8126
21.0215 47.5441
21.203 50.2123
21.3846 48.0759
21.5662 47.969
21.7479 51.437
21.9297 63.3746
22.1115 55.2593
22.2933 48.9649
22.4753 47.84
22.6572 47.884
22.8393 50.9596
23.0214 56.1158
23.2037 47.8683
23.3859 48.6569
23.5682 56.5618
23.7505 47.3075
23.9329 44.3665
24.1154 43.317
24.2979 42.6458
24.4805 42.1863
24.6631 41.8711
24.8458 41.4638
25.0286 42.0378
25.2114 43.884
25.3943 43.7523
25.5773 40.125
25.7605 39.6516
25.9436 39.9944
26.1268 41.0104
26.31 39.2418
26.4933 40.0235
26.6767 41.5041
26.8601 39.6714
27.0437 38.195
27.2272 37.7863
27.4109 37.7263
27.5946 37.6503
27.7784 37.0886
27.9623 37.7718
28.1462 38.088
28.3304 36.4541
28.5145 35.2878
28.6987 35.0674
28.8829 34.8006
29.0673 34.0461
29.2517 33.7167
29.4361 33.5835
29.6207 32.443
29.8053 32.2946
29.99 31.9727
30.1748 31.8482
30.3597 31.6573
30.5447 31.5838
30.7297 31.6097
30.915 31.0312
31.1002 30.5575
31.2855 30.2581
31.4708 30.2882
31.6563 29.8666
31.8418 29.6969
32.0275 29.4207
32.2132 28.8304
32.399 28.4926
32.5848 28.0339
32.7708 27.5997
32.9569 27.549
33.143 27.3118
33.3293 26.9033
33.5158 26.6082
33.7022 26.1169
33.8887 25.8215
34.0753 25.5417
34.262 25.1642
34.4488 24.8328
34.6357 24.567
34.8227 24.1821
35.0098 24.1662
35.1969 23.7848
35.3842 23.5868
35.5716 23.3357
35.759 23.1189
35.9468 22.715
36.1345 22.5311
36.3222 22.2577
36.5101 22.0261
36.6981 21.7735
36.8861 21.4878
37.0743 21.1106
37.2626 20.8561
37.451 20.5969
37.6395 20.5053
37.8281 20.1174
38.0168 19.8199
38.2056 19.5978
38.3945 19.312
38.5837 19.1498
38.7728 18.8871
38.9621 18.64
39.1514 18.4065
39.3409 18.1485
39.5304 17.9832
39.7201 17.6885
39.9099 17.4753
40.0999 17.2896
40.2899 17.0652
40.48 16.8165
40.6703 16.6265
40.8607 16.4191
41.0512 16.1636
41.242 15.9833
41.4327 15.807
41.6236 15.5726
41.8146 15.3908
42.0057 15.1894
42.1969 14.8965
42.3882 14.7684
42.5797 14.5871
42.7713 14.3835
42.963 14.1605
43.1549 13.9871
43.3468 13.7553
43.5389 13.5728
43.7312 13.3653
43.9237 13.2431
44.1162 13.0791
44.3088 12.8716
44.5016 12.6784
44.6945 12.5025
44.8875 12.3206
45.0806 12.1728
45.2739 12.016
45.4673 11.8407
45.6609 11.6292
45.8546 11.5492
46.0484 11.3368
46.2424 11.1156
46.4365 11.0218
46.631 10.8047
46.8254 10.6573
47.0199 10.5535
47.2146 10.3949
47.4095 10.2528
47.6044 10.0631
47.7996 9.96535
47.9948 9.74479
48.1902 9.66592
48.3858 9.486
48.5815 9.35628
48.7774 9.24483
48.9734 9.1126
49.1696 8.96347
49.3661 8.83708
49.5626 8.66922
49.7592 8.54743
49.956 8.43217
50.153 8.30293
50.3501 8.16645
50.5474 8.03778
50.7448 7.94598
50.9424 7.85625
51.1402 7.69303
51.3381 7.52974
51.5362 7.43133
51.7344 7.30212
51.9328 7.17147
52.1316 7.08542
52.3304 6.92422
52.5293 6.80842
52.7284 6.70496
52.9276 6.59155
53.1271 6.51143
53.3267 6.40601
53.5265 6.27638
53.7264 6.17703
53.9266 6.0911
54.1269 5.97557
54.3274 5.80858
54.528 5.69566
54.7289 5.55491
54.9301 5.41532
55.1314 5.26937
55.3328 5.10247
55.5344 4.91134
55.7361 4.73767