File: XRD/Ni3Fe_FD0693.xy
TT I
1.27165 7.1019
1.45013 5.48228
1.62863 4.9383
1.80712 4.73771
1.98562 4.7521
2.16411 4.63753
2.34263 5.13117
2.52115 6.47001
2.69965 7.92674
2.87818 8.69966
3.05672 10.8073
3.23527 15.3865
3.4138 18.4446
3.59237 22.8724
3.77094 25.9942
3.9495 29.5124
4.12809 34.4403
4.30669 121.066
4.4853 55.9202
4.6639 55.271
4.84253 68.0158
5.02118 87.4784
5.19981 426.961
5.37848 191.683
5.55716 102.379
5.73586 93.0461
5.91455 95.6853
6.09328 4587.71
6.27201 80.9228
6.45075 68.6979
6.62952 62.1152
6.8083 58.7622
6.98711 55.4088
7.16591 55.7018
7.34475 71.1835
7.5236 54.4623
7.70247 56.1962
7.88135 57.5461
8.06026 62.5822
8.23919 69.4304
8.41812 84.7309
8.59709 1240.59
8.77609 98.4597
8.9551 89.0382
9.13412 82.6926
9.31318 84.0843
9.49226 84.769
9.67134 95.7622
9.85047 100.586
10.0296 366.581
10.2088 358.988
10.388 105.355
10.5672 514.87
10.7465 86.1004
10.9257 77.6997
11.105 71.4497
11.2844 68.6407
11.4637 64.809
11.6431 63.4263
11.8225 62.4962
12.002 64.2439
12.1814 155.924
12.3609 67.3952
12.5405 64.6297
12.72 68.1048
12.8996 71.5376
13.0792 80.3769
13.2589 248.278
13.4386 120.189
13.6183 257.354
13.7981 93.6209
13.9779 75.8122
14.1577 71.7822
14.3376 70.7974
14.5175 68.8714
14.6974 70.6933
14.8774 114.013
15.0574 140.238
15.2374 69.6071
15.4175 66.4586
15.5976 66.0449
15.7778 96.8793
15.958 150.048
16.1382 61.465
16.3185 58.0071
16.4988 55.4351
16.6792 54.3326
16.8596 55.0862
17.04 56.0117
17.2205 67.4475
17.401 69.7332
17.5815 59.1131
17.7622 61.3645
17.9428 74.3473
18.1237 142.264
18.3044 91.4218
18.4852 75.3064
18.666 60.1646
18.8469 58.0056
19.0278 56.589
19.2088 59.3624
19.3898 76.0938
19.5709 54.0954
19.752 53.2304
19.9332 56.3186
20.1144 69.8522
20.2957 64.1416
20.477 52.8448
20.6586 49.5337
20.84 48.7594
21.0215 48.5425
21.203 50.8029
21.3846 48.7924
21.5662 48.9767
21.7479 52.851
21.9297 64.7031
22.1115 56.0741
22.2933 49.624
22.4753 48.7597
22.6572 48.8193
22.8393 52.2527
23.0214 57.1386
23.2037 48.7308
23.3859 49.7777
23.5682 57.2971
23.7505 47.8587
23.9329 45.1572
24.1154 43.9402
24.2979 43.2015
24.4805 42.7795
24.6631 42.6342
24.8458 42.2358
25.0286 42.8868
25.2114 44.67
25.3943 44.3664
25.5773 40.7513
25.7605 40.4076
25.9436 40.911
26.1268 41.6441
26.31 40.0732
26.4933 40.6793
26.6767 42.1594
26.8601 40.2885
27.0437 38.7655
27.2272 38.4465
27.4109 38.3823
27.5946 38.3687
27.7784 37.7671
27.9623 38.3797
28.1462 38.6607
28.3304 37.1256
28.5145 35.9455
28.6987 35.5534
28.8829 35.3537
29.0673 34.5537
29.2517 34.3293
29.4361 33.9886
29.6207 33.0331
29.8053 32.8845
29.99 32.6033
30.1748 32.5023
30.3597 32.1838
30.5447 32.1677
30.7297 32.1964
30.915 31.5301
31.1002 31.092
31.2855 30.8222
31.4708 30.7953
31.6563 30.2506
31.8418 30.0682
32.0275 29.8473
32.2132 29.3008
32.399 28.8372
32.5848 28.4036
32.7708 28.1286
32.9569 27.9395
33.143 27.7348
33.3293 27.3347
33.5158 26.9949
33.7022 26.5505
33.8887 26.2445
34.0753 25.8881
34.262 25.6285
34.4488 25.2249
34.6357 24.9362
34.8227 24.7528
35.0098 24.4577
35.1969 24.1671
35.3842 23.9453
35.5716 23.7087
35.759 23.3182
35.9468 23.0676
36.1345 22.8706
36.3222 22.6047
36.5101 22.3986
36.6981 22.1025
36.8861 21.7777
37.0743 21.4392
37.2626 21.2241
37.451 20.919
37.6395 20.8015
37.8281 20.4388
38.0168 20.1579
38.2056 20.0259
38.3945 19.6324
38.5837 19.3679
38.7728 19.1919
38.9621 18.8873
39.1514 18.6733
39.3409 18.4386
39.5304 18.305
39.7201 18.0187
39.9099 17.8496
40.0999 17.5001
40.2899 17.2974
40.48 17.1192
40.6703 16.8427
40.8607 16.7105
41.0512 16.4691
41.242 16.2167
41.4327 16.0485
41.6236 15.7823
41.8146 15.5965
42.0057 15.4114
42.1969 15.2093
42.3882 15.0288
42.5797 14.8061
42.7713 14.6342
42.963 14.3774
43.1549 14.2358
43.3468 14.0016
43.5389 13.813
43.7312 13.5791
43.9237 13.4099
44.1162 13.2515
44.3088 13.0312
44.5016 12.848
44.6945 12.696
44.8875 12.5061
45.0806 12.3015
45.2739 12.1664
45.4673 11.9759
45.6609 11.8217
45.8546 11.6396
46.0484 11.5106
46.2424 11.3373
46.4365 11.1664
46.631 11.0129
46.8254 10.8249
47.0199 10.6856
47.2146 10.5072
47.4095 10.3775
47.6044 10.2264
47.7996 10.0438
47.9948 9.86686
48.1902 9.77875
48.3858 9.65726
48.5815 9.50479
48.7774 9.35106
48.9734 9.1903
49.1696 9.1122
49.3661 8.90618
49.5626 8.78541
49.7592 8.68511
49.956 8.51974
50.153 8.42742
50.3501 8.25841
50.5474 8.18878
50.7448 8.05402
50.9424 7.89851
51.1402 7.78633
51.3381 7.65285
51.5362 7.51956
51.7344 7.41296
51.9328 7.30038
52.1316 7.16698
52.3304 7.02545
52.5293 6.93988
52.7284 6.83986
52.9276 6.74034
53.1271 6.62271
53.3267 6.49613
53.5265 6.37735
53.7264 6.28905
53.9266 6.17013
54.1269 6.05081
54.3274 5.96579
54.528 5.7364
54.7289 5.62754
54.9301 5.44097
55.1314 5.38014
55.3328 5.09483
55.5344 4.98015
55.7361 4.80807