File: XRD/Ni3Fe_FD0819.xy
TT I
1.27165 7.22911
1.45013 6.27978
1.62863 5.57425
1.80712 4.83843
1.98562 4.78216
2.16411 4.81158
2.34263 5.76152
2.52115 7.40968
2.69965 8.00529
2.87818 8.69063
3.05672 10.8997
3.23527 14.8592
3.4138 19.0387
3.59237 23.3653
3.77094 25.6564
3.9495 29.9189
4.12809 34.3815
4.30669 102.321
4.4853 53.4024
4.6639 55.474
4.84253 68.1041
5.02118 86.8985
5.19981 400.972
5.37848 192.376
5.55716 101.377
5.73586 92.108
5.91455 94.3489
6.09328 4578.98
6.27201 79.6236
6.45075 69.6805
6.62952 62.3429
6.8083 58.9744
6.98711 54.8606
7.16591 55.5106
7.34475 66.2569
7.5236 53.873
7.70247 56.3659
7.88135 57.1883
8.06026 62.2428
8.23919 68.7193
8.41812 82.9043
8.59709 1223.8
8.77609 96.855
8.9551 88.9632
9.13412 82.2162
9.31318 84.236
9.49226 84.389
9.67134 94.6812
9.85047 101.192
10.0296 342.711
10.2088 346.728
10.388 104.411
10.5672 539.093
10.7465 85.2921
10.9257 77.0278
11.105 70.8281
11.2844 67.5873
11.4637 64.0025
11.6431 62.7575
11.8225 62.1705
12.002 63.9997
12.1814 161.06
12.3609 66.3805
12.5405 64.5747
12.72 67.4796
12.8996 70.904
13.0792 79.972
13.2589 249.209
13.4386 117.529
13.6183 259.031
13.7981 93.1333
13.9779 75.0942
14.1577 71.2105
14.3376 69.6153
14.5175 68.2422
14.6974 70.004
14.8774 112.1
15.0574 140.269
15.2374 68.872
15.4175 65.5754
15.5976 65.2999
15.7778 95.3747
15.958 146.144
16.1382 60.8413
16.3185 57.0611
16.4988 54.9432
16.6792 53.8052
16.8596 54.2008
17.04 55.5202
17.2205 66.9259
17.401 68.5606
17.5815 58.4441
17.7622 60.6183
17.9428 73.2976
18.1237 141.457
18.3044 91.0401
18.4852 74.0085
18.666 59.4916
18.8469 57.2951
19.0278 56.1942
19.2088 58.6346
19.3898 75.572
19.5709 53.6155
19.752 52.8542
19.9332 55.8195
20.1144 69.7881
20.2957 64.042
20.477 52.3951
20.6586 49.0749
20.84 48.2537
21.0215 48.2016
21.203 50.599
21.3846 48.3141
21.5662 48.5155
21.7479 52.4059
21.9297 64.1913
22.1115 55.7366
22.2933 49.0801
22.4753 48.0755
22.6572 48.4188
22.8393 51.7466
23.0214 56.4477
23.2037 48.2693
23.3859 49.2447
23.5682 56.9777
23.7505 47.4359
23.9329 44.6893
24.1154 43.601
24.2979 42.9683
24.4805 42.6533
24.6631 42.2956
24.8458 41.7971
25.0286 42.4248
25.2114 44.2287
25.3943 43.926
25.5773 40.3518
25.7605 40.0063
25.9436 40.4798
26.1268 41.3426
26.31 39.5727
26.4933 40.3096
26.6767 41.7652
26.8601 39.8806
27.0437 38.4913
27.2272 38.2378
27.4109 38.0906
27.5946 38.02
27.7784 37.4767
27.9623 38.0645
28.1462 38.3561
28.3304 36.593
28.5145 35.5393
28.6987 35.2074
28.8829 34.995
29.0673 34.3473
29.2517 33.9395
29.4361 33.7366
29.6207 32.7689
29.8053 32.4828
29.99 32.1817
30.1748 32.0847
30.3597 31.9492
30.5447 31.9472
30.7297 31.8962
30.915 31.3219
31.1002 30.7484
31.2855 30.511
31.4708 30.5138
31.6563 29.9654
31.8418 29.9314
32.0275 29.5894
32.2132 29.0791
32.399 28.6792
32.5848 28.1534
32.7708 27.8818
32.9569 27.6496
33.143 27.4607
33.3293 27.1583
33.5158 26.7111
33.7022 26.366
33.8887 26.0271
34.0753 25.8005
34.262 25.2984
34.4488 25.0345
34.6357 24.7458
34.8227 24.433
35.0098 24.2414
35.1969 23.9744
35.3842 23.7345
35.5716 23.5582
35.759 23.1636
35.9468 22.9067
36.1345 22.6306
36.3222 22.3915
36.5101 22.1926
36.6981 21.8794
36.8861 21.4743
37.0743 21.3129
37.2626 21.0096
37.451 20.8211
37.6395 20.6184
37.8281 20.2359
38.0168 19.9841
38.2056 19.7518
38.3945 19.5157
38.5837 19.2447
38.7728 19.0154
38.9621 18.8002
39.1514 18.5442
39.3409 18.3062
39.5304 18.0493
39.7201 17.8278
39.9099 17.6338
40.0999 17.4226
40.2899 17.2183
40.48 17.0095
40.6703 16.7839
40.8607 16.5284
41.0512 16.3954
41.242 16.1114
41.4327 15.8284
41.6236 15.6794
41.8146 15.4583
42.0057 15.2739
42.1969 15.0597
42.3882 14.8448
42.5797 14.6549
42.7713 14.4576
42.963 14.2883
43.1549 14.103
43.3468 13.8213
43.5389 13.6711
43.7312 13.4727
43.9237 13.289
44.1162 13.1176
44.3088 12.9696
44.5016 12.7235
44.6945 12.5666
44.8875 12.432
45.0806 12.2358
45.2739 12.0294
45.4673 11.9083
45.6609 11.7119
45.8546 11.5463
46.0484 11.4416
46.2424 11.269
46.4365 11.0972
46.631 10.9108
46.8254 10.776
47.0199 10.6083
47.2146 10.4587
47.4095 10.267
47.6044 10.1028
47.7996 9.98901
47.9948 9.85648
48.1902 9.67838
48.3858 9.52638
48.5815 9.37975
48.7774 9.28533
48.9734 9.14248
49.1696 8.98688
49.3661 8.85764
49.5626 8.69615
49.7592 8.56313
49.956 8.45937
50.153 8.29216
50.3501 8.22095
50.5474 8.08701
50.7448 7.9624
50.9424 7.84124
51.1402 7.70714
51.3381 7.61
51.5362 7.46758
51.7344 7.34727
51.9328 7.20489
52.1316 7.10088
52.3304 6.98469
52.5293 6.86253
52.7284 6.7548
52.9276 6.65103
53.1271 6.56971
53.3267 6.45601
53.5265 6.30001
53.7264 6.21981
53.9266 6.15327
54.1269 5.99342
54.3274 5.87954
54.528 5.71656
54.7289 5.58856
54.9301 5.39222
55.1314 5.28408
55.3328 5.11486
55.5344 4.91312
55.7361 4.71611