File: XRD/Ni3Fe_FD0399.xy
TT I
1.27165 7.53255
1.45013 7.13988
1.62863 5.30836
1.80712 5.03409
1.98562 4.68025
2.16411 4.91278
2.34263 4.91605
2.52115 6.31748
2.69965 7.48052
2.87818 9.13989
3.05672 11.5156
3.23527 14.9724
3.4138 19.0358
3.59237 24.8294
3.77094 26.6368
3.9495 30.0327
4.12809 36.1124
4.30669 243.397
4.4853 69.2743
4.6639 57.0557
4.84253 68.5355
5.02118 89.4741
5.19981 439.672
5.37848 223.046
5.55716 105.209
5.73586 95.1931
5.91455 98.0919
6.09328 3972.53
6.27201 87.336
6.45075 69.0862
6.62952 64.7657
6.8083 60.5282
6.98711 57.5817
7.16591 57.1844
7.34475 99.2681
7.5236 56.1052
7.70247 57.7708
7.88135 59.3622
8.06026 63.3732
8.23919 71.0454
8.41812 88.1646
8.59709 1106.32
8.77609 104.524
8.9551 94.5772
9.13412 83.8799
9.31318 84.889
9.49226 86.4695
9.67134 102.497
9.85047 102.483
10.0296 370.09
10.2088 501.049
10.388 108.087
10.5672 485.735
10.7465 89.402
10.9257 80.6009
11.105 73.3616
11.2844 72.7838
11.4637 66.4011
11.6431 65.3736
11.8225 63.7881
12.002 65.2744
12.1814 146.751
12.3609 73.8102
12.5405 66.2142
12.72 72.2112
12.8996 72.5067
13.0792 80.8318
13.2589 230.563
13.4386 137.951
13.6183 232.95
13.7981 106.186
13.9779 77.5311
14.1577 74.3546
14.3376 73.5598
14.5175 70.61
14.6974 72.3832
14.8774 111.991
15.0574 164.503
15.2374 73.5316
15.4175 67.8355
15.5976 67.4813
15.7778 97.1233
15.958 171.099
16.1382 64.6847
16.3185 60.5113
16.4988 57.2028
16.6792 55.8629
16.8596 56.7455
17.04 57.2354
17.2205 67.4964
17.401 74.5051
17.5815 60.8139
17.7622 62.5494
17.9428 76.16
18.1237 137.449
18.3044 90.0048
18.4852 82.2709
18.666 62.3486
18.8469 59.3923
19.0278 58.3381
19.2088 61.1757
19.3898 77.2776
19.5709 55.8279
19.752 54.5282
19.9332 57.7329
20.1144 70.5756
20.2957 64.1297
20.477 55.7675
20.6586 50.7809
20.84 50.1022
21.0215 49.9436
21.203 51.8383
21.3846 50.3929
21.5662 50.0414
21.7479 53.6663
21.9297 65.5327
22.1115 56.9698
22.2933 51.6054
22.4753 50.0258
22.6572 50.18
22.8393 52.8249
23.0214 58.8823
23.2037 50.1126
23.3859 51.13
23.5682 57.3684
23.7505 50.054
23.9329 46.345
24.1154 45.2737
24.2979 44.5623
24.4805 43.9323
24.6631 43.9407
24.8458 43.2331
25.0286 43.9334
25.2114 45.7525
25.3943 45.6513
25.5773 41.9984
25.7605 41.5325
25.9436 41.8334
26.1268 42.6065
26.31 41.1208
26.4933 41.616
26.6767 42.9592
26.8601 41.5825
27.0437 39.8104
27.2272 39.4939
27.4109 39.2522
27.5946 39.3382
27.7784 38.8294
27.9623 39.2942
28.1462 39.7097
28.3304 38.1318
28.5145 36.8787
28.6987 36.5011
28.8829 36.3147
29.0673 35.53
29.2517 35.2033
29.4361 34.974
29.6207 33.9131
29.8053 33.7921
29.99 33.3126
30.1748 33.2616
30.3597 33.0078
30.5447 32.8209
30.7297 32.9505
30.915 32.4218
31.1002 31.9123
31.2855 31.4989
31.4708 31.3953
31.6563 31.1373
31.8418 30.8438
32.0275 30.6146
32.2132 30.0972
32.399 29.6517
32.5848 29.2007
32.7708 28.759
32.9569 28.6431
33.143 28.4112
33.3293 28.0264
33.5158 27.6986
33.7022 27.2418
33.8887 27.0095
34.0753 26.5547
34.262 26.3358
34.4488 25.8371
34.6357 25.6367
34.8227 25.2838
35.0098 25.1567
35.1969 24.8007
35.3842 24.5615
35.5716 24.3565
35.759 23.981
35.9468 23.672
36.1345 23.4467
36.3222 23.2328
36.5101 23.0117
36.6981 22.7412
36.8861 22.3883
37.0743 22.0737
37.2626 21.8235
37.451 21.4009
37.6395 21.3206
37.8281 21.0259
38.0168 20.6924
38.2056 20.4872
38.3945 20.1914
38.5837 19.8967
38.7728 19.7002
38.9621 19.4568
39.1514 19.2112
39.3409 18.859
39.5304 18.6174
39.7201 18.5196
39.9099 18.2952
40.0999 17.9858
40.2899 17.8285
40.48 17.5284
40.6703 17.3655
40.8607 17.1762
41.0512 16.9056
41.242 16.6439
41.4327 16.4738
41.6236 16.2041
41.8146 16.0323
42.0057 15.7712
42.1969 15.599
42.3882 15.4607
42.5797 15.1746
42.7713 15.0008
42.963 14.747
43.1549 14.6101
43.3468 14.4274
43.5389 14.1981
43.7312 13.9813
43.9237 13.7915
44.1162 13.5438
44.3088 13.3555
44.5016 13.1977
44.6945 13.0455
44.8875 12.8672
45.0806 12.6469
45.2739 12.5209
45.4673 12.3
45.6609 12.1578
45.8546 11.9853
46.0484 11.81
46.2424 11.6087
46.4365 11.4863
46.631 11.2932
46.8254 11.1062
47.0199 10.948
47.2146 10.8122
47.4095 10.6217
47.6044 10.4759
47.7996 10.3205
47.9948 10.1885
48.1902 10.0432
48.3858 9.90385
48.5815 9.73275
48.7774 9.6012
48.9734 9.47414
49.1696 9.34676
49.3661 9.2058
49.5626 9.03046
49.7592 8.88914
49.956 8.7909
50.153 8.65746
50.3501 8.48877
50.5474 8.36978
50.7448 8.27566
50.9424 8.14137
51.1402 7.988
51.3381 7.85421
51.5362 7.73168
51.7344 7.58693
51.9328 7.50134
52.1316 7.33698
52.3304 7.25778
52.5293 7.12025
52.7284 7.01278
52.9276 6.8702
53.1271 6.75224
53.3267 6.66476
53.5265 6.52929
53.7264 6.41847
53.9266 6.30008
54.1269 6.17751
54.3274 6.06323
54.528 5.94067
54.7289 5.76935
54.9301 5.59885
55.1314 5.49149
55.3328 5.2686
55.5344 5.072
55.7361 4.9242