File: XRD/Ni3Fe_FD0409.xy
TT I
1.27165 7.8909
1.45013 6.30629
1.62863 5.26605
1.80712 5.19353
1.98562 5.20277
2.16411 5.06878
2.34263 5.38692
2.52115 6.04147
2.69965 7.48369
2.87818 8.47966
3.05672 11.3202
3.23527 15.3951
3.4138 19.1573
3.59237 24.5277
3.77094 26.2866
3.9495 30.6137
4.12809 35.9367
4.30669 266.602
4.4853 71.7172
4.6639 56.7623
4.84253 68.701
5.02118 89.1525
5.19981 434.687
5.37848 222.744
5.55716 104.95
5.73586 94.4238
5.91455 97.9477
6.09328 3945.28
6.27201 86.9117
6.45075 69.06
6.62952 64.5905
6.8083 60.681
6.98711 57.3613
7.16591 57.1041
7.34475 102.624
7.5236 56.4931
7.70247 57.7046
7.88135 59.5727
8.06026 63.5593
8.23919 71.1449
8.41812 88.3329
8.59709 1088.91
8.77609 104.751
8.9551 95.7904
9.13412 84.0634
9.31318 84.7307
9.49226 86.3362
9.67134 103.065
9.85047 102.561
10.0296 364.947
10.2088 493.647
10.388 108.263
10.5672 476.427
10.7465 89.145
10.9257 81.1466
11.105 73.9127
11.2844 72.7502
11.4637 66.5393
11.6431 65.3386
11.8225 64.148
12.002 65.3452
12.1814 144.648
12.3609 74.5439
12.5405 66.2299
12.72 72.3859
12.8996 72.733
13.0792 80.6172
13.2589 226.046
13.4386 137.343
13.6183 229.853
13.7981 105.599
13.9779 77.7882
14.1577 74.6005
14.3376 74.3102
14.5175 70.494
14.6974 72.2928
14.8774 111.026
15.0574 163.887
15.2374 73.8638
15.4175 68.0272
15.5976 67.5535
15.7778 95.6167
15.958 170.102
16.1382 64.9149
16.3185 60.7314
16.4988 57.0597
16.6792 56.1036
16.8596 56.7368
17.04 57.2479
17.2205 67.2869
17.401 74.019
17.5815 60.9027
17.7622 62.7413
17.9428 75.7865
18.1237 137.206
18.3044 89.2385
18.4852 82.2538
18.666 62.0604
18.8469 59.5473
19.0278 58.3354
19.2088 61.0606
19.3898 77.5686
19.5709 55.8469
19.752 54.5245
19.9332 57.5204
20.1144 70.7075
20.2957 64.1837
20.477 55.6571
20.6586 50.914
20.84 50.0364
21.0215 50.039
21.203 51.8233
21.3846 50.4096
21.5662 49.9354
21.7479 53.7098
21.9297 65.5019
22.1115 56.9498
22.2933 51.4652
22.4753 50.2243
22.6572 50.0594
22.8393 52.7405
23.0214 59.0493
23.2037 50.2051
23.3859 50.8865
23.5682 57.2297
23.7505 50.1758
23.9329 46.4767
24.1154 45.2961
24.2979 44.5242
24.4805 43.8812
24.6631 43.9015
24.8458 43.2065
25.0286 43.7263
25.2114 45.5765
25.3943 45.771
25.5773 42.1095
25.7605 41.4732
25.9436 41.8443
26.1268 42.7414
26.31 41.0094
26.4933 41.5738
26.6767 43.1436
26.8601 41.3243
27.0437 39.8525
27.2272 39.505
27.4109 39.1833
27.5946 39.2509
27.7784 38.776
27.9623 39.2854
28.1462 39.6896
28.3304 38.2167
28.5145 36.7609
28.6987 36.4379
28.8829 36.2445
29.0673 35.4008
29.2517 35.1568
29.4361 35.0147
29.6207 33.8877
29.8053 33.5621
29.99 33.328
30.1748 33.2799
30.3597 33.0963
30.5447 32.9027
30.7297 32.9346
30.915 32.3772
31.1002 31.9318
31.2855 31.4442
31.4708 31.5263
31.6563 31.1048
31.8418 30.7372
32.0275 30.6423
32.2132 30.0654
32.399 29.6526
32.5848 29.2432
32.7708 28.7776
32.9569 28.6535
33.143 28.4065
33.3293 28.0981
33.5158 27.6657
33.7022 27.2515
33.8887 26.9405
34.0753 26.6287
34.262 26.2848
34.4488 25.8567
34.6357 25.6075
34.8227 25.255
35.0098 25.0443
35.1969 24.8494
35.3842 24.5508
35.5716 24.4251
35.759 24.0542
35.9468 23.6421
36.1345 23.4684
36.3222 23.2167
36.5101 22.9579
36.6981 22.6872
36.8861 22.3753
37.0743 22.0338
37.2626 21.7854
37.451 21.415
37.6395 21.3194
37.8281 20.9558
38.0168 20.745
38.2056 20.4502
38.3945 20.1342
38.5837 19.8893
38.7728 19.6982
38.9621 19.4084
39.1514 19.2268
39.3409 18.8717
39.5304 18.6889
39.7201 18.4781
39.9099 18.2648
40.0999 17.9858
40.2899 17.7887
40.48 17.5834
40.6703 17.3897
40.8607 17.1398
41.0512 16.9148
41.242 16.6262
41.4327 16.4202
41.6236 16.1955
41.8146 16.0301
42.0057 15.7957
42.1969 15.5865
42.3882 15.3972
42.5797 15.1903
42.7713 14.9638
42.963 14.7728
43.1549 14.5641
43.3468 14.2813
43.5389 14.0879
43.7312 13.955
43.9237 13.7329
44.1162 13.5787
44.3088 13.3871
44.5016 13.2184
44.6945 12.9836
44.8875 12.8737
45.0806 12.6709
45.2739 12.4936
45.4673 12.2987
45.6609 12.1037
45.8546 11.9547
46.0484 11.7974
46.2424 11.609
46.4365 11.4417
46.631 11.2618
46.8254 11.134
47.0199 10.9534
47.2146 10.8127
47.4095 10.6015
47.6044 10.5159
47.7996 10.3281
47.9948 10.1945
48.1902 10.0361
48.3858 9.86489
48.5815 9.74777
48.7774 9.61651
48.9734 9.4699
49.1696 9.30127
49.3661 9.21271
49.5626 9.03321
49.7592 8.91289
49.956 8.78132
50.153 8.60797
50.3501 8.47357
50.5474 8.37451
50.7448 8.26019
50.9424 8.09466
51.1402 8.00681
51.3381 7.83789
51.5362 7.73697
51.7344 7.61233
51.9328 7.45838
52.1316 7.32599
52.3304 7.24805
52.5293 7.1093
52.7284 6.98161
52.9276 6.88022
53.1271 6.78521
53.3267 6.66567
53.5265 6.50136
53.7264 6.42206
53.9266 6.29078
54.1269 6.19312
54.3274 6.06207
54.528 5.96243
54.7289 5.77453
54.9301 5.63843
55.1314 5.44214
55.3328 5.2504
55.5344 5.13628
55.7361 4.93935