File: XRD/Ni3Fe_FD0967.xy
TT I
1.27165 7.25651
1.45013 6.32586
1.62863 5.18253
1.80712 5.41865
1.98562 4.40116
2.16411 5.32809
2.34263 5.88848
2.52115 7.19975
2.69965 8.27659
2.87818 8.45913
3.05672 11.8338
3.23527 14.8453
3.4138 18.5559
3.59237 23.888
3.77094 25.7847
3.9495 29.3095
4.12809 34.5998
4.30669 197.077
4.4853 62.7574
4.6639 54.812
4.84253 66.3256
5.02118 84.8437
5.19981 280.622
5.37848 173.307
5.55716 99.3992
5.73586 90.6514
5.91455 90.8506
6.09328 4634.6
6.27201 81.3086
6.45075 66.5004
6.62952 61.8192
6.8083 57.9614
6.98711 54.8598
7.16591 54.2571
7.34475 86.5837
7.5236 53.8436
7.70247 55.0664
7.88135 56.9511
8.06026 61.1324
8.23919 68.42
8.41812 83.4108
8.59709 1154.16
8.77609 96.388
8.9551 89.5614
9.13412 81.0071
9.31318 81.1501
9.49226 82.8947
9.67134 96.2479
9.85047 97.8755
10.0296 302.365
10.2088 355.249
10.388 101.747
10.5672 527.167
10.7465 84.8275
10.9257 77.1825
11.105 70.9591
11.2844 68.7465
11.4637 63.7134
11.6431 62.3403
11.8225 61.4903
12.002 62.0404
12.1814 155.612
12.3609 68.971
12.5405 63.3786
12.72 68.3707
12.8996 69.6087
13.0792 76.8896
13.2589 235.252
13.4386 119.395
13.6183 248.942
13.7981 94.3576
13.9779 74.4052
14.1577 71.1826
14.3376 70.1627
14.5175 67.4453
14.6974 69.1153
14.8774 106.636
15.0574 145.212
15.2374 69.5331
15.4175 65.2775
15.5976 64.4887
15.7778 91.0448
15.958 149.157
16.1382 61.1373
16.3185 57.6312
16.4988 54.6203
16.6792 53.5935
16.8596 54.0903
17.04 54.654
17.2205 65.3682
17.401 69.0732
17.5815 57.9845
17.7622 60.1476
17.9428 70.9617
18.1237 137.055
18.3044 89.8953
18.4852 74.8544
18.666 59.3641
18.8469 57.0206
19.0278 55.7742
19.2088 58.1353
19.3898 75.1398
19.5709 53.261
19.752 52.2741
19.9332 54.8272
20.1144 68.6538
20.2957 63.6389
20.477 52.4595
20.6586 48.7698
20.84 47.9272
21.0215 47.572
21.203 50.0958
21.3846 47.9831
21.5662 47.9292
21.7479 51.4808
21.9297 63.3879
22.1115 55.1664
22.2933 48.8219
22.4753 48.0449
22.6572 47.8041
22.8393 50.9376
23.0214 56.0633
23.2037 47.9259
23.3859 48.62
23.5682 56.5708
23.7505 47.3861
23.9329 44.252
24.1154 43.2853
24.2979 42.5339
24.4805 42.2584
24.6631 42.0805
24.8458 41.5343
25.0286 42.0746
25.2114 43.7897
25.3943 43.8357
25.5773 40.1756
25.7605 39.7141
25.9436 40.0174
26.1268 41.057
26.31 39.1994
26.4933 40.0924
26.6767 41.5021
26.8601 39.7315
27.0437 38.1799
27.2272 37.7834
27.4109 37.6173
27.5946 37.6686
27.7784 37.0897
27.9623 37.7483
28.1462 38.1449
28.3304 36.3908
28.5145 35.3703
28.6987 34.957
28.8829 34.74
29.0673 34.101
29.2517 33.6813
29.4361 33.6154
29.6207 32.6807
29.8053 32.3567
29.99 31.837
30.1748 31.7663
30.3597 31.6776
30.5447 31.5791
30.7297 31.6251
30.915 31.1542
31.1002 30.6296
31.2855 30.3245
31.4708 30.2273
31.6563 29.84
31.8418 29.6333
32.0275 29.3879
32.2132 28.8981
32.399 28.4231
32.5848 27.9294
32.7708 27.678
32.9569 27.447
33.143 27.2963
33.3293 26.892
33.5158 26.5942
33.7022 26.0653
33.8887 25.8067
34.0753 25.5855
34.262 25.2263
34.4488 24.7985
34.6357 24.5568
34.8227 24.1676
35.0098 23.9873
35.1969 23.7695
35.3842 23.5577
35.5716 23.3626
35.759 23.1016
35.9468 22.7185
36.1345 22.4543
36.3222 22.2621
36.5101 22.0554
36.6981 21.7034
36.8861 21.4458
37.0743 21.0968
37.2626 20.8969
37.451 20.6868
37.6395 20.519
37.8281 20.118
38.0168 19.8422
38.2056 19.5878
38.3945 19.3035
38.5837 19.058
38.7728 18.8474
38.9621 18.6541
39.1514 18.3916
39.3409 18.1527
39.5304 17.9145
39.7201 17.7642
39.9099 17.5428
40.0999 17.2322
40.2899 17.0551
40.48 16.7826
40.6703 16.5907
40.8607 16.4526
41.0512 16.22
41.242 15.9387
41.4327 15.8042
41.6236 15.5054
41.8146 15.3739
42.0057 15.11
42.1969 14.9584
42.3882 14.7819
42.5797 14.5447
42.7713 14.3683
42.963 14.1307
43.1549 13.9805
43.3468 13.7499
43.5389 13.6396
43.7312 13.3888
43.9237 13.1854
44.1162 13.0107
44.3088 12.8571
44.5016 12.6579
44.6945 12.513
44.8875 12.3411
45.0806 12.1755
45.2739 11.9923
45.4673 11.7946
45.6609 11.6509
45.8546 11.474
46.0484 11.3516
46.2424 11.1849
46.4365 11.023
46.631 10.882
46.8254 10.6752
47.0199 10.5389
47.2146 10.3709
47.4095 10.2247
47.6044 10.078
47.7996 9.88333
47.9948 9.74342
48.1902 9.61467
48.3858 9.50138
48.5815 9.38642
48.7774 9.23694
48.9734 9.08529
49.1696 8.9566
49.3661 8.82234
49.5626 8.6953
49.7592 8.55454
49.956 8.40739
50.153 8.31019
50.3501 8.1615
50.5474 8.06847
50.7448 7.91791
50.9424 7.81675
51.1402 7.69587
51.3381 7.54495
51.5362 7.38782
51.7344 7.2962
51.9328 7.18698
52.1316 7.08413
52.3304 6.94812
52.5293 6.83824
52.7284 6.7339
52.9276 6.6315
53.1271 6.54142
53.3267 6.39151
53.5265 6.29154
53.7264 6.1907
53.9266 6.0584
54.1269 5.98216
54.3274 5.79762
54.528 5.72089
54.7289 5.61367
54.9301 5.38564
55.1314 5.29205
55.3328 5.05023
55.5344 4.90112
55.7361 4.74123