File: XRD/Ni3Fe_FD0187.xy
TT I
1.27165 7.5594
1.45013 7.21608
1.62863 5.83283
1.80712 4.60664
1.98562 5.0105
2.16411 4.39335
2.34263 4.67659
2.52115 5.09508
2.69965 5.26613
2.87818 7.90078
3.05672 11.1583
3.23527 14.7174
3.4138 18.9023
3.59237 21.8393
3.77094 25.164
3.9495 28.974
4.12809 33.2873
4.30669 38.2769
4.4853 45.2712
4.6639 54.3664
4.84253 66.7083
5.02118 91.3159
5.19981 515.046
5.37848 409.513
5.55716 107.794
5.73586 95.7117
5.91455 104.887
6.09328 2913.9
6.27201 88.7156
6.45075 66.9772
6.62952 60.3217
6.8083 56.3169
6.98711 53.805
7.16591 52.8828
7.34475 52.392
7.5236 55.9727
7.70247 54.3262
7.88135 56.64
8.06026 61.2421
8.23919 68.6458
8.41812 83.9966
8.59709 931.116
8.77609 114.527
8.9551 85.8751
9.13412 81.9009
9.31318 86.0933
9.49226 84.2282
9.67134 89.4096
9.85047 99.6225
10.0296 534.828
10.2088 928.224
10.388 105.052
10.5672 349.53
10.7465 90.6269
10.9257 76.6036
11.105 71.0401
11.2844 67.1667
11.4637 64.1005
11.6431 63.0607
11.8225 61.7446
12.002 65.1411
12.1814 122.744
12.3609 74.143
12.5405 63.8759
12.72 66.0276
12.8996 70.5692
13.0792 79.5705
13.2589 211.685
13.4386 200.986
13.6183 201.268
13.7981 148.266
13.9779 76.6767
14.1577 74.1952
14.3376 69.8227
14.5175 68.938
14.6974 70.408
14.8774 122.12
15.0574 204.785
15.2374 69.792
15.4175 66.8495
15.5976 66.0661
15.7778 107.978
15.958 187.496
16.1382 62.2907
16.3185 57.806
16.4988 55.6273
16.6792 54.4913
16.8596 54.6075
17.04 55.8677
17.2205 66.2524
17.401 81.7138
17.5815 59.7268
17.7622 62.0969
17.9428 83.7573
18.1237 119.994
18.3044 89.6646
18.4852 94.6111
18.666 61.3873
18.8469 58.6976
19.0278 57.1661
19.2088 62.2935
19.3898 70.6925
19.5709 56.7196
19.752 53.8081
19.9332 58.9082
20.1144 68.5894
20.2957 62.1892
20.477 59.2037
20.6586 50.3721
20.84 49.6002
21.0215 49.5576
21.203 50.4391
21.3846 51.0042
21.5662 49.5167
21.7479 54.8581
21.9297 63.5713
22.1115 57.0637
22.2933 52.7291
22.4753 49.4366
22.6572 49.6325
22.8393 52.8425
23.0214 58.3787
23.2037 50.2517
23.3859 52.2819
23.5682 54.9521
23.7505 53.5686
23.9329 46.3297
24.1154 44.9144
24.2979 44.1919
24.4805 43.5369
24.6631 43.6771
24.8458 42.9777
25.0286 43.6342
25.2114 45.3393
25.3943 45.4447
25.5773 42.1814
25.7605 41.1058
25.9436 41.4968
26.1268 42.1019
26.31 41.3698
26.4933 41.5028
26.6767 42.6913
26.8601 41.7277
27.0437 39.9757
27.2272 39.5569
27.4109 38.9559
27.5946 39.164
27.7784 39.0058
27.9623 39.0572
28.1462 40.0788
28.3304 38.5405
28.5145 36.6608
28.6987 36.4016
28.8829 35.8837
29.0673 35.7162
29.2517 35.0093
29.4361 34.67
29.6207 34.0024
29.8053 33.4889
29.99 33.1169
30.1748 32.9662
30.3597 33.1026
30.5447 32.8314
30.7297 32.8179
30.915 32.528
31.1002 31.79
31.2855 31.4791
31.4708 31.3085
31.6563 31.264
31.8418 30.8124
32.0275 30.6479
32.2132 30.1789
32.399 29.5584
32.5848 29.119
32.7708 28.7373
32.9569 28.6126
33.143 28.2726
33.3293 28.0815
33.5158 27.693
33.7022 27.0669
33.8887 26.8799
34.0753 26.6285
34.262 26.1726
34.4488 25.8745
34.6357 25.4637
34.8227 25.2264
35.0098 25.0362
35.1969 24.7195
35.3842 24.4895
35.5716 24.3458
35.759 24.0379
35.9468 23.5013
36.1345 23.3574
36.3222 23.2201
36.5101 22.9304
36.6981 22.5545
36.8861 22.2342
37.0743 21.9449
37.2626 21.6687
37.451 21.4126
37.6395 21.2443
37.8281 20.8938
38.0168 20.5977
38.2056 20.4021
38.3945 20.0876
38.5837 19.8352
38.7728 19.5746
38.9621 19.3642
39.1514 19.0301
39.3409 18.7583
39.5304 18.5798
39.7201 18.4536
39.9099 18.2283
40.0999 17.9457
40.2899 17.7741
40.48 17.4876
40.6703 17.2787
40.8607 17.1118
41.0512 16.826
41.242 16.6257
41.4327 16.3682
41.6236 16.1494
41.8146 15.9676
42.0057 15.7539
42.1969 15.4876
42.3882 15.327
42.5797 15.1161
42.7713 14.8537
42.963 14.7185
43.1549 14.5097
43.3468 14.3149
43.5389 14.0878
43.7312 13.9138
43.9237 13.7087
44.1162 13.5262
44.3088 13.3225
44.5016 13.1232
44.6945 12.9783
44.8875 12.8076
45.0806 12.6073
45.2739 12.4821
45.4673 12.2641
45.6609 12.0553
45.8546 11.9193
46.0484 11.7714
46.2424 11.5784
46.4365 11.4423
46.631 11.2305
46.8254 11.072
47.0199 10.9207
47.2146 10.7367
47.4095 10.5988
47.6044 10.4527
47.7996 10.3039
47.9948 10.1394
48.1902 9.98692
48.3858 9.81394
48.5815 9.75266
48.7774 9.57917
48.9734 9.44605
49.1696 9.26675
49.3661 9.13234
49.5626 8.96908
49.7592 8.84217
49.956 8.75503
50.153 8.63635
50.3501 8.45191
50.5474 8.3685
50.7448 8.22279
50.9424 8.06419
51.1402 7.98725
51.3381 7.7914
51.5362 7.71422
51.7344 7.5956
51.9328 7.41881
52.1316 7.31684
52.3304 7.23996
52.5293 7.07945
52.7284 7.00929
52.9276 6.86226
53.1271 6.80519
53.3267 6.60077
53.5265 6.52197
53.7264 6.41369
53.9266 6.29651
54.1269 6.19018
54.3274 6.03653
54.528 5.8505
54.7289 5.73235
54.9301 5.54353
55.1314 5.39277
55.3328 5.16833
55.5344 5.00703
55.7361 4.82794