File: XRD/Ni3Fe_FD0255.xy
TT I
1.27165 8.35955
1.45013 6.39051
1.62863 5.71948
1.80712 4.95137
1.98562 4.54151
2.16411 4.49958
2.34263 4.242
2.52115 4.94835
2.69965 6.69735
2.87818 8.34786
3.05672 10.9825
3.23527 15.3602
3.4138 18.5111
3.59237 22.8267
3.77094 26.2454
3.9495 30.5869
4.12809 35.1165
4.30669 63.3765
4.4853 50.7597
4.6639 57.823
4.84253 71.3194
5.02118 95.8638
5.19981 633.438
5.37848 278.234
5.55716 111.464
5.73586 99.9869
5.91455 107.18
6.09328 3626.3
6.27201 88.8646
6.45075 71.0206
6.62952 64.0176
6.8083 60.1672
6.98711 57.4058
7.16591 57.7788
7.34475 61.4331
7.5236 55.8374
7.70247 58.185
7.88135 60.0541
8.06026 65.1163
8.23919 72.8103
8.41812 89.3848
8.59709 1108.92
8.77609 110.639
8.9551 90.8649
9.13412 86.5919
9.31318 87.6028
9.49226 89.2882
9.67134 96.1123
9.85047 105.836
10.0296 516.278
10.2088 610.675
10.388 111.348
10.5672 436.236
10.7465 91.9806
10.9257 80.6417
11.105 74.6335
11.2844 70.818
11.4637 67.5386
11.6431 66.2718
11.8225 65.0752
12.002 66.7419
12.1814 142.053
12.3609 71.3706
12.5405 67.6323
12.72 69.6709
12.8996 74.5933
13.0792 83.8537
13.2589 237.396
13.4386 153.482
13.6183 231.657
13.7981 116.867
13.9779 79.6542
14.1577 75.1783
14.3376 73.1674
14.5175 71.9513
14.6974 73.9332
14.8774 123.787
15.0574 174.844
15.2374 72.4537
15.4175 69.3853
15.5976 69.1592
15.7778 107.504
15.958 174.48
16.1382 63.9919
16.3185 60.3859
16.4988 57.6614
16.6792 56.8363
16.8596 57.0932
17.04 58.2948
17.2205 69.697
17.401 77.7579
17.5815 61.8735
17.7622 64.1746
17.9428 83.6486
18.1237 133.492
18.3044 91.3614
18.4852 85.2876
18.666 63.2435
18.8469 60.8707
19.0278 59.4916
19.2088 63.5481
19.3898 75.3765
19.5709 57.1168
19.752 55.6948
19.9332 59.9231
20.1144 71.6312
20.2957 64.347
20.477 57.074
20.6586 51.8836
20.84 51.0525
21.0215 50.9774
21.203 52.4727
21.3846 51.5282
21.5662 51.2433
21.7479 55.7295
21.9297 65.9491
22.1115 57.6593
22.2933 52.5675
22.4753 50.7063
22.6572 51.3265
22.8393 54.0851
23.0214 59.6544
23.2037 51.0369
23.3859 52.7063
23.5682 57.0547
23.7505 51.5922
23.9329 47.3909
24.1154 45.9662
24.2979 45.3152
24.4805 44.7648
24.6631 44.5967
24.8458 44.1198
25.0286 44.8791
25.2114 46.4254
25.3943 46.5317
25.5773 42.751
25.7605 42.2874
25.9436 42.5576
26.1268 43.3567
26.31 42.0123
26.4933 42.511
26.6767 43.7569
26.8601 42.1756
27.0437 40.6936
27.2272 40.299
27.4109 40.1924
27.5946 40.0975
27.7784 39.6593
27.9623 39.8987
28.1462 40.5314
28.3304 38.8452
28.5145 37.5827
28.6987 37.1223
28.8829 36.934
29.0673 36.1694
29.2517 35.6674
29.4361 35.5621
29.6207 34.581
29.8053 34.41
29.99 34.0342
30.1748 33.7313
30.3597 33.5876
30.5447 33.5387
30.7297 33.5085
30.915 33.0508
31.1002 32.4505
31.2855 32.0995
31.4708 32.0101
31.6563 31.7838
31.8418 31.3912
32.0275 31.1451
32.2132 30.6584
32.399 30.2157
32.5848 29.7892
32.7708 29.4312
32.9569 29.1735
33.143 28.9785
33.3293 28.6183
33.5158 28.1369
33.7022 27.7433
33.8887 27.4956
34.0753 27.1284
34.262 26.7793
34.4488 26.3654
34.6357 26.0717
34.8227 25.732
35.0098 25.5407
35.1969 25.1697
35.3842 24.9361
35.5716 24.8313
35.759 24.4956
35.9468 24.0548
36.1345 23.8809
36.3222 23.5923
36.5101 23.4531
36.6981 23.0828
36.8861 22.689
37.0743 22.3836
37.2626 22.1716
37.451 21.9141
37.6395 21.795
37.8281 21.3678
38.0168 21.0139
38.2056 20.8106
38.3945 20.5133
38.5837 20.2433
38.7728 19.9881
38.9621 19.8185
39.1514 19.5038
39.3409 19.2669
39.5304 19.0427
39.7201 18.8089
39.9099 18.5668
40.0999 18.3823
40.2899 18.1047
40.48 17.8264
40.6703 17.5674
40.8607 17.3831
41.0512 17.1821
41.242 16.9267
41.4327 16.7228
41.6236 16.4862
41.8146 16.3299
42.0057 16.0793
42.1969 15.8489
42.3882 15.6215
42.5797 15.4508
42.7713 15.2243
42.963 14.9794
43.1549 14.8261
43.3468 14.6019
43.5389 14.3863
43.7312 14.2019
43.9237 14.0221
44.1162 13.7876
44.3088 13.6248
44.5016 13.4036
44.6945 13.2331
44.8875 13.066
45.0806 12.8883
45.2739 12.7235
45.4673 12.5201
45.6609 12.3315
45.8546 12.1579
46.0484 12.0151
46.2424 11.8122
46.4365 11.6717
46.631 11.4781
46.8254 11.2744
47.0199 11.1208
47.2146 10.9903
47.4095 10.8065
47.6044 10.6349
47.7996 10.4999
47.9948 10.3548
48.1902 10.2184
48.3858 10.0656
48.5815 9.93825
48.7774 9.79048
48.9734 9.63197
49.1696 9.46
49.3661 9.28359
49.5626 9.18573
49.7592 9.05273
49.956 8.92244
50.153 8.76698
50.3501 8.6449
50.5474 8.49329
50.7448 8.41317
50.9424 8.26536
51.1402 8.12589
51.3381 7.97718
51.5362 7.86064
51.7344 7.73938
51.9328 7.5821
52.1316 7.46624
52.3304 7.34049
52.5293 7.23399
52.7284 7.12056
52.9276 6.99639
53.1271 6.87502
53.3267 6.76044
53.5265 6.62123
53.7264 6.50602
53.9266 6.42699
54.1269 6.31855
54.3274 6.15999
54.528 6.02628
54.7289 5.86808
54.9301 5.70976
55.1314 5.55911
55.3328 5.31399
55.5344 5.10307
55.7361 4.99295