File: XRD/Ni3Fe_FD0086.xy
TT I
1.27165 8.99907
1.45013 7.53545
1.62863 6.49045
1.80712 5.81309
1.98562 5.91525
2.16411 5.01878
2.34263 4.94389
2.52115 4.24441
2.69965 4.90788
2.87818 7.52262
3.05672 11.2935
3.23527 14.7954
3.4138 18.6181
3.59237 21.507
3.77094 24.8444
3.9495 28.1102
4.12809 32.3693
4.30669 37.4688
4.4853 44.3015
4.6639 53.9006
4.84253 66.632
5.02118 97.7375
5.19981 762.52
5.37848 1005.72
5.55716 118.426
5.73586 101.612
5.91455 119.292
6.09328 1718.69
6.27201 105.182
6.45075 67.7707
6.62952 59.3929
6.8083 54.8485
6.98711 52.7329
7.16591 51.2993
7.34475 51.1388
7.5236 65.6524
7.70247 53.5266
7.88135 55.0856
8.06026 59.9634
8.23919 66.9673
8.41812 85.5785
8.59709 646.59
8.77609 147.332
8.9551 85.7895
9.13412 81.5484
9.31318 115.703
9.49226 82.6627
9.67134 87.4345
9.85047 98.6482
10.0296 605.432
10.2088 1382.17
10.388 107.236
10.5672 209.199
10.7465 104.126
10.9257 74.7639
11.105 69.0881
11.2844 64.627
11.4637 61.9674
11.6431 60.7645
11.8225 60.0756
12.002 78.2476
12.1814 93.7437
12.3609 88.9203
12.5405 61.6333
12.72 63.6245
12.8996 67.8501
13.0792 79.2946
13.2589 167.111
13.4386 294.383
13.6183 149.012
13.7981 217.942
13.9779 75.1843
14.1577 83.3826
14.3376 67.7768
14.5175 66.7019
14.6974 68.1783
14.8774 117.219
15.0574 205.497
15.2374 68.5867
15.4175 64.8218
15.5976 64.3151
15.7778 106.449
15.958 163.83
16.1382 64.0662
16.3185 56.1287
16.4988 53.7941
16.6792 52.5759
16.8596 53.1142
17.04 54.5657
17.2205 61.3676
17.401 80.2459
17.5815 57.5329
17.7622 60.6924
17.9428 85.3707
18.1237 88.3279
18.3044 88.3028
18.4852 102.578
18.666 60.2557
18.8469 56.8166
19.0278 55.4252
19.2088 61.2296
19.3898 62.4942
19.5709 58.4165
19.752 52.0333
19.9332 57.1368
20.1144 60.3018
20.2957 58.6277
20.477 62.1681
20.6586 48.6478
20.84 48.3579
21.0215 47.8899
21.203 47.5915
21.3846 50.2708
21.5662 47.595
21.7479 52.4294
21.9297 55.5285
22.1115 56.2686
22.2933 53.351
22.4753 47.5414
22.6572 47.9197
22.8393 50.0898
23.0214 52.1878
23.2037 49.8207
23.3859 51.037
23.5682 49.1454
23.7505 55.8033
23.9329 44.6895
24.1154 43.3367
24.2979 42.5301
24.4805 41.91
24.6631 42.1008
24.8458 41.6045
25.0286 41.8056
25.2114 42.5081
25.3943 42.9365
25.5773 41.585
25.7605 39.8516
25.9436 39.898
26.1268 40.0095
26.31 40.5613
26.4933 39.6388
26.6767 40.0781
26.8601 40.6851
27.0437 38.9478
27.2272 38.0201
27.4109 37.5692
27.5946 37.4264
27.7784 37.7727
27.9623 37.3419
28.1462 37.9281
28.3304 37.0772
28.5145 35.6028
28.6987 34.968
28.8829 34.5854
29.0673 34.3968
29.2517 33.6076
29.4361 33.1281
29.6207 32.905
29.8053 32.1972
29.99 31.95
30.1748 31.659
30.3597 31.7088
30.5447 31.4433
30.7297 31.1402
30.915 31.4584
31.1002 30.7122
31.2855 30.2715
31.4708 29.9198
31.6563 30.1333
31.8418 29.4779
32.0275 29.2185
32.2132 29.0841
32.399 28.5005
32.5848 27.9377
32.7708 27.5304
32.9569 27.5143
33.143 27.1196
33.3293 26.8675
33.5158 26.6867
33.7022 26.0137
33.8887 25.7091
34.0753 25.4598
34.262 25.0348
34.4488 24.7914
34.6357 24.4138
34.8227 24.14
35.0098 23.9862
35.1969 23.6465
35.3842 23.3833
35.5716 23.2328
35.759 23.0121
35.9468 22.6091
36.1345 22.4616
36.3222 22.1435
36.5101 21.918
36.6981 21.6283
36.8861 21.426
37.0743 21.06
37.2626 20.8037
37.451 20.5741
37.6395 20.3801
37.8281 20.0867
38.0168 19.8386
38.2056 19.5832
38.3945 19.2973
38.5837 19.0218
38.7728 18.7957
38.9621 18.6149
39.1514 18.3027
39.3409 18.0612
39.5304 17.9107
39.7201 17.679
39.9099 17.5233
40.0999 17.2382
40.2899 17.0174
40.48 16.7738
40.6703 16.6094
40.8607 16.3821
41.0512 16.1399
41.242 15.9613
41.4327 15.7595
41.6236 15.538
41.8146 15.3224
42.0057 15.1006
42.1969 14.921
42.3882 14.7551
42.5797 14.5395
42.7713 14.324
42.963 14.1312
43.1549 13.9479
43.3468 13.7988
43.5389 13.572
43.7312 13.3474
43.9237 13.2084
44.1162 13.0228
44.3088 12.8142
44.5016 12.6442
44.6945 12.4735
44.8875 12.2758
45.0806 12.1035
45.2739 11.9583
45.4673 11.8397
45.6609 11.6154
45.8546 11.474
46.0484 11.3664
46.2424 11.1607
46.4365 10.9779
46.631 10.7981
46.8254 10.665
47.0199 10.5252
47.2146 10.3196
47.4095 10.1793
47.6044 10.0493
47.7996 9.85842
47.9948 9.73923
48.1902 9.60167
48.3858 9.49396
48.5815 9.38286
48.7774 9.22489
48.9734 9.07986
49.1696 8.97623
49.3661 8.79901
49.5626 8.66084
49.7592 8.55524
49.956 8.43361
50.153 8.32492
50.3501 8.13991
50.5474 8.03894
50.7448 7.95413
50.9424 7.84712
51.1402 7.69208
51.3381 7.54056
51.5362 7.46111
51.7344 7.33293
51.9328 7.18189
52.1316 7.06314
52.3304 6.96627
52.5293 6.84662
52.7284 6.75018
52.9276 6.61278
53.1271 6.53506
53.3267 6.38469
53.5265 6.28553
53.7264 6.12043
53.9266 6.06347
54.1269 5.92163
54.3274 5.81999
54.528 5.61544
54.7289 5.45518
54.9301 5.28126
55.1314 5.10366
55.3328 4.92129
55.5344 4.71929
55.7361 4.58741