File: XRD/Ni3Fe_FD0271.xy
TT I
1.27165 7.68424
1.45013 6.22831
1.62863 5.97272
1.80712 5.07661
1.98562 4.55684
2.16411 4.76969
2.34263 4.41956
2.52115 5.33037
2.69965 7.01709
2.87818 8.44709
3.05672 11.2918
3.23527 15.2691
3.4138 19.1196
3.59237 24.3776
3.77094 26.8013
3.9495 30.1821
4.12809 35.974
4.30669 198.693
4.4853 64.587
4.6639 57.1163
4.84253 69.9698
5.02118 92.6208
5.19981 530.874
5.37848 266.119
5.55716 109.243
5.73586 97.4887
5.91455 103.181
6.09328 3702.04
6.27201 89.5478
6.45075 70.7038
6.62952 65.3527
6.8083 60.9546
6.98711 57.7726
7.16591 57.3034
7.34475 90.313
7.5236 56.6624
7.70247 58.2321
7.88135 60.4777
8.06026 65.2725
8.23919 72.4128
8.41812 89.45
8.59709 1073.0
8.77609 109.445
8.9551 95.1986
9.13412 85.2591
9.31318 86.5669
9.49226 88.1556
9.67134 101.699
9.85047 104.431
10.0296 426.684
10.2088 596.952
10.388 110.659
10.5672 455.739
10.7465 91.8554
10.9257 81.7987
11.105 74.7512
11.2844 73.0086
11.4637 67.4658
11.6431 66.1447
11.8225 64.9324
12.002 66.6106
12.1814 141.891
12.3609 74.9808
12.5405 67.3132
12.72 72.6628
12.8996 73.7024
13.0792 82.4105
13.2589 224.368
13.4386 153.729
13.6183 227.632
13.7981 114.66
13.9779 79.3563
14.1577 75.5707
14.3376 74.2045
14.5175 71.8014
14.6974 73.5327
14.8774 114.606
15.0574 175.206
15.2374 73.8991
15.4175 69.303
15.5976 68.86
15.7778 99.8574
15.958 176.631
16.1382 65.4889
16.3185 61.0637
16.4988 57.773
16.6792 56.8881
16.8596 57.266
17.04 58.2439
17.2205 68.2934
17.401 77.8223
17.5815 61.7526
17.7622 63.863
17.9428 79.4953
18.1237 136.416
18.3044 90.8994
18.4852 85.9211
18.666 63.0493
18.8469 60.4877
19.0278 59.3814
19.2088 62.4877
19.3898 77.3796
19.5709 57.1311
19.752 55.6854
19.9332 59.0947
20.1144 71.742
20.2957 64.9603
20.477 57.2804
20.6586 51.8716
20.84 50.9014
21.0215 50.8176
21.203 52.538
21.3846 51.3499
21.5662 50.7169
21.7479 54.813
21.9297 66.3575
22.1115 57.8455
22.2933 52.5087
22.4753 50.9434
22.6572 51.1045
22.8393 53.7645
23.0214 59.9321
23.2037 51.1379
23.3859 52.1534
23.5682 57.7674
23.7505 51.616
23.9329 47.1723
24.1154 45.9832
24.2979 45.1998
24.4805 44.5829
24.6631 44.5615
24.8458 44.0707
25.0286 44.5815
25.2114 46.3687
25.3943 46.4542
25.5773 42.6444
25.7605 42.1944
25.9436 42.4497
26.1268 43.324
26.31 41.9108
26.4933 42.3065
26.6767 43.7261
26.8601 42.29
27.0437 40.6376
27.2272 40.218
27.4109 39.9469
27.5946 40.0025
27.7784 39.4034
27.9623 39.7706
28.1462 40.5899
28.3304 38.8253
28.5145 37.5051
28.6987 37.0489
28.8829 36.8566
29.0673 36.2277
29.2517 35.719
29.4361 35.5712
29.6207 34.6351
29.8053 34.3632
29.99 33.9359
30.1748 33.8523
30.3597 33.7192
30.5447 33.4395
30.7297 33.4196
30.915 32.9961
31.1002 32.3759
31.2855 32.1377
31.4708 32.1189
31.6563 31.7323
31.8418 31.433
32.0275 31.145
32.2132 30.7014
32.399 30.1781
32.5848 29.7384
32.7708 29.2446
32.9569 29.2518
33.143 29.0213
33.3293 28.5601
33.5158 28.2392
33.7022 27.7419
33.8887 27.4131
34.0753 27.097
34.262 26.7365
34.4488 26.3769
34.6357 26.0526
34.8227 25.7365
35.0098 25.5753
35.1969 25.2562
35.3842 24.9622
35.5716 24.8554
35.759 24.4902
35.9468 24.128
36.1345 23.8158
36.3222 23.6401
36.5101 23.3898
36.6981 23.0774
36.8861 22.671
37.0743 22.4054
37.2626 22.1874
37.451 21.9443
37.6395 21.6707
37.8281 21.3567
38.0168 21.0751
38.2056 20.8143
38.3945 20.5271
38.5837 20.2273
38.7728 20.0343
38.9621 19.8029
39.1514 19.5104
39.3409 19.286
39.5304 18.9855
39.7201 18.7818
39.9099 18.5986
40.0999 18.3435
40.2899 18.1437
40.48 17.8276
40.6703 17.6889
40.8607 17.4124
41.0512 17.2583
41.242 16.8936
41.4327 16.7473
41.6236 16.5197
41.8146 16.3539
42.0057 16.0499
42.1969 15.8747
42.3882 15.6916
42.5797 15.4209
42.7713 15.2618
42.963 15.016
43.1549 14.8537
43.3468 14.624
43.5389 14.4189
43.7312 14.1886
43.9237 14.0197
44.1162 13.7918
44.3088 13.6528
44.5016 13.4493
44.6945 13.2745
44.8875 13.1208
45.0806 12.8486
45.2739 12.6177
45.4673 12.5418
45.6609 12.3448
45.8546 12.192
46.0484 12.0523
46.2424 11.8123
46.4365 11.6735
46.631 11.4705
46.8254 11.3233
47.0199 11.1367
47.2146 10.9836
47.4095 10.8497
47.6044 10.6576
47.7996 10.4954
47.9948 10.3531
48.1902 10.2078
48.3858 10.072
48.5815 9.91303
48.7774 9.75382
48.9734 9.6391
49.1696 9.50522
49.3661 9.32701
49.5626 9.16101
49.7592 9.07993
49.956 8.95858
50.153 8.79598
50.3501 8.63274
50.5474 8.50163
50.7448 8.35382
50.9424 8.2646
51.1402 8.13407
51.3381 7.99071
51.5362 7.84486
51.7344 7.70228
51.9328 7.62521
52.1316 7.44356
52.3304 7.37242
52.5293 7.18926
52.7284 7.14036
52.9276 7.00131
53.1271 6.89652
53.3267 6.76278
53.5265 6.63043
53.7264 6.52149
53.9266 6.46846
54.1269 6.32974
54.3274 6.17721
54.528 6.04405
54.7289 5.88307
54.9301 5.73953
55.1314 5.52591
55.3328 5.33225
55.5344 5.11781
55.7361 4.98922