File: XRD/Ni3Fe_FD0194.xy
TT I
1.27165 8.27815
1.45013 6.71059
1.62863 5.49581
1.80712 5.49352
1.98562 5.12956
2.16411 4.98083
2.34263 4.5819
2.52115 4.93939
2.69965 6.27002
2.87818 7.81652
3.05672 11.3286
3.23527 15.4558
3.4138 19.2651
3.59237 22.8582
3.77094 26.4804
3.9495 29.7347
4.12809 34.5349
4.30669 40.0827
4.4853 48.0432
4.6639 57.6198
4.84253 71.1439
5.02118 96.6039
5.19981 636.466
5.37848 336.587
5.55716 113.367
5.73586 101.386
5.91455 110.602
6.09328 3292.99
6.27201 90.8889
6.45075 70.0808
6.62952 63.3086
6.8083 59.3781
6.98711 56.7978
7.16591 55.885
7.34475 55.3706
7.5236 58.9642
7.70247 57.3573
7.88135 59.594
8.06026 64.5667
8.23919 72.5531
8.41812 89.4484
8.59709 1014.06
8.77609 114.452
8.9551 90.3727
9.13412 86.4161
9.31318 89.401
9.49226 88.7023
9.67134 94.8027
9.85047 105.463
10.0296 562.784
10.2088 724.398
10.388 110.683
10.5672 395.585
10.7465 93.3017
10.9257 80.4186
11.105 74.3845
11.2844 70.2416
11.4637 67.4711
11.6431 65.8469
11.8225 64.9133
12.002 67.6838
12.1814 132.24
12.3609 72.6695
12.5405 66.7739
12.72 69.3372
12.8996 74.1955
13.0792 84.0415
13.2589 222.244
13.4386 169.236
13.6183 214.378
13.7981 126.853
13.9779 80.1292
14.1577 76.721
14.3376 72.8987
14.5175 72.2668
14.6974 73.6819
14.8774 123.652
15.0574 187.97
15.2374 72.4037
15.4175 69.6818
15.5976 68.9799
15.7778 108.576
15.958 178.432
16.1382 64.1359
16.3185 60.0501
16.4988 57.8436
16.6792 56.8066
16.8596 57.177
17.04 58.237
17.2205 68.4353
17.401 79.9791
17.5815 61.9978
17.7622 64.3677
17.9428 85.7389
18.1237 126.982
18.3044 89.6926
18.4852 89.2512
18.666 63.2019
18.8469 60.7121
19.0278 59.3163
19.2088 63.8539
19.3898 73.1476
19.5709 57.4313
19.752 55.6374
19.9332 59.9137
20.1144 70.6824
20.2957 63.3715
20.477 58.2424
20.6586 51.8556
20.84 51.1347
21.0215 50.9242
21.203 52.0526
21.3846 51.9534
21.5662 50.9969
21.7479 55.6845
21.9297 65.1183
22.1115 57.2883
22.2933 52.8317
22.4753 50.8182
22.6572 51.113
22.8393 54.0022
23.0214 59.0056
23.2037 51.2161
23.3859 52.9948
23.5682 56.0555
23.7505 52.4426
23.9329 47.4117
24.1154 46.1589
24.2979 45.3919
24.4805 44.7561
24.6631 44.6768
24.8458 44.2931
25.0286 44.8923
25.2114 46.1628
25.3943 46.173
25.5773 42.9125
25.7605 42.2202
25.9436 42.3727
26.1268 43.1751
26.31 42.2186
26.4933 42.3393
26.6767 43.4807
26.8601 42.2404
27.0437 40.6239
27.2272 40.2154
27.4109 39.8107
27.5946 40.0003
27.7784 39.7073
27.9623 39.6796
28.1462 40.4673
28.3304 38.8726
28.5145 37.554
28.6987 37.0492
28.8829 36.8209
29.0673 36.2984
29.2517 35.753
29.4361 35.5201
29.6207 34.7099
29.8053 34.3093
29.99 33.9588
30.1748 33.6821
30.3597 33.7248
30.5447 33.4579
30.7297 33.3076
30.915 32.9515
31.1002 32.3974
31.2855 32.1835
31.4708 31.9926
31.6563 31.674
31.8418 31.3681
32.0275 31.0781
32.2132 30.5432
32.399 30.1767
32.5848 29.7321
32.7708 29.2454
32.9569 29.1245
33.143 28.9321
33.3293 28.5127
33.5158 28.1446
33.7022 27.6942
33.8887 27.3875
34.0753 27.0821
34.262 26.6259
34.4488 26.3333
34.6357 25.9411
34.8227 25.6827
35.0098 25.5206
35.1969 25.1586
35.3842 24.8806
35.5716 24.7264
35.759 24.4104
35.9468 23.9834
36.1345 23.7778
36.3222 23.5909
36.5101 23.3755
36.6981 23.0294
36.8861 22.6613
37.0743 22.3284
37.2626 22.0691
37.451 21.798
37.6395 21.6639
37.8281 21.2632
38.0168 21.0318
38.2056 20.7562
38.3945 20.4981
38.5837 20.1719
38.7728 20.0256
38.9621 19.7741
39.1514 19.4402
39.3409 19.2025
39.5304 18.9936
39.7201 18.8138
39.9099 18.5779
40.0999 18.3305
40.2899 18.0686
40.48 17.8029
40.6703 17.6066
40.8607 17.4138
41.0512 17.1745
41.242 16.8958
41.4327 16.6737
41.6236 16.4102
41.8146 16.2732
42.0057 16.0099
42.1969 15.7775
42.3882 15.6481
42.5797 15.3619
42.7713 15.2384
42.963 15.0172
43.1549 14.7874
43.3468 14.5222
43.5389 14.3821
43.7312 14.1771
43.9237 13.9829
44.1162 13.7695
44.3088 13.6071
44.5016 13.3374
44.6945 13.1957
44.8875 13.0745
45.0806 12.8418
45.2739 12.6927
45.4673 12.4961
45.6609 12.3323
45.8546 12.1307
46.0484 11.9747
46.2424 11.8103
46.4365 11.6158
46.631 11.4543
46.8254 11.2783
47.0199 11.1214
47.2146 10.9512
47.4095 10.7919
47.6044 10.6084
47.7996 10.439
47.9948 10.3261
48.1902 10.1582
48.3858 10.0129
48.5815 9.88057
48.7774 9.74534
48.9734 9.59236
49.1696 9.45314
49.3661 9.32533
49.5626 9.16272
49.7592 9.0521
49.956 8.91749
50.153 8.74568
50.3501 8.62323
50.5474 8.53885
50.7448 8.35706
50.9424 8.24813
51.1402 8.12356
51.3381 7.96647
51.5362 7.86782
51.7344 7.73531
51.9328 7.59037
52.1316 7.46162
52.3304 7.3124
52.5293 7.22786
52.7284 7.11263
52.9276 7.02348
53.1271 6.8942
53.3267 6.77084
53.5265 6.58121
53.7264 6.51768
53.9266 6.40197
54.1269 6.29092
54.3274 6.16266
54.528 5.99572
54.7289 5.81923
54.9301 5.656
55.1314 5.45837
55.3328 5.25286
55.5344 5.07684
55.7361 4.935