File: XRD/Ni3Fe_FD0883.xy
TT I
1.27165 7.05373
1.45013 5.54681
1.62863 5.43555
1.80712 4.91364
1.98562 5.07508
2.16411 5.11453
2.34263 5.68035
2.52115 6.90341
2.69965 8.41135
2.87818 8.42304
3.05672 11.2535
3.23527 15.3423
3.4138 18.8386
3.59237 24.4813
3.77094 25.9637
3.9495 29.8428
4.12809 34.7578
4.30669 271.221
4.4853 70.0426
4.6639 54.563
4.84253 66.0764
5.02118 84.2389
5.19981 285.526
5.37848 182.216
5.55716 99.3807
5.73586 90.1202
5.91455 90.7785
6.09328 4286.57
6.27201 82.1478
6.45075 66.5536
6.62952 62.4533
6.8083 57.8488
6.98711 55.3331
7.16591 54.8909
7.34475 102.216
7.5236 54.3273
7.70247 55.5626
7.88135 56.9781
8.06026 61.4548
8.23919 68.5999
8.41812 83.5166
8.59709 1072.7
8.77609 97.509
8.9551 92.2731
9.13412 80.5636
9.31318 80.6834
9.49226 83.0666
9.67134 99.3424
9.85047 97.6722
10.0296 288.629
10.2088 418.737
10.388 103.362
10.5672 507.069
10.7465 85.1151
10.9257 77.969
11.105 71.0389
11.2844 70.1846
11.4637 63.9546
11.6431 62.8336
11.8225 61.7236
12.002 62.299
12.1814 147.967
12.3609 71.1542
12.5405 63.7052
12.72 70.175
12.8996 69.5811
13.0792 77.107
13.2589 219.926
13.4386 124.952
13.6183 238.146
13.7981 96.4476
13.9779 74.6097
14.1577 71.4439
14.3376 71.0274
14.5175 67.7894
14.6974 69.0305
14.8774 103.857
15.0574 149.807
15.2374 70.6915
15.4175 65.4578
15.5976 64.7441
15.7778 88.8092
15.958 158.225
16.1382 62.4523
16.3185 58.0385
16.4988 54.659
16.6792 53.7016
16.8596 54.6414
17.04 54.9068
17.2205 64.7814
17.401 70.0059
17.5815 58.2329
17.7622 60.2879
17.9428 70.3778
18.1237 137.795
18.3044 88.2098
18.4852 76.9237
18.666 59.2683
18.8469 57.164
19.0278 56.185
19.2088 58.2935
19.3898 76.5202
19.5709 53.4175
19.752 52.4942
19.9332 55.0816
20.1144 69.3545
20.2957 63.3354
20.477 53.2702
20.6586 48.9599
20.84 48.0051
21.0215 47.973
21.203 50.1274
21.3846 48.3512
21.5662 47.81
21.7479 51.3613
21.9297 63.9856
22.1115 55.6067
22.2933 49.2452
22.4753 48.1653
22.6572 48.0038
22.8393 50.765
23.0214 56.9153
23.2037 48.1666
23.3859 48.6262
23.5682 56.374
23.7505 47.7961
23.9329 44.7222
24.1154 43.6278
24.2979 42.9031
24.4805 42.2938
24.6631 42.2126
24.8458 41.6993
25.0286 42.1548
25.2114 43.9543
25.3943 44.0559
25.5773 40.2346
25.7605 39.9313
25.9436 40.3781
26.1268 41.2293
26.31 39.3608
26.4933 40.1401
26.6767 41.7384
26.8601 39.9433
27.0437 38.2544
27.2272 37.993
27.4109 37.8356
27.5946 37.8459
27.7784 37.3758
27.9623 37.881
28.1462 38.328
28.3304 36.6351
28.5145 35.6166
28.6987 35.179
28.8829 34.9883
29.0673 34.2536
29.2517 33.8237
29.4361 33.683
29.6207 32.5966
29.8053 32.4105
29.99 32.1319
30.1748 32.0526
30.3597 31.7853
30.5447 31.7643
30.7297 31.8061
30.915 31.189
31.1002 30.6771
31.2855 30.4357
31.4708 30.4492
31.6563 29.9779
31.8418 29.7528
32.0275 29.5262
32.2132 28.9941
32.399 28.5539
32.5848 28.1651
32.7708 27.7902
32.9569 27.6574
33.143 27.4391
33.3293 27.069
33.5158 26.6266
33.7022 26.2279
33.8887 26.0287
34.0753 25.6911
34.262 25.3161
34.4488 25.0202
34.6357 24.6659
34.8227 24.3831
35.0098 24.2226
35.1969 23.8576
35.3842 23.6309
35.5716 23.4929
35.759 23.2089
35.9468 22.7956
36.1345 22.7125
36.3222 22.4115
36.5101 22.0955
36.6981 21.8747
36.8861 21.5216
37.0743 21.298
37.2626 20.9979
37.451 20.7517
37.6395 20.5626
37.8281 20.2829
38.0168 19.9608
38.2056 19.7397
38.3945 19.4296
38.5837 19.2175
38.7728 19.0234
38.9621 18.6742
39.1514 18.5015
39.3409 18.2435
39.5304 18.0569
39.7201 17.7982
39.9099 17.6595
40.0999 17.3435
40.2899 17.1109
40.48 16.9407
40.6703 16.7597
40.8607 16.544
41.0512 16.3141
41.242 16.02
41.4327 15.8371
41.6236 15.6887
41.8146 15.5046
42.0057 15.2451
42.1969 15.0449
42.3882 14.8931
42.5797 14.6251
42.7713 14.4569
42.963 14.2382
43.1549 14.0585
43.3468 13.7812
43.5389 13.7289
43.7312 13.4952
43.9237 13.2514
44.1162 13.1257
44.3088 12.922
44.5016 12.7935
44.6945 12.5933
44.8875 12.3844
45.0806 12.2173
45.2739 12.1004
45.4673 11.893
45.6609 11.7255
45.8546 11.5738
46.0484 11.3937
46.2424 11.2439
46.4365 11.1045
46.631 10.8956
46.8254 10.7472
47.0199 10.5808
47.2146 10.4763
47.4095 10.2809
47.6044 10.1457
47.7996 9.96311
47.9948 9.8306
48.1902 9.71818
48.3858 9.57178
48.5815 9.44816
48.7774 9.28728
48.9734 9.15584
49.1696 9.01889
49.3661 8.87343
49.5626 8.74243
49.7592 8.59645
49.956 8.47025
50.153 8.33564
50.3501 8.19058
50.5474 8.10649
50.7448 7.96175
50.9424 7.84932
51.1402 7.7314
51.3381 7.58127
51.5362 7.47404
51.7344 7.36101
51.9328 7.20622
52.1316 7.11997
52.3304 7.01966
52.5293 6.86651
52.7284 6.77113
52.9276 6.65419
53.1271 6.55333
53.3267 6.41944
53.5265 6.33981
53.7264 6.22411
53.9266 6.05501
54.1269 5.96633
54.3274 5.8488
54.528 5.72737
54.7289 5.52767
54.9301 5.43485
55.1314 5.30198
55.3328 5.0912
55.5344 4.91844
55.7361 4.76728