File: XRD/Ni3Fe_FD0559.xy
TT I
1.27165 7.49867
1.45013 5.36644
1.62863 5.14791
1.80712 4.56834
1.98562 4.75963
2.16411 4.90857
2.34263 5.15718
2.52115 6.3062
2.69965 8.11987
2.87818 8.17826
3.05672 11.325
3.23527 14.7521
3.4138 18.8527
3.59237 23.6354
3.77094 26.0533
3.9495 29.5799
4.12809 34.8296
4.30669 156.797
4.4853 59.5593
4.6639 56.0669
4.84253 68.1494
5.02118 88.1994
5.19981 424.963
5.37848 196.459
5.55716 102.981
5.73586 93.4549
5.91455 96.7476
6.09328 4456.02
6.27201 82.822
6.45075 67.847
6.62952 62.4884
6.8083 58.7669
6.98711 55.9829
7.16591 55.2243
7.34475 80.3614
7.5236 54.7551
7.70247 56.1866
7.88135 58.0878
8.06026 62.7163
8.23919 69.7868
8.41812 85.9163
8.59709 1224.66
8.77609 99.7189
8.9551 89.961
9.13412 82.838
9.31318 83.2378
9.49226 85.5701
9.67134 96.6341
9.85047 100.548
10.0296 376.282
10.2088 380.878
10.388 105.851
10.5672 516.797
10.7465 86.9991
10.9257 78.3435
11.105 72.0506
11.2844 69.7845
11.4637 65.1726
11.6431 63.7986
11.8225 62.8337
12.002 64.3419
12.1814 155.401
12.3609 69.2056
12.5405 65.0273
12.72 69.3605
12.8996 71.5904
13.0792 80.3647
13.2589 248.373
13.4386 122.223
13.6183 253.818
13.7981 96.3751
13.9779 76.461
14.1577 72.6531
14.3376 71.4421
14.5175 69.113
14.6974 71.0987
14.8774 115.022
15.0574 144.167
15.2374 70.5995
15.4175 66.8048
15.5976 66.4917
15.7778 98.3947
15.958 153.396
16.1382 62.2589
16.3185 58.6707
16.4988 55.6767
16.6792 54.672
16.8596 55.634
17.04 56.5005
17.2205 67.8758
17.401 71.1116
17.5815 59.5892
17.7622 61.757
17.9428 75.149
18.1237 141.304
18.3044 91.5893
18.4852 76.8801
18.666 60.6177
18.8469 58.5041
19.0278 57.1798
19.2088 60.0526
19.3898 76.3505
19.5709 54.4027
19.752 53.5645
19.9332 56.7287
20.1144 70.3906
20.2957 64.3883
20.477 53.5487
20.6586 49.8968
20.84 49.1037
21.0215 49.0269
21.203 51.1069
21.3846 49.1911
21.5662 49.237
21.7479 53.2601
21.9297 65.3018
22.1115 56.2787
22.2933 50.1482
22.4753 49.0377
22.6572 49.3232
22.8393 52.5155
23.0214 57.5272
23.2037 49.0517
23.3859 50.3579
23.5682 57.4789
23.7505 48.3333
23.9329 45.6261
24.1154 44.3504
24.2979 43.6954
24.4805 43.3342
24.6631 43.1314
24.8458 42.5067
25.0286 43.158
25.2114 44.9767
25.3943 44.7984
25.5773 41.2361
25.7605 40.8351
25.9436 41.0732
26.1268 42.0123
26.31 40.4044
26.4933 41.1162
26.6767 42.4748
26.8601 40.6995
27.0437 39.2233
27.2272 38.8581
27.4109 38.7087
27.5946 38.5956
27.7784 38.0941
27.9623 38.7021
28.1462 39.0352
28.3304 37.3745
28.5145 36.1165
28.6987 35.763
28.8829 35.6064
29.0673 34.8991
29.2517 34.592
29.4361 34.5
29.6207 33.4314
29.8053 33.1865
29.99 32.8514
30.1748 32.7209
30.3597 32.4026
30.5447 32.3917
30.7297 32.4208
30.915 31.7984
31.1002 31.3396
31.2855 31.0394
31.4708 31.0945
31.6563 30.5925
31.8418 30.5289
32.0275 30.1263
32.2132 29.5236
32.399 28.9967
32.5848 28.6011
32.7708 28.3417
32.9569 28.1039
33.143 27.9887
33.3293 27.489
33.5158 27.2941
33.7022 26.7688
33.8887 26.5117
34.0753 26.1298
34.262 25.7986
34.4488 25.4492
34.6357 25.1468
34.8227 24.7952
35.0098 24.6484
35.1969 24.3066
35.3842 24.1213
35.5716 23.9261
35.759 23.6529
35.9468 23.2974
36.1345 23.0492
36.3222 22.8026
36.5101 22.5068
36.6981 22.1782
36.8861 21.943
37.0743 21.6193
37.2626 21.468
37.451 21.1224
37.6395 20.9629
37.8281 20.5839
38.0168 20.3319
38.2056 20.0696
38.3945 19.82
38.5837 19.5698
38.7728 19.3237
38.9621 19.0532
39.1514 18.8523
39.3409 18.5742
39.5304 18.3217
39.7201 18.1757
39.9099 17.9506
40.0999 17.7092
40.2899 17.5042
40.48 17.2558
40.6703 17.0307
40.8607 16.8399
41.0512 16.6613
41.242 16.3098
41.4327 16.1714
41.6236 15.9604
41.8146 15.7557
42.0057 15.501
42.1969 15.2794
42.3882 15.1654
42.5797 14.8921
42.7713 14.7404
42.963 14.4713
43.1549 14.3564
43.3468 14.1324
43.5389 13.9097
43.7312 13.7071
43.9237 13.5499
44.1162 13.3135
44.3088 13.1799
44.5016 12.9514
44.6945 12.8211
44.8875 12.6228
45.0806 12.4299
45.2739 12.2942
45.4673 12.1076
45.6609 11.9222
45.8546 11.7393
46.0484 11.5994
46.2424 11.4147
46.4365 11.3076
46.631 11.0882
46.8254 10.9129
47.0199 10.7537
47.2146 10.6328
47.4095 10.4623
47.6044 10.2537
47.7996 10.1403
47.9948 9.98496
48.1902 9.85189
48.3858 9.69998
48.5815 9.59409
48.7774 9.46344
48.9734 9.29611
49.1696 9.15878
49.3661 9.02179
49.5626 8.83821
49.7592 8.75046
49.956 8.621
50.153 8.47165
50.3501 8.3158
50.5474 8.25277
50.7448 8.07662
50.9424 7.95588
51.1402 7.8315
51.3381 7.69812
51.5362 7.59343
51.7344 7.4478
51.9328 7.31842
52.1316 7.21074
52.3304 7.12257
52.5293 6.96673
52.7284 6.84738
52.9276 6.78753
53.1271 6.63618
53.3267 6.5549
53.5265 6.40815
53.7264 6.30706
53.9266 6.22616
54.1269 6.10322
54.3274 5.92842
54.528 5.82256
54.7289 5.65767
54.9301 5.45189
55.1314 5.40913
55.3328 5.18631
55.5344 4.98222
55.7361 4.82148