File: XRD/Ni3Fe_FD1020.xy
TT I
1.27165 6.89653
1.45013 5.62734
1.62863 4.91641
1.80712 4.35458
1.98562 4.69522
2.16411 4.58039
2.34263 5.59377
2.52115 7.41922
2.69965 8.64398
2.87818 9.01155
3.05672 10.9593
3.23527 14.7217
3.4138 17.8847
3.59237 21.5821
3.77094 24.5723
3.9495 27.8834
4.12809 31.7912
4.30669 58.0941
4.4853 45.8398
4.6639 52.7605
4.84253 63.1863
5.02118 81.9697
5.19981 227.034
5.37848 233.946
5.55716 96.7574
5.73586 87.3725
5.91455 88.0194
6.09328 4334.56
6.27201 75.5602
6.45075 63.1852
6.62952 57.6131
6.8083 54.1224
6.98711 51.8408
7.16591 51.223
7.34475 56.3131
7.5236 61.9332
7.70247 52.5816
7.88135 54.698
8.06026 58.3643
8.23919 65.3557
8.41812 77.1054
8.59709 1054.7
8.77609 94.9746
8.9551 81.8761
9.13412 78.4685
9.31318 94.0267
9.49226 80.2868
9.67134 85.7845
9.85047 92.7288
10.0296 322.021
10.2088 450.936
10.388 96.8437
10.5672 490.62
10.7465 87.4419
10.9257 72.6327
11.105 67.4553
11.2844 64.2564
11.4637 61.1984
11.6431 59.8029
11.8225 59.3446
12.002 68.6917
12.1814 142.955
12.3609 63.8327
12.5405 60.8595
12.72 63.1264
12.8996 66.9466
13.0792 76.1811
13.2589 219.431
13.4386 126.751
13.6183 229.546
13.7981 99.5585
13.9779 72.7039
14.1577 77.4315
14.3376 66.6293
14.5175 65.6228
14.6974 66.7017
14.8774 105.495
15.0574 157.78
15.2374 65.7925
15.4175 63.2808
15.5976 62.7247
15.7778 90.6023
15.958 167.796
16.1382 59.7699
16.3185 55.1661
16.4988 52.9963
16.6792 52.089
16.8596 52.4489
17.04 53.2416
17.2205 63.4658
17.401 70.8411
17.5815 56.5541
17.7622 59.7223
17.9428 71.1683
18.1237 140.545
18.3044 87.3213
18.4852 78.3715
18.666 58.3331
18.8469 55.984
19.0278 54.4212
19.2088 56.9855
19.3898 75.8677
19.5709 52.3606
19.752 51.2344
19.9332 54.163
20.1144 69.6276
20.2957 62.5225
20.477 52.464
20.6586 47.7161
20.84 47.6357
21.0215 46.8197
21.203 48.9055
21.3846 47.4872
21.5662 47.0644
21.7479 50.911
21.9297 64.7479
22.1115 55.4105
22.2933 48.476
22.4753 47.0122
22.6572 47.0812
22.8393 50.3207
23.0214 57.008
23.2037 47.3334
23.3859 48.6736
23.5682 56.5583
23.7505 47.8388
23.9329 43.6538
24.1154 42.7648
24.2979 42.0753
24.4805 41.6098
24.6631 41.6352
24.8458 40.7886
25.0286 41.5247
25.2114 43.7693
25.3943 43.9653
25.5773 39.6184
25.7605 39.2457
25.9436 39.6886
26.1268 40.9299
26.31 38.9605
26.4933 39.5795
26.6767 41.5272
26.8601 39.6307
27.0437 37.8869
27.2272 37.3295
27.4109 37.2515
27.5946 37.5096
27.7784 36.947
27.9623 37.4447
28.1462 38.2813
28.3304 36.4146
28.5145 35.0041
28.6987 34.6384
28.8829 34.4578
29.0673 33.8341
29.2517 33.4101
29.4361 33.4004
29.6207 32.2708
29.8053 31.8401
29.99 31.6693
30.1748 31.5758
30.3597 31.3792
30.5447 31.2777
30.7297 31.4396
30.915 30.8223
31.1002 30.4004
31.2855 29.9955
31.4708 30.1849
31.6563 29.6544
31.8418 29.3909
32.0275 29.3158
32.2132 28.6201
32.399 28.2105
32.5848 27.8232
32.7708 27.5169
32.9569 27.2706
33.143 27.1382
33.3293 26.766
33.5158 26.3244
33.7022 25.9028
33.8887 25.6561
34.0753 25.2633
34.262 25.0159
34.4488 24.7005
34.6357 24.3189
34.8227 24.0576
35.0098 23.8033
35.1969 23.5931
35.3842 23.4884
35.5716 23.2094
35.759 22.8592
35.9468 22.454
36.1345 22.3948
36.3222 22.0368
36.5101 21.8582
36.6981 21.5824
36.8861 21.256
37.0743 20.9607
37.2626 20.7109
37.451 20.4701
37.6395 20.3389
37.8281 20.0081
38.0168 19.7068
38.2056 19.4063
38.3945 19.1477
38.5837 18.9369
38.7728 18.709
38.9621 18.4565
39.1514 18.2454
39.3409 18.0238
39.5304 17.7897
39.7201 17.6044
39.9099 17.412
40.0999 17.0684
40.2899 16.9372
40.48 16.6655
40.6703 16.5083
40.8607 16.2731
41.0512 16.1045
41.242 15.8197
41.4327 15.661
41.6236 15.4348
41.8146 15.2685
42.0057 15.0412
42.1969 14.8122
42.3882 14.6574
42.5797 14.4237
42.7713 14.2612
42.963 14.0038
43.1549 13.8733
43.3468 13.6394
43.5389 13.5314
43.7312 13.2703
43.9237 13.1319
44.1162 12.9154
44.3088 12.7482
44.5016 12.5411
44.6945 12.4358
44.8875 12.2097
45.0806 12.0395
45.2739 11.8962
45.4673 11.6594
45.6609 11.5728
45.8546 11.4338
46.0484 11.255
46.2424 11.0905
46.4365 10.9811
46.631 10.734
46.8254 10.5799
47.0199 10.437
47.2146 10.284
47.4095 10.095
47.6044 9.98775
47.7996 9.86246
47.9948 9.70076
48.1902 9.55405
48.3858 9.4431
48.5815 9.27818
48.7774 9.1835
48.9734 9.01932
49.1696 8.85434
49.3661 8.75492
49.5626 8.59744
49.7592 8.44239
49.956 8.3449
50.153 8.18611
50.3501 8.07636
50.5474 7.97592
50.7448 7.85411
50.9424 7.73964
51.1402 7.61582
51.3381 7.46139
51.5362 7.33862
51.7344 7.23213
51.9328 7.12112
52.1316 6.98982
52.3304 6.87272
52.5293 6.78641
52.7284 6.68949
52.9276 6.57474
53.1271 6.44557
53.3267 6.31185
53.5265 6.24494
53.7264 6.09658
53.9266 5.99641
54.1269 5.91632
54.3274 5.81007
54.528 5.62295
54.7289 5.49832
54.9301 5.33033
55.1314 5.21413
55.3328 5.0042
55.5344 4.8719
55.7361 4.73616