File: XRD/Ni3Fe_FD0283.xy
TT I
1.27165 7.84418
1.45013 6.96012
1.62863 5.20662
1.80712 5.54351
1.98562 4.42418
2.16411 4.61069
2.34263 5.07838
2.52115 4.67856
2.69965 6.95709
2.87818 8.25188
3.05672 10.8825
3.23527 15.2668
3.4138 19.4429
3.59237 24.9647
3.77094 27.4951
3.9495 30.6545
4.12809 35.8864
4.30669 250.072
4.4853 69.5047
4.6639 57.7174
4.84253 69.1131
5.02118 91.4155
5.19981 510.212
5.37848 261.45
5.55716 108.125
5.73586 96.9866
5.91455 101.265
6.09328 3685.06
6.27201 90.7602
6.45075 70.5991
6.62952 65.3928
6.8083 61.0277
6.98711 58.3568
7.16591 57.3299
7.34475 101.385
7.5236 56.6966
7.70247 58.3485
7.88135 59.7397
8.06026 64.5677
8.23919 72.2618
8.41812 89.7386
8.59709 1038.27
8.77609 109.216
8.9551 96.3495
9.13412 85.2147
9.31318 86.2584
9.49226 87.9671
9.67134 103.918
9.85047 104.62
10.0296 401.804
10.2088 599.028
10.388 110.944
10.5672 452.876
10.7465 91.2594
10.9257 81.9458
11.105 74.8179
11.2844 73.639
11.4637 67.4313
11.6431 66.2251
11.8225 64.83
12.002 66.1368
12.1814 139.94
12.3609 76.0677
12.5405 67.1895
12.72 73.8101
12.8996 73.9898
13.0792 82.1563
13.2589 218.23
13.4386 151.711
13.6183 221.303
13.7981 113.446
13.9779 78.551
14.1577 75.3929
14.3376 74.7067
14.5175 71.5837
14.6974 73.3753
14.8774 111.922
15.0574 174.996
15.2374 74.4156
15.4175 68.9862
15.5976 68.4835
15.7778 97.105
15.958 176.149
16.1382 65.8025
16.3185 61.1914
16.4988 57.7267
16.6792 56.6671
16.8596 57.5935
17.04 58.0589
17.2205 67.6169
17.401 77.8811
17.5815 61.642
17.7622 63.7061
17.9428 78.524
18.1237 137.378
18.3044 89.618
18.4852 85.7801
18.666 63.095
18.8469 60.4306
19.0278 59.3028
19.2088 62.315
19.3898 77.898
19.5709 56.8622
19.752 55.6786
19.9332 58.5806
20.1144 71.7185
20.2957 64.3676
20.477 57.0693
20.6586 51.7876
20.84 50.8879
21.0215 50.7262
21.203 52.3949
21.3846 51.4471
21.5662 50.8062
21.7479 54.5859
21.9297 66.5908
22.1115 57.834
22.2933 52.6263
22.4753 50.7611
22.6572 50.8287
22.8393 53.555
23.0214 60.0283
23.2037 50.8345
23.3859 51.7013
23.5682 57.707
23.7505 51.2744
23.9329 47.0769
24.1154 46.0509
24.2979 45.1488
24.4805 44.6319
24.6631 44.4751
24.8458 44.1177
25.0286 44.5469
25.2114 46.202
25.3943 46.4497
25.5773 42.6685
25.7605 42.0674
25.9436 42.3853
26.1268 43.2323
26.31 41.8184
26.4933 42.2589
26.6767 43.6002
26.8601 42.1581
27.0437 40.4059
27.2272 40.1397
27.4109 39.8715
27.5946 40.06
27.7784 39.3676
27.9623 39.6815
28.1462 40.5199
28.3304 38.677
28.5145 37.3897
28.6987 37.0534
28.8829 36.8629
29.0673 36.1524
29.2517 35.6157
29.4361 35.5182
29.6207 34.5083
29.8053 34.2628
29.99 33.785
30.1748 33.7335
30.3597 33.5634
30.5447 33.4582
30.7297 33.4175
30.915 32.8974
31.1002 32.3942
31.2855 32.0445
31.4708 31.9978
31.6563 31.6409
31.8418 31.3292
32.0275 31.0703
32.2132 30.59
32.399 30.1356
32.5848 29.5503
32.7708 29.247
32.9569 29.1673
33.143 28.8779
33.3293 28.5236
33.5158 28.1705
33.7022 27.5903
33.8887 27.3306
34.0753 27.0551
34.262 26.6979
34.4488 26.3329
34.6357 26.034
34.8227 25.6983
35.0098 25.4532
35.1969 25.1166
35.3842 24.9185
35.5716 24.707
35.759 24.4794
35.9468 23.9841
36.1345 23.8643
36.3222 23.6277
36.5101 23.2966
36.6981 23.0221
36.8861 22.6896
37.0743 22.3538
37.2626 22.1362
37.451 21.8625
37.6395 21.7696
37.8281 21.3467
38.0168 21.0091
38.2056 20.8283
38.3945 20.4737
38.5837 20.2035
38.7728 19.9798
38.9621 19.7059
39.1514 19.5114
39.3409 19.204
39.5304 18.9516
39.7201 18.7995
39.9099 18.5362
40.0999 18.3144
40.2899 18.0637
40.48 17.9138
40.6703 17.5835
40.8607 17.3765
41.0512 17.1917
41.242 16.9947
41.4327 16.6833
41.6236 16.4888
41.8146 16.2566
42.0057 16.0398
42.1969 15.7981
42.3882 15.6752
42.5797 15.4343
42.7713 15.2721
42.963 15.0097
43.1549 14.7966
43.3468 14.5557
43.5389 14.3863
43.7312 14.2203
43.9237 14.037
44.1162 13.7426
44.3088 13.6289
44.5016 13.3982
44.6945 13.2402
44.8875 13.0622
45.0806 12.8928
45.2739 12.6832
45.4673 12.4952
45.6609 12.3202
45.8546 12.1332
46.0484 11.9471
46.2424 11.7865
46.4365 11.6723
46.631 11.4772
46.8254 11.2609
47.0199 11.1304
47.2146 10.9426
47.4095 10.7986
47.6044 10.6273
47.7996 10.4958
47.9948 10.2901
48.1902 10.1629
48.3858 10.0548
48.5815 9.90441
48.7774 9.77677
48.9734 9.61108
49.1696 9.47923
49.3661 9.33183
49.5626 9.15157
49.7592 9.04317
49.956 8.94838
50.153 8.74635
50.3501 8.60338
50.5474 8.48806
50.7448 8.40936
50.9424 8.26642
51.1402 8.10753
51.3381 7.96691
51.5362 7.87952
51.7344 7.72748
51.9328 7.54576
52.1316 7.49235
52.3304 7.33893
52.5293 7.25669
52.7284 7.13394
52.9276 6.99462
53.1271 6.88474
53.3267 6.75375
53.5265 6.62482
53.7264 6.50206
53.9266 6.38783
54.1269 6.27558
54.3274 6.16296
54.528 6.00079
54.7289 5.83817
54.9301 5.73892
55.1314 5.51962
55.3328 5.36797
55.5344 5.16795
55.7361 5.00182