File: XRD/Ni3Fe_FD0653.xy
TT I
1.27165 7.08606
1.45013 6.81064
1.62863 4.80089
1.80712 5.12974
1.98562 5.16917
2.16411 5.02056
2.34263 5.4012
2.52115 7.40933
2.69965 8.27197
2.87818 8.34145
3.05672 11.0745
3.23527 14.9678
3.4138 19.1162
3.59237 24.6068
3.77094 26.6074
3.9495 30.0747
4.12809 35.5879
4.30669 289.357
4.4853 72.862
4.6639 55.4126
4.84253 66.9653
5.02118 86.2066
5.19981 328.999
5.37848 196.789
5.55716 102.472
5.73586 92.0126
5.91455 93.31
6.09328 4268.05
6.27201 84.622
6.45075 67.7212
6.62952 63.778
6.8083 59.3857
6.98711 56.4917
7.16591 56.1601
7.34475 107.4
7.5236 55.5771
7.70247 56.5738
7.88135 58.1903
8.06026 62.3835
8.23919 69.54
8.41812 85.8552
8.59709 1075.53
8.77609 100.404
8.9551 94.1157
9.13412 81.7032
9.31318 82.4927
9.49226 84.3078
9.67134 101.791
9.85047 100.067
10.0296 315.974
10.2088 452.425
10.388 105.316
10.5672 485.251
10.7465 87.1563
10.9257 78.9454
11.105 72.1067
11.2844 71.9066
11.4637 65.4146
11.6431 64.2046
11.8225 62.6251
12.002 63.7483
12.1814 146.076
12.3609 73.3066
12.5405 64.634
12.72 71.6208
12.8996 70.9056
13.0792 78.7103
13.2589 223.722
13.4386 130.955
13.6183 232.713
13.7981 100.358
13.9779 76.1522
14.1577 73.161
14.3376 72.73
14.5175 68.9307
14.6974 70.76
14.8774 105.914
15.0574 155.927
15.2374 72.2175
15.4175 66.6088
15.5976 65.626
15.7778 91.9191
15.958 164.685
16.1382 63.6816
16.3185 59.27
16.4988 55.8369
16.6792 54.5411
16.8596 55.6229
17.04 55.8271
17.2205 65.8714
17.401 72.7216
17.5815 59.3898
17.7622 61.1352
17.9428 72.6419
18.1237 138.66
18.3044 88.9895
18.4852 79.8423
18.666 60.6017
18.8469 58.279
19.0278 57.2564
19.2088 59.6155
19.3898 77.3251
19.5709 54.5142
19.752 53.4455
19.9332 56.176
20.1144 69.785
20.2957 63.5056
20.477 54.2914
20.6586 49.8599
20.84 48.9696
21.0215 48.5754
21.203 50.6836
21.3846 49.1384
21.5662 48.8176
21.7479 52.3702
21.9297 64.6366
22.1115 56.3
22.2933 50.3551
22.4753 49.1827
22.6572 48.9129
22.8393 51.7326
23.0214 58.0481
23.2037 48.949
23.3859 49.4708
23.5682 56.6419
23.7505 48.852
23.9329 45.498
24.1154 44.2952
24.2979 43.5523
24.4805 43.1099
24.6631 43.0842
24.8458 42.3994
25.0286 42.7936
25.2114 44.7448
25.3943 44.8363
25.5773 41.0827
25.7605 40.5909
25.9436 40.8883
26.1268 41.7797
26.31 40.2672
26.4933 40.7799
26.6767 42.3658
26.8601 40.6073
27.0437 39.1796
27.2272 38.6824
27.4109 38.3853
27.5946 38.5847
27.7784 37.9452
27.9623 38.5368
28.1462 39.004
28.3304 37.4716
28.5145 36.1305
28.6987 35.6853
28.8829 35.5959
29.0673 34.8954
29.2517 34.6267
29.4361 34.2609
29.6207 33.287
29.8053 33.1017
29.99 32.8093
30.1748 32.6301
30.3597 32.4131
30.5447 32.288
30.7297 32.4248
30.915 31.7601
31.1002 31.3261
31.2855 30.9513
31.4708 30.9678
31.6563 30.4923
31.8418 30.2872
32.0275 30.0376
32.2132 29.5425
32.399 29.037
32.5848 28.5872
32.7708 28.2096
32.9569 28.1974
33.143 27.9049
33.3293 27.5776
33.5158 27.1929
33.7022 26.7882
33.8887 26.4614
34.0753 26.143
34.262 25.7302
34.4488 25.3665
34.6357 25.0598
34.8227 24.8276
35.0098 24.5597
35.1969 24.2818
35.3842 24.0607
35.5716 23.9575
35.759 23.6274
35.9468 23.2046
36.1345 23.0211
36.3222 22.7588
36.5101 22.4489
36.6981 22.2141
36.8861 21.8807
37.0743 21.5823
37.2626 21.3562
37.451 21.0972
37.6395 20.9442
37.8281 20.6096
38.0168 20.3929
38.2056 20.0795
38.3945 19.6922
38.5837 19.5855
38.7728 19.2812
38.9621 19.0495
39.1514 18.8261
39.3409 18.5478
39.5304 18.2985
39.7201 18.1253
39.9099 17.8807
40.0999 17.6321
40.2899 17.474
40.48 17.2132
40.6703 16.9942
40.8607 16.8246
41.0512 16.5972
41.242 16.3674
41.4327 16.1407
41.6236 15.9438
41.8146 15.7283
42.0057 15.5148
42.1969 15.2667
42.3882 15.1078
42.5797 14.8936
42.7713 14.6805
42.963 14.4849
43.1549 14.2867
43.3468 14.072
43.5389 13.9209
43.7312 13.675
43.9237 13.5073
44.1162 13.3609
44.3088 13.1459
44.5016 12.9749
44.6945 12.8453
44.8875 12.5576
45.0806 12.373
45.2739 12.2851
45.4673 12.091
45.6609 11.8824
45.8546 11.7347
46.0484 11.5475
46.2424 11.4141
46.4365 11.3213
46.631 11.1203
46.8254 10.9186
47.0199 10.7648
47.2146 10.6132
47.4095 10.4354
47.6044 10.3197
47.7996 10.1306
47.9948 9.992
48.1902 9.85601
48.3858 9.72407
48.5815 9.59499
48.7774 9.4446
48.9734 9.32038
49.1696 9.16343
49.3661 8.99805
49.5626 8.87632
49.7592 8.74785
49.956 8.59114
50.153 8.48392
50.3501 8.30636
50.5474 8.19755
50.7448 8.1222
50.9424 7.93606
51.1402 7.82973
51.3381 7.72686
51.5362 7.60589
51.7344 7.46415
51.9328 7.34241
52.1316 7.18681
52.3304 7.12527
52.5293 6.95618
52.7284 6.87033
52.9276 6.77596
53.1271 6.67964
53.3267 6.56278
53.5265 6.38779
53.7264 6.30709
53.9266 6.18981
54.1269 6.06525
54.3274 5.96559
54.528 5.82092
54.7289 5.67251
54.9301 5.56038
55.1314 5.39828
55.3328 5.1021
55.5344 5.00069
55.7361 4.86558