File: XRD/Ni3Fe_FD1053.xy
TT I
1.27165 6.68358
1.45013 5.57038
1.62863 4.70372
1.80712 4.7407
1.98562 4.03422
2.16411 4.02681
2.34263 4.89212
2.52115 6.65466
2.69965 8.51776
2.87818 8.51692
3.05672 11.4103
3.23527 15.0088
3.4138 18.3431
3.59237 21.4772
3.77094 24.6366
3.9495 28.2233
4.12809 32.7411
4.30669 56.2325
4.4853 46.6024
4.6639 52.8596
4.84253 64.1449
5.02118 83.1724
5.19981 232.848
5.37848 211.561
5.55716 97.3515
5.73586 87.9837
5.91455 88.5615
6.09328 4566.45
6.27201 75.7107
6.45075 63.6434
6.62952 57.7124
6.8083 54.4265
6.98711 52.288
7.16591 51.4779
7.34475 56.1506
7.5236 59.0648
7.70247 53.1511
7.88135 54.9864
8.06026 58.8368
8.23919 65.7905
8.41812 77.9665
8.59709 1088.52
8.77609 94.8382
8.9551 82.0166
9.13412 79.237
9.31318 89.3152
9.49226 80.9483
9.67134 86.4307
9.85047 94.081
10.0296 350.6
10.2088 440.189
10.388 97.5142
10.5672 505.32
10.7465 86.5994
10.9257 73.4778
11.105 68.3126
11.2844 64.9512
11.4637 62.0345
11.6431 60.5819
11.8225 59.5736
12.002 66.585
12.1814 146.659
12.3609 64.8623
12.5405 61.4797
12.72 64.0083
12.8996 68.1125
13.0792 76.4409
13.2589 228.877
13.4386 127.631
13.6183 237.201
13.7981 100.588
13.9779 73.5994
14.1577 75.6432
14.3376 67.3536
14.5175 66.3508
14.6974 67.3898
14.8774 110.125
15.0574 160.742
15.2374 66.6952
15.4175 64.0082
15.5976 63.5709
15.7778 94.5162
15.958 168.911
16.1382 59.9333
16.3185 55.6913
16.4988 53.506
16.6792 52.6914
16.8596 52.9831
17.04 53.8488
17.2205 64.9517
17.401 71.9275
17.5815 57.4503
17.7622 60.0424
17.9428 73.1598
18.1237 141.849
18.3044 89.0765
18.4852 79.0755
18.666 58.8396
18.8469 56.588
19.0278 55.2026
19.2088 58.2391
19.3898 76.0852
19.5709 52.8678
19.752 51.7662
19.9332 55.1935
20.1144 70.5646
20.2957 63.6866
20.477 52.7924
20.6586 48.4459
20.84 48.0052
21.0215 47.4227
21.203 49.7292
21.3846 48.0039
21.5662 47.5548
21.7479 51.8463
21.9297 65.4566
22.1115 55.9495
22.2933 48.9361
22.4753 47.6676
22.6572 47.7742
22.8393 51.1921
23.0214 57.6449
23.2037 47.78
23.3859 49.2944
23.5682 57.2467
23.7505 48.0638
23.9329 44.321
24.1154 43.1012
24.2979 42.358
24.4805 41.9097
24.6631 42.0548
24.8458 41.2522
25.0286 41.9574
25.2114 44.2818
25.3943 44.3549
25.5773 40.1923
25.7605 39.6636
25.9436 40.146
26.1268 41.2842
26.31 39.4315
26.4933 40.1131
26.6767 41.8066
26.8601 40.1093
27.0437 38.2819
27.2272 37.8731
27.4109 37.8039
27.5946 37.9623
27.7784 37.2732
27.9623 37.9065
28.1462 38.6725
28.3304 36.7635
28.5145 35.3281
28.6987 35.0683
28.8829 34.8373
29.0673 34.2568
29.2517 33.7866
29.4361 33.6702
29.6207 32.6068
29.8053 32.2722
29.99 32.1186
30.1748 31.8753
30.3597 31.8176
30.5447 31.7394
30.7297 31.7724
30.915 31.2199
31.1002 30.6494
31.2855 30.4015
31.4708 30.4368
31.6563 29.9915
31.8418 29.8063
32.0275 29.5811
32.2132 28.9521
32.399 28.5359
32.5848 28.0963
32.7708 27.6445
32.9569 27.5788
33.143 27.3912
33.3293 26.9698
33.5158 26.7063
33.7022 26.2057
33.8887 25.927
34.0753 25.656
34.262 25.2386
34.4488 24.9564
34.6357 24.5943
34.8227 24.2824
35.0098 24.134
35.1969 23.8171
35.3842 23.6682
35.5716 23.4454
35.759 23.1284
35.9468 22.7957
36.1345 22.5555
36.3222 22.3006
36.5101 22.0952
36.6981 21.8577
36.8861 21.5425
37.0743 21.1991
37.2626 20.9415
37.451 20.6945
37.6395 20.5016
37.8281 20.2248
38.0168 19.9055
38.2056 19.6575
38.3945 19.4835
38.5837 19.1953
38.7728 18.9334
38.9621 18.7044
39.1514 18.3791
39.3409 18.2185
39.5304 17.9913
39.7201 17.8252
39.9099 17.5999
40.0999 17.2892
40.2899 17.1108
40.48 16.8787
40.6703 16.7232
40.8607 16.4976
41.0512 16.2271
41.242 16.0115
41.4327 15.8561
41.6236 15.6392
41.8146 15.4196
42.0057 15.2096
42.1969 14.9551
42.3882 14.8791
42.5797 14.6169
42.7713 14.3965
42.963 14.1881
43.1549 14.0498
43.3468 13.8277
43.5389 13.6135
43.7312 13.4162
43.9237 13.2824
44.1162 13.0972
44.3088 12.9193
44.5016 12.6924
44.6945 12.5707
44.8875 12.3877
45.0806 12.2041
45.2739 12.0497
45.4673 11.8582
45.6609 11.668
45.8546 11.5333
46.0484 11.3741
46.2424 11.1927
46.4365 11.0389
46.631 10.8846
46.8254 10.6791
47.0199 10.5468
47.2146 10.3936
47.4095 10.2394
47.6044 10.1198
47.7996 9.91367
47.9948 9.74288
48.1902 9.64774
48.3858 9.52595
48.5815 9.3619
48.7774 9.24917
48.9734 9.10064
49.1696 8.95792
49.3661 8.80712
49.5626 8.67129
49.7592 8.55983
49.956 8.47908
50.153 8.2951
50.3501 8.17401
50.5474 8.05698
50.7448 7.93218
50.9424 7.7665
51.1402 7.70968
51.3381 7.5442
51.5362 7.43523
51.7344 7.3136
51.9328 7.20087
52.1316 7.08114
52.3304 6.94566
52.5293 6.85007
52.7284 6.73261
52.9276 6.61522
53.1271 6.53151
53.3267 6.40081
53.5265 6.30842
53.7264 6.224
53.9266 6.06953
54.1269 5.99593
54.3274 5.86734
54.528 5.72477
54.7289 5.61352
54.9301 5.42334
55.1314 5.25054
55.3328 5.07958
55.5344 4.86974
55.7361 4.75028