File: XRD/Ni3Fe_FD0066.xy
TT I
1.27165 30.5913
1.45013 25.0371
1.62863 21.5726
1.80712 19.362
1.98562 19.1727
2.16411 19.3203
2.34263 19.4481
2.52115 19.6958
2.69965 24.4732
2.87818 34.5392
3.05672 60.3207
3.23527 58.9637
3.4138 31.3662
3.59237 25.6862
3.77094 25.4695
3.9495 26.5619
4.12809 29.3243
4.30669 37.3621
4.4853 38.3285
4.6639 44.6215
4.84253 57.3752
5.02118 105.687
5.19981 366.682
5.37848 2549.87
5.55716 145.117
5.73586 104.005
5.91455 124.018
6.09328 667.666
6.27201 186.288
6.45075 63.9584
6.62952 48.5537
6.8083 43.0897
6.98711 42.3232
7.16591 43.1783
7.34475 40.4616
7.5236 70.1659
7.70247 43.9119
7.88135 40.5047
8.06026 43.1004
8.23919 48.6481
8.41812 63.2261
8.59709 216.496
8.77609 268.122
8.9551 74.0176
9.13412 67.6323
9.31318 264.892
9.49226 61.5743
9.67134 61.3287
9.85047 68.0829
10.0296 149.008
10.2088 717.463
10.388 93.0815
10.5672 106.362
10.7465 155.99
10.9257 53.3084
11.105 47.0677
11.2844 44.4383
11.4637 42.123
11.6431 41.3633
11.8225 42.1974
12.002 112.584
12.1814 53.0544
12.3609 75.3302
12.5405 43.0081
12.72 41.6716
12.8996 43.8674
13.0792 52.2769
13.2589 73.6455
13.4386 185.969
13.6183 79.7943
13.7981 165.751
13.9779 53.9946
14.1577 75.5995
14.3376 47.2564
14.5175 43.6992
14.6974 43.8178
14.8774 52.948
15.0574 88.5948
15.2374 53.5077
15.4175 43.1623
15.5976 42.3023
15.7778 49.0283
15.958 72.6975
16.1382 65.3775
16.3185 38.9329
16.4988 36.1822
16.6792 35.1393
16.8596 35.4063
17.04 39.6854
17.2205 37.1792
17.401 43.8374
17.5815 38.4945
17.7622 40.3576
17.9428 42.6997
18.1237 48.2266
18.3044 68.4094
18.4852 58.3361
18.666 44.4247
18.8469 37.8057
19.0278 36.4318
19.2088 36.9147
19.3898 47.0928
19.5709 41.6471
19.752 34.6994
19.9332 34.3144
20.1144 35.2727
20.2957 40.0987
20.477 39.5202
20.6586 33.0029
20.84 34.9359
21.0215 31.1047
21.203 30.7657
21.3846 32.1595
21.5662 31.5416
21.7479 31.7269
21.9297 33.0445
22.1115 38.5539
22.2933 35.6601
22.4753 31.5963
22.6572 31.0004
22.8393 32.4736
23.0214 32.3567
23.2037 34.7172
23.3859 31.9584
23.5682 32.2407
23.7505 35.6108
23.9329 30.5278
24.1154 29.411
24.2979 28.2031
24.4805 27.8394
24.6631 28.2114
24.8458 27.4752
25.0286 27.1724
25.2114 27.4426
25.3943 28.1379
25.5773 28.2025
25.7605 26.4565
25.9436 26.3939
26.1268 26.052
26.31 26.7707
26.4933 25.9072
26.6767 25.9588
26.8601 27.0387
27.0437 26.5246
27.2272 25.273
27.4109 24.8366
27.5946 24.765
27.7784 24.9378
27.9623 24.4282
28.1462 24.927
28.3304 24.9077
28.5145 24.0822
28.6987 23.4582
28.8829 22.9678
29.0673 22.892
29.2517 22.4712
29.4361 22.0701
29.6207 21.9886
29.8053 21.5322
29.99 21.3112
30.1748 21.2908
30.3597 21.1714
30.5447 20.924
30.7297 20.8336
30.915 20.9241
31.1002 20.7061
31.2855 20.3373
31.4708 20.0949
31.6563 20.1183
31.8418 19.8829
32.0275 19.6865
32.2132 19.6066
32.399 19.2892
32.5848 18.8903
32.7708 18.7147
32.9569 18.6414
33.143 18.3321
33.3293 18.1392
33.5158 18.0871
33.7022 17.6024
33.8887 17.4894
34.0753 17.3184
34.262 17.0603
34.4488 16.8491
34.6357 16.6617
34.8227 16.4627
35.0098 16.2853
35.1969 16.1031
35.3842 15.8848
35.5716 15.7156
35.759 15.7249
35.9468 15.4268
36.1345 15.2921
36.3222 15.1413
36.5101 14.9692
36.6981 14.8081
36.8861 14.6818
37.0743 14.3941
37.2626 14.2991
37.451 14.1076
37.6395 13.9852
37.8281 13.7365
38.0168 13.5602
38.2056 13.3816
38.3945 13.2424
38.5837 13.0853
38.7728 12.9197
38.9621 12.777
39.1514 12.6508
39.3409 12.5217
39.5304 12.3303
39.7201 12.1736
39.9099 12.0239
40.0999 11.9228
40.2899 11.7673
40.48 11.5551
40.6703 11.4626
40.8607 11.3509
41.0512 11.167
41.242 11.0224
41.4327 10.8691
41.6236 10.7559
41.8146 10.6497
42.0057 10.4826
42.1969 10.3468
42.3882 10.2176
42.5797 10.0422
42.7713 9.95811
42.963 9.77169
43.1549 9.73886
43.3468 9.56261
43.5389 9.48728
43.7312 9.28192
43.9237 9.20839
44.1162 9.05432
44.3088 8.97576
44.5016 8.82398
44.6945 8.70324
44.8875 8.61819
45.0806 8.43697
45.2739 8.36214
45.4673 8.22377
45.6609 8.15139
45.8546 8.04598
46.0484 7.9205
46.2424 7.79571
46.4365 7.73267
46.631 7.61365
46.8254 7.49091
47.0199 7.39606
47.2146 7.28664
47.4095 7.20167
47.6044 7.07187
47.7996 6.99431
47.9948 6.87367
48.1902 6.79258
48.3858 6.6799
48.5815 6.62669
48.7774 6.51855
48.9734 6.42634
49.1696 6.30858
49.3661 6.23148
49.5626 6.13555
49.7592 6.02439
49.956 5.9629
50.153 5.89984
50.3501 5.79216
50.5474 5.71203
50.7448 5.61875
50.9424 5.54377
51.1402 5.44056
51.3381 5.37518
51.5362 5.28249
51.7344 5.20689
51.9328 5.10339
52.1316 5.03608
52.3304 4.94733
52.5293 4.90296
52.7284 4.81568
52.9276 4.73811
53.1271 4.68554
53.3267 4.56984
53.5265 4.50492
53.7264 4.44452
53.9266 4.34427
54.1269 4.25768
54.3274 4.14144
54.528 4.03727
54.7289 3.87946
54.9301 3.77691
55.1314 3.72555
55.3328 3.54531
55.5344 3.41148
55.7361 3.33932