File: XRD/Ni3Fe_FD0481.xy
TT I
1.27165 7.99695
1.45013 6.57714
1.62863 4.73941
1.80712 4.90295
1.98562 4.85284
2.16411 4.81146
2.34263 5.23516
2.52115 6.97034
2.69965 7.53556
2.87818 8.6541
3.05672 11.0899
3.23527 15.1455
3.4138 18.9448
3.59237 23.3459
3.77094 25.8823
3.9495 29.8006
4.12809 34.6647
4.30669 108.47
4.4853 55.2713
4.6639 56.3021
4.84253 69.0681
5.02118 89.5821
5.19981 539.463
5.37848 209.157
5.55716 104.748
5.73586 95.1054
5.91455 98.84
6.09328 4250.76
6.27201 83.443
6.45075 69.5845
6.62952 62.9428
6.8083 59.4549
6.98711 56.1597
7.16591 55.9731
7.34475 69.3291
7.5236 54.7239
7.70247 56.9817
7.88135 58.2908
8.06026 63.2657
8.23919 70.5774
8.41812 86.4998
8.59709 1240.18
8.77609 101.329
8.9551 90.5634
9.13412 84.0452
9.31318 85.7118
9.49226 86.5424
9.67134 96.066
9.85047 102.565
10.0296 414.157
10.2088 404.047
10.388 108.389
10.5672 500.824
10.7465 87.7487
10.9257 78.7618
11.105 72.5333
11.2844 69.7932
11.4637 65.5716
11.6431 64.3926
11.8225 63.6654
12.002 65.6298
12.1814 155.854
12.3609 68.5894
12.5405 65.6919
12.72 69.107
12.8996 72.5811
13.0792 82.4239
13.2589 252.538
13.4386 125.446
13.6183 254.77
13.7981 97.792
13.9779 77.145
14.1577 73.0025
14.3376 71.4281
14.5175 70.1049
14.6974 72.0141
14.8774 118.779
15.0574 148.828
15.2374 71.0806
15.4175 67.5178
15.5976 67.2697
15.7778 101.613
15.958 153.844
16.1382 62.4942
16.3185 58.7613
16.4988 56.4161
16.6792 55.3058
16.8596 55.5538
17.04 57.192
17.2205 68.8285
17.401 71.5403
17.5815 60.1443
17.7622 62.3258
17.9428 77.3284
18.1237 140.661
18.3044 92.3045
18.4852 77.8072
18.666 61.387
18.8469 58.9436
19.0278 57.7664
19.2088 60.8389
19.3898 76.6336
19.5709 54.7987
19.752 54.2531
19.9332 57.3866
20.1144 70.6579
20.2957 64.295
20.477 53.9756
20.6586 50.4606
20.84 49.5794
21.0215 49.5457
21.203 51.4514
21.3846 49.5847
21.5662 49.8712
21.7479 53.9576
21.9297 65.4219
22.1115 56.5386
22.2933 50.5725
22.4753 49.5467
22.6572 50.0547
22.8393 53.0525
23.0214 57.8486
23.2037 49.4023
23.3859 50.7985
23.5682 57.4197
23.7505 48.8941
23.9329 45.7903
24.1154 44.6928
24.2979 44.0009
24.4805 43.5332
24.6631 43.3573
24.8458 42.7619
25.0286 43.7408
25.2114 45.2912
25.3943 45.2766
25.5773 41.5464
25.7605 41.0815
25.9436 41.5102
26.1268 42.382
26.31 40.7559
26.4933 41.4011
26.6767 42.7309
26.8601 41.0371
27.0437 39.5319
27.2272 39.2213
27.4109 38.9756
27.5946 38.9899
27.7784 38.4748
27.9623 39.0321
28.1462 39.3497
28.3304 37.6799
28.5145 36.5417
28.6987 36.111
28.8829 35.993
29.0673 35.1247
29.2517 34.8162
29.4361 34.5944
29.6207 33.6193
29.8053 33.264
29.99 33.0359
30.1748 32.9158
30.3597 32.7454
30.5447 32.669
30.7297 32.6108
30.915 32.0853
31.1002 31.6365
31.2855 31.4001
31.4708 31.3081
31.6563 30.8649
31.8418 30.5086
32.0275 30.3553
32.2132 29.7385
32.399 29.3175
32.5848 28.903
32.7708 28.5839
32.9569 28.5028
33.143 28.1602
33.3293 27.8201
33.5158 27.3895
33.7022 26.9434
33.8887 26.674
34.0753 26.3411
34.262 26.0039
34.4488 25.6216
34.6357 25.3781
34.8227 25.051
35.0098 24.8902
35.1969 24.5745
35.3842 24.325
35.5716 24.1372
35.759 23.8678
35.9468 23.4271
36.1345 23.1607
36.3222 22.9461
36.5101 22.7364
36.6981 22.4156
36.8861 22.183
37.0743 21.8294
37.2626 21.5194
37.451 21.3314
37.6395 21.1249
37.8281 20.79
38.0168 20.4763
38.2056 20.2278
38.3945 19.9339
38.5837 19.6892
38.7728 19.5201
38.9621 19.2638
39.1514 18.847
39.3409 18.7235
39.5304 18.5124
39.7201 18.2439
39.9099 18.0779
40.0999 17.9125
40.2899 17.601
40.48 17.4062
40.6703 17.1469
40.8607 16.9501
41.0512 16.7583
41.242 16.5127
41.4327 16.2992
41.6236 16.0257
41.8146 15.8575
42.0057 15.6076
42.1969 15.4276
42.3882 15.2688
42.5797 15.0371
42.7713 14.8046
42.963 14.6326
43.1549 14.3815
43.3468 14.1824
43.5389 13.9854
43.7312 13.7903
43.9237 13.6423
44.1162 13.4263
44.3088 13.2751
44.5016 13.0334
44.6945 12.928
44.8875 12.7193
45.0806 12.537
45.2739 12.3586
45.4673 12.18
45.6609 12.0057
45.8546 11.8621
46.0484 11.6762
46.2424 11.4886
46.4365 11.334
46.631 11.1389
46.8254 11.0097
47.0199 10.8426
47.2146 10.6452
47.4095 10.5112
47.6044 10.3915
47.7996 10.2029
47.9948 10.0863
48.1902 9.94446
48.3858 9.74532
48.5815 9.63452
48.7774 9.51787
48.9734 9.38014
49.1696 9.23403
49.3661 9.05458
49.5626 8.93211
49.7592 8.78449
49.956 8.68235
50.153 8.57576
50.3501 8.37114
50.5474 8.28792
50.7448 8.17542
50.9424 8.02364
51.1402 7.90786
51.3381 7.78296
51.5362 7.65788
51.7344 7.4996
51.9328 7.39064
52.1316 7.24175
52.3304 7.13366
52.5293 7.05628
52.7284 6.94338
52.9276 6.78153
53.1271 6.6711
53.3267 6.58656
53.5265 6.47241
53.7264 6.31695
53.9266 6.25419
54.1269 6.16142
54.3274 6.05001
54.528 5.85111
54.7289 5.73929
54.9301 5.52131
55.1314 5.48645
55.3328 5.19479
55.5344 5.0218
55.7361 4.87862