File: XRD/Ni3Fe_FD1033.xy
TT I
1.27165 7.08874
1.45013 5.79503
1.62863 4.86909
1.80712 4.77786
1.98562 4.63562
2.16411 4.46866
2.34263 5.85395
2.52115 7.29876
2.69965 8.55119
2.87818 9.17802
3.05672 11.0833
3.23527 15.1504
3.4138 18.4049
3.59237 21.4158
3.77094 24.8307
3.9495 28.2934
4.12809 32.425
4.30669 57.3898
4.4853 46.1796
4.6639 52.7451
4.84253 64.4453
5.02118 82.8293
5.19981 230.029
5.37848 220.155
5.55716 97.0256
5.73586 87.6982
5.91455 88.464
6.09328 4552.08
6.27201 75.5849
6.45075 63.6491
6.62952 57.712
6.8083 54.4135
6.98711 52.3418
7.16591 52.0031
7.34475 55.9833
7.5236 60.4038
7.70247 53.1933
7.88135 54.8349
8.06026 58.8101
8.23919 65.376
8.41812 77.2984
8.59709 1069.06
8.77609 95.0292
8.9551 82.2744
9.13412 79.0094
9.31318 91.3614
9.49226 80.6111
9.67134 86.3267
9.85047 93.5145
10.0296 339.047
10.2088 444.745
10.388 97.6905
10.5672 504.824
10.7465 86.6143
10.9257 73.5224
11.105 67.7725
11.2844 64.6189
11.4637 61.7435
11.6431 60.3416
11.8225 59.6382
12.002 67.273
12.1814 146.728
12.3609 64.2827
12.5405 61.16
12.72 63.6836
12.8996 67.4809
13.0792 76.322
13.2589 224.85
13.4386 127.054
13.6183 234.165
13.7981 100.728
13.9779 72.9606
14.1577 76.3826
14.3376 67.1722
14.5175 66.2186
14.6974 67.1703
14.8774 108.02
15.0574 160.352
15.2374 66.546
15.4175 63.9661
15.5976 63.1498
15.7778 93.2688
15.958 167.018
16.1382 59.9677
16.3185 55.4125
16.4988 53.3022
16.6792 52.5312
16.8596 52.6696
17.04 53.7421
17.2205 64.316
17.401 71.6177
17.5815 57.1151
17.7622 59.6916
17.9428 72.4668
18.1237 141.611
18.3044 88.2526
18.4852 79.0219
18.666 58.5022
18.8469 56.2391
19.0278 54.7766
19.2088 57.566
19.3898 75.9624
19.5709 52.7211
19.752 51.7571
19.9332 54.8818
20.1144 70.1491
20.2957 63.1187
20.477 52.6881
20.6586 48.32
20.84 47.8468
21.0215 47.1361
21.203 49.328
21.3846 47.9012
21.5662 47.4209
21.7479 51.4225
21.9297 65.0676
22.1115 55.7554
22.2933 48.9415
22.4753 47.2858
22.6572 47.4927
22.8393 51.0054
23.0214 57.3336
23.2037 47.5808
23.3859 49.1046
23.5682 56.9016
23.7505 48.0191
23.9329 44.1031
24.1154 43.079
24.2979 42.3235
24.4805 41.7763
24.6631 41.812
24.8458 41.1649
25.0286 41.948
25.2114 43.8612
25.3943 44.1982
25.5773 40.1858
25.7605 39.4946
25.9436 39.829
26.1268 41.198
26.31 39.3984
26.4933 39.8904
26.6767 41.7629
26.8601 39.8842
27.0437 38.1572
27.2272 37.7792
27.4109 37.5878
27.5946 37.7335
27.7784 37.2156
27.9623 37.8687
28.1462 38.4631
28.3304 36.6038
28.5145 35.2974
28.6987 34.8246
28.8829 34.7428
29.0673 34.0982
29.2517 33.6003
29.4361 33.5732
29.6207 32.4492
29.8053 32.1739
29.99 31.8439
30.1748 31.7687
30.3597 31.6109
30.5447 31.4812
30.7297 31.7616
30.915 30.9778
31.1002 30.5756
31.2855 30.2854
31.4708 30.3517
31.6563 29.8107
31.8418 29.6868
32.0275 29.4858
32.2132 28.8243
32.399 28.2881
32.5848 27.9434
32.7708 27.6288
32.9569 27.4585
33.143 27.29
33.3293 26.8464
33.5158 26.4661
33.7022 26.1671
33.8887 25.8301
34.0753 25.4683
34.262 25.1409
34.4488 24.814
34.6357 24.4057
34.8227 24.2445
35.0098 24.1009
35.1969 23.77
35.3842 23.5464
35.5716 23.3387
35.759 23.0443
35.9468 22.7575
36.1345 22.4124
36.3222 22.267
36.5101 21.9957
36.6981 21.7174
36.8861 21.4704
37.0743 21.1405
37.2626 20.8855
37.451 20.607
37.6395 20.4389
37.8281 20.0953
38.0168 19.8064
38.2056 19.5684
38.3945 19.3256
38.5837 19.0543
38.7728 18.8428
38.9621 18.5589
39.1514 18.3305
39.3409 18.1223
39.5304 17.925
39.7201 17.7333
39.9099 17.521
40.0999 17.2533
40.2899 17.0107
40.48 16.7458
40.6703 16.593
40.8607 16.4023
41.0512 16.1895
41.242 15.9618
41.4327 15.7432
41.6236 15.5749
41.8146 15.3568
42.0057 15.1097
42.1969 14.9884
42.3882 14.7434
42.5797 14.5499
42.7713 14.3649
42.963 14.129
43.1549 13.9676
43.3468 13.7388
43.5389 13.5464
43.7312 13.3241
43.9237 13.1815
44.1162 12.996
44.3088 12.796
44.5016 12.665
44.6945 12.4599
44.8875 12.3404
45.0806 12.1434
45.2739 12.0186
45.4673 11.8373
45.6609 11.6351
45.8546 11.4355
46.0484 11.3398
46.2424 11.1452
46.4365 11.0101
46.631 10.8366
46.8254 10.6422
47.0199 10.5121
47.2146 10.3399
47.4095 10.202
47.6044 10.0426
47.7996 9.89052
47.9948 9.75564
48.1902 9.64491
48.3858 9.48648
48.5815 9.3495
48.7774 9.25926
48.9734 9.05244
49.1696 8.92582
49.3661 8.80641
49.5626 8.65369
49.7592 8.55269
49.956 8.37603
50.153 8.28295
50.3501 8.17817
50.5474 8.00512
50.7448 7.90169
50.9424 7.77339
51.1402 7.69558
51.3381 7.52636
51.5362 7.41518
51.7344 7.3244
51.9328 7.1498
52.1316 7.03019
52.3304 6.93279
52.5293 6.81108
52.7284 6.71496
52.9276 6.57066
53.1271 6.50026
53.3267 6.36627
53.5265 6.2742
53.7264 6.16151
53.9266 6.08821
54.1269 5.94753
54.3274 5.81952
54.528 5.67786
54.7289 5.50044
54.9301 5.41145
55.1314 5.27911
55.3328 5.02892
55.5344 4.85183
55.7361 4.80504