File: XRD/Ni3Fe_FD0415.xy
TT I
1.27165 7.34388
1.45013 5.94581
1.62863 4.48399
1.80712 4.76385
1.98562 4.83025
2.16411 5.24406
2.34263 5.11748
2.52115 6.30674
2.69965 7.69688
2.87818 8.39045
3.05672 11.4894
3.23527 14.7655
3.4138 19.1538
3.59237 24.9657
3.77094 27.0307
3.9495 30.2155
4.12809 35.7046
4.30669 284.08
4.4853 73.5693
4.6639 56.7507
4.84253 68.3942
5.02118 89.0541
5.19981 424.287
5.37848 223.227
5.55716 104.19
5.73586 94.2165
5.91455 97.5246
6.09328 3867.26
6.27201 86.973
6.45075 69.0579
6.62952 64.4689
6.8083 60.2209
6.98711 57.3359
7.16591 56.8794
7.34475 107.409
7.5236 55.8117
7.70247 57.306
7.88135 58.8124
8.06026 63.671
8.23919 70.7993
8.41812 87.8727
8.59709 1063.08
8.77609 104.354
8.9551 95.7258
9.13412 83.2015
9.31318 84.4002
9.49226 86.225
9.67134 103.557
9.85047 102.162
10.0296 355.537
10.2088 514.69
10.388 108.184
10.5672 471.921
10.7465 88.9849
10.9257 80.8884
11.105 73.6012
11.2844 73.1971
11.4637 66.6758
11.6431 65.155
11.8225 63.7639
12.002 64.9469
12.1814 141.737
12.3609 74.9763
12.5405 66.0218
12.72 72.9184
12.8996 72.3495
13.0792 80.4322
13.2589 222.54
13.4386 138.673
13.6183 226.903
13.7981 106.624
13.9779 77.3469
14.1577 74.5551
14.3376 73.8988
14.5175 70.3303
14.6974 72.2459
14.8774 109.674
15.0574 164.331
15.2374 73.5464
15.4175 67.8155
15.5976 67.5082
15.7778 94.6861
15.958 171.523
16.1382 65.1052
16.3185 60.3763
16.4988 56.6819
16.6792 55.8802
16.8596 56.5873
17.04 56.8031
17.2205 66.8693
17.401 74.5066
17.5815 60.5922
17.7622 62.5799
17.9428 75.4683
18.1237 136.591
18.3044 89.1596
18.4852 82.6217
18.666 61.7308
18.8469 59.4086
19.0278 58.0619
19.2088 60.849
19.3898 77.5746
19.5709 55.7028
19.752 54.3955
19.9332 57.3376
20.1144 70.6548
20.2957 63.6427
20.477 55.9763
20.6586 50.6891
20.84 49.7611
21.0215 49.6658
21.203 51.6914
21.3846 50.3399
21.5662 49.8867
21.7479 53.489
21.9297 65.5627
22.1115 56.8585
22.2933 51.4556
22.4753 50.1355
22.6572 50.1524
22.8393 52.6393
23.0214 59.0961
23.2037 50.2208
23.3859 50.8182
23.5682 57.1183
23.7505 49.9429
23.9329 46.3062
24.1154 45.2801
24.2979 44.458
24.4805 43.7911
24.6631 43.749
24.8458 43.1792
25.0286 43.6925
25.2114 45.5496
25.3943 45.7363
25.5773 41.9802
25.7605 41.3937
25.9436 41.7097
26.1268 42.7377
26.31 41.0832
26.4933 41.615
26.6767 43.0592
26.8601 41.4255
27.0437 39.8016
27.2272 39.2728
27.4109 39.2757
27.5946 39.3381
27.7784 38.7861
27.9623 39.1871
28.1462 39.7235
28.3304 38.1524
28.5145 36.8243
28.6987 36.4509
28.8829 36.2127
29.0673 35.5365
29.2517 35.1452
29.4361 34.8282
29.6207 33.9192
29.8053 33.7388
29.99 33.1998
30.1748 33.1798
30.3597 32.9834
30.5447 32.8477
30.7297 32.9021
30.915 32.4042
31.1002 31.7637
31.2855 31.5292
31.4708 31.508
31.6563 31.0206
31.8418 30.8456
32.0275 30.6062
32.2132 30.1251
32.399 29.638
32.5848 29.113
32.7708 28.7831
32.9569 28.6661
33.143 28.4431
33.3293 28.089
33.5158 27.644
33.7022 27.2591
33.8887 26.8849
34.0753 26.574
34.262 26.1907
34.4488 25.9206
34.6357 25.6018
34.8227 25.1926
35.0098 25.0807
35.1969 24.704
35.3842 24.5168
35.5716 24.2907
35.759 23.9929
35.9468 23.6499
36.1345 23.4784
36.3222 23.0971
36.5101 22.9506
36.6981 22.6141
36.8861 22.3281
37.0743 22.0226
37.2626 21.8093
37.451 21.4913
37.6395 21.2772
37.8281 20.9928
38.0168 20.6877
38.2056 20.43
38.3945 20.1526
38.5837 19.942
38.7728 19.5999
38.9621 19.3551
39.1514 19.1649
39.3409 18.8736
39.5304 18.6651
39.7201 18.4901
39.9099 18.2833
40.0999 17.9893
40.2899 17.7892
40.48 17.5106
40.6703 17.2944
40.8607 17.099
41.0512 16.8722
41.242 16.6093
41.4327 16.4121
41.6236 16.169
41.8146 16.0263
42.0057 15.8139
42.1969 15.5867
42.3882 15.3535
42.5797 15.1781
42.7713 14.9561
42.963 14.7664
43.1549 14.5391
43.3468 14.3354
43.5389 14.1673
43.7312 13.9717
43.9237 13.7885
44.1162 13.5661
44.3088 13.4011
44.5016 13.221
44.6945 13.0269
44.8875 12.8597
45.0806 12.6461
45.2739 12.4737
45.4673 12.3026
45.6609 12.1166
45.8546 11.9773
46.0484 11.7956
46.2424 11.6361
46.4365 11.4651
46.631 11.2677
46.8254 11.1367
47.0199 10.987
47.2146 10.7965
47.4095 10.6172
47.6044 10.4817
47.7996 10.2722
47.9948 10.1926
48.1902 10.0611
48.3858 9.88474
48.5815 9.73077
48.7774 9.56059
48.9734 9.44432
49.1696 9.28072
49.3661 9.14989
49.5626 8.97914
49.7592 8.8896
49.956 8.74808
50.153 8.64349
50.3501 8.4717
50.5474 8.37406
50.7448 8.24027
50.9424 8.12081
51.1402 8.01348
51.3381 7.85168
51.5362 7.71334
51.7344 7.61196
51.9328 7.44681
52.1316 7.38371
52.3304 7.22539
52.5293 7.10707
52.7284 7.02462
52.9276 6.88553
53.1271 6.80151
53.3267 6.6521
53.5265 6.53226
53.7264 6.40958
53.9266 6.32825
54.1269 6.23244
54.3274 6.08552
54.528 5.94839
54.7289 5.76718
54.9301 5.58658
55.1314 5.51382
55.3328 5.29239
55.5344 5.10105
55.7361 4.95275