File: XRD/Ni3Fe_FD0905.xy
TT I
1.27165 7.1166
1.45013 6.54049
1.62863 5.23105
1.80712 4.92755
1.98562 5.31693
2.16411 4.97533
2.34263 5.34555
2.52115 7.37442
2.69965 8.77123
2.87818 9.35492
3.05672 11.3673
3.23527 15.0697
3.4138 18.9503
3.59237 22.9447
3.77094 25.7937
3.9495 29.4743
4.12809 34.2401
4.30669 146.442
4.4853 57.7893
4.6639 54.6821
4.84253 66.9625
5.02118 85.8581
5.19981 337.126
5.37848 174.124
5.55716 99.812
5.73586 90.8409
5.91455 92.4092
6.09328 4562.56
6.27201 79.5404
6.45075 66.6787
6.62952 61.4418
6.8083 57.5708
6.98711 54.8797
7.16591 54.9266
7.34475 75.9812
7.5236 53.6186
7.70247 55.4474
7.88135 57.113
8.06026 61.0811
8.23919 68.2895
8.41812 82.995
8.59709 1190.13
8.77609 96.1248
8.9551 88.0264
9.13412 80.6313
9.31318 82.3181
9.49226 83.6363
9.67134 94.6268
9.85047 98.542
10.0296 326.391
10.2088 330.238
10.388 102.56
10.5672 541.741
10.7465 84.1262
10.9257 76.7
11.105 70.3351
11.2844 68.2529
11.4637 63.7292
11.6431 62.3425
11.8225 61.1546
12.002 62.8556
12.1814 156.552
12.3609 66.8833
12.5405 63.1766
12.72 67.4109
12.8996 69.8314
13.0792 77.9146
13.2589 242.025
13.4386 113.718
13.6183 257.071
13.7981 91.5648
13.9779 74.4043
14.1577 70.628
14.3376 69.5015
14.5175 67.9167
14.6974 69.2328
14.8774 109.381
15.0574 137.921
15.2374 68.6982
15.4175 65.2878
15.5976 64.8468
15.7778 93.0162
15.958 146.731
16.1382 60.7504
16.3185 57.2257
16.4988 54.4482
16.6792 53.3051
16.8596 54.1257
17.04 54.9997
17.2205 65.7115
17.401 67.5891
17.5815 58.2077
17.7622 60.0446
17.9428 72.0411
18.1237 139.394
18.3044 90.4486
18.4852 73.134
18.666 59.3253
18.8469 57.0004
19.0278 55.8228
19.2088 58.2691
19.3898 75.0757
19.5709 53.1012
19.752 52.1454
19.9332 55.1865
20.1144 69.3859
20.2957 63.9714
20.477 51.9732
20.6586 48.7959
20.84 47.93
21.0215 47.8062
21.203 50.1575
21.3846 47.8402
21.5662 47.8986
21.7479 51.8068
21.9297 64.012
22.1115 55.5793
22.2933 48.6712
22.4753 47.8327
22.6572 48.1567
22.8393 51.1988
23.0214 56.161
23.2037 47.8337
23.3859 48.8134
23.5682 56.8685
23.7505 46.9941
23.9329 44.4604
24.1154 43.2823
24.2979 42.7994
24.4805 42.1619
24.6631 41.9769
24.8458 41.4947
25.0286 42.0691
25.2114 43.8536
25.3943 43.6726
25.5773 40.0425
25.7605 39.6851
25.9436 40.2776
26.1268 41.0007
26.31 39.4494
26.4933 39.9829
26.6767 41.5456
26.8601 39.8396
27.0437 38.2033
27.2272 37.9456
27.4109 37.7632
27.5946 37.6799
27.7784 37.1565
27.9623 37.772
28.1462 38.0886
28.3304 36.5023
28.5145 35.363
28.6987 35.0158
28.8829 34.8502
29.0673 34.0866
29.2517 33.7449
29.4361 33.5577
29.6207 32.4804
29.8053 32.2775
29.99 32.0253
30.1748 31.989
30.3597 31.6015
30.5447 31.6252
30.7297 31.6883
30.915 30.927
31.1002 30.571
31.2855 30.3477
31.4708 30.3501
31.6563 29.778
31.8418 29.7075
32.0275 29.3606
32.2132 28.7981
32.399 28.4287
32.5848 28.0145
32.7708 27.6611
32.9569 27.4921
33.143 27.2922
33.3293 26.8874
33.5158 26.5522
33.7022 26.1281
33.8887 25.8294
34.0753 25.5047
34.262 25.1694
34.4488 24.8526
34.6357 24.583
34.8227 24.2829
35.0098 24.1289
35.1969 23.7484
35.3842 23.6027
35.5716 23.4115
35.759 23.0911
35.9468 22.7365
36.1345 22.5138
36.3222 22.2427
36.5101 22.0225
36.6981 21.7229
36.8861 21.4231
37.0743 21.1458
37.2626 20.9327
37.451 20.5875
37.6395 20.4243
37.8281 20.1143
38.0168 19.8527
38.2056 19.6146
38.3945 19.3019
38.5837 19.1418
38.7728 18.8351
38.9621 18.6476
39.1514 18.3938
39.3409 18.0992
39.5304 17.9236
39.7201 17.7092
39.9099 17.4472
40.0999 17.2668
40.2899 17.0951
40.48 16.8695
40.6703 16.6328
40.8607 16.4745
41.0512 16.2026
41.242 15.9576
41.4327 15.8242
41.6236 15.5388
41.8146 15.3802
42.0057 15.1727
42.1969 14.9318
42.3882 14.7842
42.5797 14.5482
42.7713 14.4011
42.963 14.1543
43.1549 14.0214
43.3468 13.8303
43.5389 13.6455
43.7312 13.4396
43.9237 13.218
44.1162 13.0588
44.3088 12.8651
44.5016 12.6782
44.6945 12.4909
44.8875 12.3646
45.0806 12.1798
45.2739 11.9786
45.4673 11.8447
45.6609 11.6634
45.8546 11.4954
46.0484 11.3442
46.2424 11.1653
46.4365 11.0468
46.631 10.8561
46.8254 10.7094
47.0199 10.5523
47.2146 10.4108
47.4095 10.2073
47.6044 10.0861
47.7996 9.95505
47.9948 9.74803
48.1902 9.65901
48.3858 9.51244
48.5815 9.365
48.7774 9.2711
48.9734 9.08758
49.1696 8.96448
49.3661 8.8576
49.5626 8.66057
49.7592 8.5659
49.956 8.43054
50.153 8.32642
50.3501 8.17952
50.5474 8.04552
50.7448 7.90902
50.9424 7.80176
51.1402 7.65175
51.3381 7.51074
51.5362 7.4003
51.7344 7.30513
51.9328 7.17747
52.1316 7.08986
52.3304 6.95207
52.5293 6.81158
52.7284 6.75741
52.9276 6.62464
53.1271 6.50254
53.3267 6.39336
53.5265 6.30822
53.7264 6.16318
53.9266 6.10229
54.1269 6.00596
54.3274 5.8786
54.528 5.7172
54.7289 5.55186
54.9301 5.37949
55.1314 5.24919
55.3328 5.05663
55.5344 4.87472
55.7361 4.70811