File: XRD/Ni3Fe_FD0026.xy
TT I
1.27165 32.975
1.45013 29.2453
1.62863 25.7537
1.80712 23.2846
1.98562 22.9576
2.16411 25.0062
2.34263 25.835
2.52115 24.876
2.69965 27.6115
2.87818 38.7249
3.05672 65.1209
3.23527 74.9083
3.4138 41.061
3.59237 38.8533
3.77094 39.2413
3.9495 36.3634
4.12809 49.4312
4.30669 91.4544
4.4853 60.9202
4.6639 45.9524
4.84253 52.0017
5.02118 86.7416
5.19981 280.147
5.37848 3695.58
5.55716 155.181
5.73586 100.383
5.91455 111.86
6.09328 467.313
6.27201 304.264
6.45075 71.925
6.62952 56.2085
6.8083 55.3213
6.98711 44.4404
7.16591 47.4474
7.34475 75.7919
7.5236 55.5813
7.70247 45.4122
7.88135 37.5387
8.06026 39.2647
8.23919 44.662
8.41812 57.1007
8.59709 162.291
8.77609 630.597
8.9551 77.456
9.13412 59.2956
9.31318 248.341
9.49226 53.2634
9.67134 53.5043
9.85047 61.3373
10.0296 102.416
10.2088 512.374
10.388 127.904
10.5672 91.6289
10.7465 260.492
10.9257 49.3423
11.105 43.3757
11.2844 42.3243
11.4637 38.6502
11.6431 38.0618
11.8225 37.0437
12.002 73.6989
12.1814 47.168
12.3609 95.4623
12.5405 44.6701
12.72 41.7625
12.8996 40.1553
13.0792 42.9133
13.2589 64.0209
13.4386 154.315
13.6183 90.6785
13.7981 163.962
13.9779 60.5975
14.1577 48.4207
14.3376 47.0274
14.5175 38.6886
14.6974 38.7805
14.8774 43.5251
15.0574 61.6374
15.2374 87.287
15.4175 41.2828
15.5976 38.5809
15.7778 41.6268
15.958 55.0529
16.1382 112.083
16.3185 39.7071
16.4988 34.0648
16.6792 32.0663
16.8596 32.0179
17.04 39.7903
17.2205 33.8027
17.401 36.8175
17.5815 46.5948
17.7622 35.6717
17.9428 40.2111
18.1237 43.2918
18.3044 91.3111
18.4852 55.7342
18.666 61.9061
18.8469 36.2757
19.0278 33.7797
19.2088 33.836
19.3898 40.2503
19.5709 47.0579
19.752 35.4598
19.9332 31.9476
20.1144 32.6776
20.2957 42.9369
20.477 38.8165
20.6586 37.8219
20.84 32.0611
21.0215 29.7768
21.203 28.9153
21.3846 29.3406
21.5662 31.9555
21.7479 29.7891
21.9297 31.3071
22.1115 41.2547
22.2933 41.486
22.4753 34.7841
22.6572 30.1611
22.8393 30.5811
23.0214 31.0726
23.2037 39.2938
23.3859 33.47
23.5682 33.8942
23.7505 34.4428
23.9329 39.7568
24.1154 29.3302
24.2979 27.4764
24.4805 26.6183
24.6631 26.691
24.8458 27.784
25.0286 26.2507
25.2114 26.4689
25.3943 28.7906
25.5773 30.3349
25.7605 28.292
25.9436 26.8123
26.1268 25.6526
26.31 26.686
26.4933 27.511
26.6767 25.8601
26.8601 27.3556
27.0437 29.8464
27.2272 26.5875
27.4109 24.7696
27.5946 24.6508
27.7784 25.0264
27.9623 25.1473
28.1462 25.5936
28.3304 26.9519
28.5145 26.834
28.6987 24.7617
28.8829 23.0292
29.0673 22.7
29.2517 23.322
29.4361 22.1884
29.6207 21.9688
29.8053 22.5101
29.99 21.3248
30.1748 21.364
30.3597 21.1723
30.5447 21.4305
30.7297 21.0851
30.915 21.3224
31.1002 22.6302
31.2855 21.4569
31.4708 20.468
31.6563 20.6462
31.8418 21.3303
32.0275 20.4231
32.2132 20.4151
32.399 20.6
32.5848 19.6958
32.7708 18.9609
32.9569 18.8337
33.143 18.7585
33.3293 18.4418
33.5158 18.7854
33.7022 18.823
33.8887 18.0011
34.0753 17.7468
34.262 17.6575
34.4488 17.2531
34.6357 16.9983
34.8227 16.931
35.0098 16.6062
35.1969 16.3507
35.3842 16.2304
35.5716 16.223
35.759 16.46
35.9468 16.5155
36.1345 15.8791
36.3222 15.6294
36.5101 15.5638
36.6981 15.419
36.8861 15.1648
37.0743 15.192
37.2626 14.7666
37.451 14.53
37.6395 14.3872
37.8281 14.1806
38.0168 14.0465
38.2056 13.9031
38.3945 13.5985
38.5837 13.4718
38.7728 13.4342
38.9621 13.2012
39.1514 13.1092
39.3409 12.8242
39.5304 12.6519
39.7201 12.5104
39.9099 12.4099
40.0999 12.3086
40.2899 12.2393
40.48 11.9586
40.6703 11.9107
40.8607 11.7751
41.0512 11.6289
41.242 11.4848
41.4327 11.3323
41.6236 11.1531
41.8146 11.0193
42.0057 10.9059
42.1969 10.8153
42.3882 10.6785
42.5797 10.4835
42.7713 10.3518
42.963 10.1875
43.1549 10.0738
43.3468 9.89839
43.5389 9.80456
43.7312 9.67247
43.9237 9.54333
44.1162 9.43941
44.3088 9.33452
44.5016 9.14574
44.6945 9.10358
44.8875 8.93156
45.0806 8.82131
45.2739 8.72788
45.4673 8.55986
45.6609 8.50386
45.8546 8.37635
46.0484 8.27127
46.2424 8.14193
46.4365 8.04498
46.631 7.90516
46.8254 7.82132
47.0199 7.67548
47.2146 7.55926
47.4095 7.45422
47.6044 7.36197
47.7996 7.24979
47.9948 7.18167
48.1902 7.07439
48.3858 6.98772
48.5815 6.85861
48.7774 6.76297
48.9734 6.65967
49.1696 6.56163
49.3661 6.47421
49.5626 6.38575
49.7592 6.26608
49.956 6.2036
50.153 6.12465
50.3501 6.02693
50.5474 5.97777
50.7448 5.87575
50.9424 5.78944
51.1402 5.68692
51.3381 5.59556
51.5362 5.53622
51.7344 5.43445
51.9328 5.36747
52.1316 5.26995
52.3304 5.18761
52.5293 5.10927
52.7284 4.99206
52.9276 4.94252
53.1271 4.90393
53.3267 4.75867
53.5265 4.66491
53.7264 4.64903
53.9266 4.53585
54.1269 4.43436
54.3274 4.36178
54.528 4.24419
54.7289 4.09028
54.9301 3.97959
55.1314 3.86345
55.3328 3.70743
55.5344 3.55019
55.7361 3.4378