File: XRD/Ni3Fe_FD0601.xy
TT I
1.27165 7.66737
1.45013 6.31526
1.62863 5.80767
1.80712 4.61721
1.98562 4.41594
2.16411 4.85073
2.34263 5.13747
2.52115 6.88129
2.69965 7.80254
2.87818 8.4574
3.05672 10.7883
3.23527 14.8497
3.4138 18.3613
3.59237 23.1916
3.77094 25.8186
3.9495 29.8152
4.12809 35.1911
4.30669 112.705
4.4853 54.9916
4.6639 55.9504
4.84253 68.4676
5.02118 89.1781
5.19981 432.528
5.37848 205.433
5.55716 104.114
5.73586 94.1744
5.91455 96.9774
6.09328 4270.68
6.27201 82.6466
6.45075 68.6467
6.62952 62.8969
6.8083 59.5056
6.98711 56.171
7.16591 56.3885
7.34475 69.9762
7.5236 54.5223
7.70247 56.6777
7.88135 57.8337
8.06026 63.1674
8.23919 70.0528
8.41812 85.4657
8.59709 1237.5
8.77609 100.73
8.9551 89.7798
9.13412 83.8362
9.31318 84.9875
9.49226 86.0873
9.67134 95.442
9.85047 101.975
10.0296 381.507
10.2088 410.893
10.388 106.305
10.5672 503.225
10.7465 87.3896
10.9257 78.4598
11.105 72.1535
11.2844 69.4198
11.4637 65.1537
11.6431 63.9035
11.8225 63.1967
12.002 64.8564
12.1814 154.808
12.3609 68.2193
12.5405 64.9939
12.72 68.7068
12.8996 72.015
13.0792 80.8984
13.2589 253.108
13.4386 128.051
13.6183 254.413
13.7981 100.874
13.9779 76.5472
14.1577 72.7201
14.3376 71.0966
14.5175 69.5567
14.6974 71.4277
14.8774 116.823
15.0574 150.395
15.2374 70.2135
15.4175 67.1023
15.5976 66.5742
15.7778 99.7189
15.958 153.547
16.1382 62.2302
16.3185 58.4297
16.4988 55.866
16.6792 55.0699
16.8596 55.5158
17.04 56.5412
17.2205 67.9222
17.401 72.4154
17.5815 59.8612
17.7622 61.8905
17.9428 75.6689
18.1237 138.096
18.3044 92.1311
18.4852 78.5492
18.666 60.7374
18.8469 58.5825
19.0278 57.384
19.2088 60.2822
19.3898 75.2046
19.5709 54.8362
19.752 53.8173
19.9332 56.9002
20.1144 69.426
20.2957 63.7748
20.477 53.9263
20.6586 50.106
20.84 49.2318
21.0215 49.1012
21.203 51.2147
21.3846 49.4117
21.5662 49.2563
21.7479 53.6042
21.9297 64.4906
22.1115 56.1722
22.2933 50.3071
22.4753 49.1484
22.6572 49.2662
22.8393 52.7001
23.0214 57.4476
23.2037 49.1724
23.3859 50.4598
23.5682 56.8098
23.7505 48.8495
23.9329 45.6312
24.1154 44.4908
24.2979 43.6875
24.4805 43.2749
24.6631 43.0231
24.8458 42.6276
25.0286 43.2615
25.2114 45.0978
25.3943 44.8083
25.5773 41.1615
25.7605 40.7943
25.9436 41.2986
26.1268 41.9992
26.31 40.4243
26.4933 41.1873
26.6767 42.3875
26.8601 40.6648
27.0437 39.1573
27.2272 38.8461
27.4109 38.5927
27.5946 38.6614
27.7784 38.2612
27.9623 38.6397
28.1462 39.0272
28.3304 37.4444
28.5145 36.3078
28.6987 35.9241
28.8829 35.5853
29.0673 34.9916
29.2517 34.6397
29.4361 34.309
29.6207 33.3664
29.8053 33.1086
29.99 32.8207
30.1748 32.8176
30.3597 32.5184
30.5447 32.3189
30.7297 32.4213
30.915 31.7741
31.1002 31.328
31.2855 31.0449
31.4708 31.0664
31.6563 30.5872
31.8418 30.3784
32.0275 30.0551
32.2132 29.5998
32.399 29.1206
32.5848 28.651
32.7708 28.3907
32.9569 28.3215
33.143 27.9642
33.3293 27.4755
33.5158 27.2716
33.7022 26.8678
33.8887 26.4431
34.0753 26.1507
34.262 25.8397
34.4488 25.4211
34.6357 25.1168
34.8227 24.8522
35.0098 24.6431
35.1969 24.4313
35.3842 24.1672
35.5716 23.9047
35.759 23.605
35.9468 23.2802
36.1345 23.0555
36.3222 22.8048
36.5101 22.6638
36.6981 22.2807
36.8861 21.9771
37.0743 21.7059
37.2626 21.3532
37.451 21.1061
37.6395 20.9602
37.8281 20.5727
38.0168 20.3873
38.2056 20.046
38.3945 19.8277
38.5837 19.5493
38.7728 19.3315
38.9621 19.0798
39.1514 18.8017
39.3409 18.5185
39.5304 18.3395
39.7201 18.1994
39.9099 18.0023
40.0999 17.7419
40.2899 17.4848
40.48 17.1891
40.6703 16.9648
40.8607 16.8572
41.0512 16.6163
41.242 16.3718
41.4327 16.1644
41.6236 15.9586
41.8146 15.7148
42.0057 15.5012
42.1969 15.3009
42.3882 15.0955
42.5797 14.9257
42.7713 14.7316
42.963 14.4823
43.1549 14.2947
43.3468 14.1127
43.5389 13.9293
43.7312 13.7104
43.9237 13.5662
44.1162 13.3581
44.3088 13.131
44.5016 12.9698
44.6945 12.7986
44.8875 12.6287
45.0806 12.4359
45.2739 12.3054
45.4673 12.0891
45.6609 11.9706
45.8546 11.792
46.0484 11.5513
46.2424 11.4089
46.4365 11.2817
46.631 11.0859
46.8254 10.9005
47.0199 10.7365
47.2146 10.6209
47.4095 10.443
47.6044 10.2877
47.7996 10.1449
47.9948 9.97556
48.1902 9.82824
48.3858 9.72603
48.5815 9.54269
48.7774 9.43077
48.9734 9.30537
49.1696 9.1564
49.3661 9.00002
49.5626 8.85132
49.7592 8.73002
49.956 8.61227
50.153 8.46701
50.3501 8.33408
50.5474 8.2293
50.7448 8.10949
50.9424 7.98337
51.1402 7.85653
51.3381 7.69966
51.5362 7.59349
51.7344 7.48702
51.9328 7.30781
52.1316 7.22783
52.3304 7.1279
52.5293 6.98305
52.7284 6.83313
52.9276 6.75769
53.1271 6.63258
53.3267 6.53559
53.5265 6.42904
53.7264 6.32168
53.9266 6.20642
54.1269 6.05472
54.3274 5.99256
54.528 5.84178
54.7289 5.68493
54.9301 5.48375
55.1314 5.3722
55.3328 5.16273
55.5344 4.99392
55.7361 4.87672