File: XRD/Ni3Fe_FD0924.xy
TT I
1.27165 7.28037
1.45013 5.55137
1.62863 5.57762
1.80712 4.31166
1.98562 4.45454
2.16411 5.08439
2.34263 6.19907
2.52115 7.47478
2.69965 8.77113
2.87818 9.29922
3.05672 11.7908
3.23527 15.1671
3.4138 18.4914
3.59237 22.9097
3.77094 25.2986
3.9495 29.2635
4.12809 33.7375
4.30669 103.948
4.4853 53.5267
4.6639 55.0176
4.84253 67.8804
5.02118 85.768
5.19981 369.039
5.37848 191.537
5.55716 100.786
5.73586 91.6105
5.91455 93.2842
6.09328 4649.74
6.27201 78.8096
6.45075 69.0064
6.62952 62.37
6.8083 58.91
6.98711 54.7604
7.16591 55.769
7.34475 66.9785
7.5236 53.5926
7.70247 56.0236
7.88135 56.9108
8.06026 62.1667
8.23919 68.2623
8.41812 82.2704
8.59709 1206.67
8.77609 96.0796
8.9551 88.739
9.13412 81.8228
9.31318 83.7633
9.49226 83.688
9.67134 94.1884
9.85047 100.459
10.0296 330.46
10.2088 324.346
10.388 103.13
10.5672 546.064
10.7465 84.8337
10.9257 77.0527
11.105 70.3481
11.2844 67.6255
11.4637 63.8347
11.6431 62.5425
11.8225 61.6164
12.002 63.4202
12.1814 158.631
12.3609 65.719
12.5405 64.2274
12.72 66.9052
12.8996 70.1685
13.0792 78.9215
13.2589 245.934
13.4386 115.031
13.6183 258.874
13.7981 91.9185
13.9779 74.5516
14.1577 70.771
14.3376 69.1769
14.5175 67.828
14.6974 69.5978
14.8774 110.199
15.0574 137.629
15.2374 68.444
15.4175 65.4883
15.5976 64.708
15.7778 93.7144
15.958 146.728
16.1382 60.287
16.3185 56.8914
16.4988 54.5726
16.6792 53.6691
16.8596 53.9586
17.04 54.9649
17.2205 65.9109
17.401 67.7032
17.5815 58.1095
17.7622 60.3156
17.9428 72.2872
18.1237 140.21
18.3044 90.7634
18.4852 72.7594
18.666 59.3119
18.8469 57.0705
19.0278 55.5997
19.2088 58.1818
19.3898 74.8489
19.5709 53.1116
19.752 52.4397
19.9332 55.3841
20.1144 69.6684
20.2957 64.0721
20.477 51.9611
20.6586 48.7039
20.84 47.9833
21.0215 47.82
21.203 50.2503
21.3846 47.9346
21.5662 48.1653
21.7479 51.8099
21.9297 64.1558
22.1115 55.6166
22.2933 48.7253
22.4753 47.8989
22.6572 48.1831
22.8393 51.3608
23.0214 56.209
23.2037 47.9352
23.3859 48.9396
23.5682 56.9611
23.7505 46.9096
23.9329 44.4463
24.1154 43.3111
24.2979 42.6677
24.4805 42.4302
24.6631 42.1056
24.8458 41.393
25.0286 42.2892
25.2114 43.9595
25.3943 43.783
25.5773 40.1787
25.7605 39.8315
25.9436 40.1455
26.1268 41.0723
26.31 39.4425
26.4933 40.088
26.6767 41.4636
26.8601 39.7178
27.0437 38.2693
27.2272 37.8807
27.4109 37.7977
27.5946 37.6507
27.7784 37.2534
27.9623 37.9169
28.1462 38.0952
28.3304 36.4369
28.5145 35.3408
28.6987 34.9655
28.8829 34.9528
29.0673 34.0318
29.2517 33.7773
29.4361 33.5688
29.6207 32.5781
29.8053 32.4249
29.99 31.9116
30.1748 31.9762
30.3597 31.6639
30.5447 31.6968
30.7297 31.7326
30.915 31.1364
31.1002 30.6715
31.2855 30.3991
31.4708 30.2421
31.6563 29.8341
31.8418 29.7446
32.0275 29.413
32.2132 28.9113
32.399 28.4348
32.5848 27.9725
32.7708 27.7737
32.9569 27.5867
33.143 27.2878
33.3293 26.9488
33.5158 26.621
33.7022 26.2045
33.8887 25.9151
34.0753 25.5692
34.262 25.2513
34.4488 24.8937
34.6357 24.5129
34.8227 24.276
35.0098 24.054
35.1969 23.7938
35.3842 23.5902
35.5716 23.3427
35.759 23.0744
35.9468 22.7703
36.1345 22.49
36.3222 22.2683
36.5101 22.0497
36.6981 21.7991
36.8861 21.4779
37.0743 21.1112
37.2626 20.8433
37.451 20.6568
37.6395 20.4687
37.8281 20.1277
38.0168 19.888
38.2056 19.616
38.3945 19.3209
38.5837 19.0969
38.7728 18.898
38.9621 18.5536
39.1514 18.3755
39.3409 18.1481
39.5304 17.9185
39.7201 17.7412
39.9099 17.5566
40.0999 17.3194
40.2899 17.1266
40.48 16.8439
40.6703 16.6185
40.8607 16.414
41.0512 16.245
41.242 16.0203
41.4327 15.7864
41.6236 15.537
41.8146 15.3735
42.0057 15.2129
42.1969 15.0034
42.3882 14.7902
42.5797 14.5822
42.7713 14.3651
42.963 14.1998
43.1549 13.9754
43.3468 13.7619
43.5389 13.6394
43.7312 13.3841
43.9237 13.2346
44.1162 13.0094
44.3088 12.8651
44.5016 12.6831
44.6945 12.52
44.8875 12.3677
45.0806 12.1803
45.2739 11.9759
45.4673 11.8401
45.6609 11.6766
45.8546 11.5042
46.0484 11.3619
46.2424 11.1603
46.4365 11.0124
46.631 10.8255
46.8254 10.6611
47.0199 10.537
47.2146 10.4022
47.4095 10.1933
47.6044 10.0922
47.7996 9.92755
47.9948 9.75667
48.1902 9.63147
48.3858 9.48913
48.5815 9.36637
48.7774 9.25659
48.9734 9.07222
49.1696 8.94241
49.3661 8.80533
49.5626 8.63217
49.7592 8.55833
49.956 8.42331
50.153 8.2739
50.3501 8.1517
50.5474 8.02394
50.7448 7.89389
50.9424 7.8164
51.1402 7.69289
51.3381 7.53431
51.5362 7.42611
51.7344 7.31098
51.9328 7.16709
52.1316 7.03956
52.3304 6.97628
52.5293 6.82811
52.7284 6.73331
52.9276 6.5991
53.1271 6.53616
53.3267 6.37694
53.5265 6.27266
53.7264 6.18366
53.9266 6.0444
54.1269 5.95171
54.3274 5.83063
54.528 5.68537
54.7289 5.59787
54.9301 5.38251
55.1314 5.27738
55.3328 5.06234
55.5344 4.85341
55.7361 4.70419