File: XRD/Ni3Fe_FD0825.xy
TT I
1.27165 7.07761
1.45013 5.79085
1.62863 5.65649
1.80712 4.80976
1.98562 4.75583
2.16411 4.72234
2.34263 4.71127
2.52115 7.1784
2.69965 8.2686
2.87818 8.8365
3.05672 11.2291
3.23527 15.1258
3.4138 18.3244
3.59237 23.4678
3.77094 25.4762
3.9495 29.4656
4.12809 33.8307
4.30669 96.1168
4.4853 52.6348
4.6639 55.0696
4.84253 68.4148
5.02118 86.3291
5.19981 403.282
5.37848 194.093
5.55716 101.563
5.73586 92.2974
5.91455 94.7335
6.09328 4596.12
6.27201 79.2445
6.45075 69.6615
6.62952 62.747
6.8083 59.1707
6.98711 55.0707
7.16591 55.6897
7.34475 65.2255
7.5236 53.8158
7.70247 56.4239
7.88135 57.1058
8.06026 61.985
8.23919 68.9405
8.41812 82.9367
8.59709 1219.47
8.77609 96.7899
8.9551 88.8471
9.13412 82.3547
9.31318 84.5893
9.49226 84.2547
9.67134 94.3951
9.85047 100.842
10.0296 343.079
10.2088 350.277
10.388 104.448
10.5672 538.15
10.7465 85.48
10.9257 77.0131
11.105 70.7267
11.2844 67.4922
11.4637 64.1419
11.6431 62.6638
11.8225 62.1543
12.002 63.9061
12.1814 161.031
12.3609 65.939
12.5405 64.3448
12.72 67.3077
12.8996 70.6873
13.0792 79.8849
13.2589 249.226
13.4386 117.791
13.6183 258.595
13.7981 93.4149
13.9779 75.1144
14.1577 70.847
14.3376 69.3762
14.5175 68.3871
14.6974 70.0484
14.8774 111.713
15.0574 140.404
15.2374 68.6714
15.4175 65.58
15.5976 65.4281
15.7778 95.6539
15.958 146.32
16.1382 60.7473
16.3185 57.3517
16.4988 54.7705
16.6792 53.8335
16.8596 54.1347
17.04 55.4485
17.2205 66.9489
17.401 68.399
17.5815 58.5322
17.7622 60.8168
17.9428 73.1833
18.1237 141.067
18.3044 91.4401
18.4852 73.8141
18.666 59.4079
18.8469 57.5382
19.0278 56.1772
19.2088 58.8189
19.3898 75.5949
19.5709 53.4561
19.752 52.8111
19.9332 55.4046
20.1144 69.7839
20.2957 63.9946
20.477 52.3092
20.6586 49.1049
20.84 48.2657
21.0215 48.1584
21.203 50.5006
21.3846 48.3021
21.5662 48.551
21.7479 52.399
21.9297 64.2267
22.1115 55.5506
22.2933 49.0522
22.4753 48.1401
22.6572 48.5359
22.8393 51.5579
23.0214 56.3335
23.2037 48.1987
23.3859 49.3489
23.5682 56.8951
23.7505 47.2436
23.9329 44.6673
24.1154 43.7725
24.2979 42.8536
24.4805 42.5802
24.6631 42.394
24.8458 41.7313
25.0286 42.5175
25.2114 44.1775
25.3943 44.1062
25.5773 40.3534
25.7605 39.9561
25.9436 40.4188
26.1268 41.2029
26.31 39.7345
26.4933 40.2915
26.6767 41.6571
26.8601 39.9415
27.0437 38.4426
27.2272 37.9849
27.4109 38.064
27.5946 37.9629
27.7784 37.4767
27.9623 38.1529
28.1462 38.3442
28.3304 36.6715
28.5145 35.593
28.6987 35.242
28.8829 35.0238
29.0673 34.3012
29.2517 33.9278
29.4361 33.6752
29.6207 32.6752
29.8053 32.4515
29.99 32.3178
30.1748 32.0358
30.3597 31.8415
30.5447 31.8675
30.7297 31.9732
30.915 31.201
31.1002 30.8629
31.2855 30.4275
31.4708 30.6046
31.6563 30.0462
31.8418 29.8314
32.0275 29.5297
32.2132 29.0653
32.399 28.588
32.5848 28.2041
32.7708 27.8715
32.9569 27.6917
33.143 27.5432
33.3293 27.0896
33.5158 26.7257
33.7022 26.2917
33.8887 26.0374
34.0753 25.7488
34.262 25.3133
34.4488 24.9949
34.6357 24.7444
34.8227 24.4168
35.0098 24.1577
35.1969 23.9468
35.3842 23.7585
35.5716 23.4753
35.759 23.1592
35.9468 22.8339
36.1345 22.6901
36.3222 22.3968
36.5101 22.2367
36.6981 21.8839
36.8861 21.5971
37.0743 21.2655
37.2626 20.9763
37.451 20.7048
37.6395 20.5888
37.8281 20.2037
38.0168 19.9386
38.2056 19.742
38.3945 19.4663
38.5837 19.2075
38.7728 19.0169
38.9621 18.7195
39.1514 18.4527
39.3409 18.2529
39.5304 18.1014
39.7201 17.8599
39.9099 17.5989
40.0999 17.4305
40.2899 17.2046
40.48 16.8996
40.6703 16.7367
40.8607 16.5949
41.0512 16.3616
41.242 16.0191
41.4327 15.9358
41.6236 15.6778
41.8146 15.5053
42.0057 15.2363
42.1969 15.047
42.3882 14.8786
42.5797 14.6188
42.7713 14.4189
42.963 14.3431
43.1549 14.0624
43.3468 13.8486
43.5389 13.6769
43.7312 13.4695
43.9237 13.2892
44.1162 13.0955
44.3088 12.9248
44.5016 12.7605
44.6945 12.554
44.8875 12.4127
45.0806 12.2301
45.2739 12.0356
45.4673 11.8878
45.6609 11.7271
45.8546 11.6025
46.0484 11.4144
46.2424 11.2451
46.4365 11.0871
46.631 10.8797
46.8254 10.7417
47.0199 10.5857
47.2146 10.4465
47.4095 10.2846
47.6044 10.1376
47.7996 9.98047
47.9948 9.81348
48.1902 9.67199
48.3858 9.56738
48.5815 9.41654
48.7774 9.2934
48.9734 9.12267
49.1696 9.02579
49.3661 8.86004
49.5626 8.69792
49.7592 8.57631
49.956 8.48985
50.153 8.34345
50.3501 8.21547
50.5474 8.0967
50.7448 7.95439
50.9424 7.83193
51.1402 7.74167
51.3381 7.56047
51.5362 7.52797
51.7344 7.30613
51.9328 7.22022
52.1316 7.11321
52.3304 6.97611
52.5293 6.86367
52.7284 6.74441
52.9276 6.63257
53.1271 6.56167
53.3267 6.43493
53.5265 6.27886
53.7264 6.2137
53.9266 6.089
54.1269 5.98275
54.3274 5.85047
54.528 5.72567
54.7289 5.58426
54.9301 5.44851
55.1314 5.27684
55.3328 5.07627
55.5344 4.92464
55.7361 4.80697