File: XRD/Ni3Fe_FD0178.xy
TT I
1.27165 7.79752
1.45013 6.20804
1.62863 5.47068
1.80712 5.19657
1.98562 5.40773
2.16411 4.56275
2.34263 3.88826
2.52115 4.7028
2.69965 6.23367
2.87818 8.73515
3.05672 11.7221
3.23527 15.3178
3.4138 18.7218
3.59237 22.2716
3.77094 24.8724
3.9495 28.7835
4.12809 33.5752
4.30669 37.9435
4.4853 45.6036
4.6639 54.5066
4.84253 66.7241
5.02118 90.7153
5.19981 522.163
5.37848 409.525
5.55716 107.508
5.73586 95.8161
5.91455 104.734
6.09328 2874.74
6.27201 88.5053
6.45075 66.8103
6.62952 60.3744
6.8083 55.9145
6.98711 53.9443
7.16591 52.7074
7.34475 52.7015
7.5236 55.7543
7.70247 54.268
7.88135 56.8064
8.06026 60.9701
8.23919 68.2923
8.41812 83.9605
8.59709 921.06
8.77609 115.301
8.9551 85.981
9.13412 81.7249
9.31318 86.1987
9.49226 83.8527
9.67134 89.1539
9.85047 99.649
10.0296 535.387
10.2088 946.574
10.388 105.227
10.5672 345.334
10.7465 90.7037
10.9257 76.3286
11.105 70.6953
11.2844 66.5963
11.4637 64.0268
11.6431 62.6154
11.8225 61.5913
12.002 65.4295
12.1814 121.583
12.3609 73.6371
12.5405 63.6682
12.72 65.5773
12.8996 70.1112
13.0792 79.5616
13.2589 209.999
13.4386 201.535
13.6183 199.45
13.7981 149.869
13.9779 76.5898
14.1577 74.1985
14.3376 69.6132
14.5175 68.7473
14.6974 70.1899
14.8774 121.441
15.0574 205.131
15.2374 69.2054
15.4175 66.7657
15.5976 66.2236
15.7778 107.499
15.958 187.522
16.1382 61.9359
16.3185 57.6914
16.4988 55.4258
16.6792 54.4584
16.8596 54.7664
17.04 55.5952
17.2205 66.002
17.401 81.5507
17.5815 59.4562
17.7622 61.9305
17.9428 83.9476
18.1237 118.644
18.3044 89.3268
18.4852 94.6889
18.666 61.306
18.8469 58.7306
19.0278 57.2387
19.2088 62.1003
19.3898 70.416
19.5709 56.6237
19.752 53.8286
19.9332 58.7373
20.1144 68.0817
20.2957 61.8906
20.477 59.1992
20.6586 50.154
20.84 49.4978
21.0215 49.3882
21.203 50.2811
21.3846 50.6903
21.5662 49.4684
21.7479 54.5339
21.9297 63.1218
22.1115 56.9965
22.2933 52.8603
22.4753 49.4663
22.6572 49.4132
22.8393 52.6309
23.0214 57.8635
23.2037 50.1209
23.3859 52.107
23.5682 54.5813
23.7505 53.2382
23.9329 46.0526
24.1154 44.6268
24.2979 44.1288
24.4805 43.4635
24.6631 43.5666
24.8458 42.9545
25.0286 43.3342
25.2114 45.0157
25.3943 45.3839
25.5773 42.1828
25.7605 41.1393
25.9436 41.4359
26.1268 42.1924
26.31 41.1147
26.4933 41.3869
26.6767 42.5516
26.8601 41.6482
27.0437 39.8553
27.2272 39.3767
27.4109 39.0216
27.5946 39.2615
27.7784 38.9417
27.9623 38.8769
28.1462 39.8451
28.3304 38.4639
28.5145 36.6228
28.6987 36.2488
28.8829 35.8538
29.0673 35.4971
29.2517 34.9208
29.4361 34.6912
29.6207 33.8272
29.8053 33.3441
29.99 33.0956
30.1748 32.7502
30.3597 32.884
30.5447 32.6899
30.7297 32.6264
30.915 32.4346
31.1002 31.8587
31.2855 31.3988
31.4708 31.2696
31.6563 31.1397
31.8418 30.7325
32.0275 30.499
32.2132 30.0434
32.399 29.4992
32.5848 29.0237
32.7708 28.6724
32.9569 28.4946
33.143 28.3624
33.3293 27.9598
33.5158 27.6416
33.7022 27.0707
33.8887 26.8052
34.0753 26.5049
34.262 26.1096
34.4488 25.757
34.6357 25.3873
34.8227 25.1037
35.0098 24.934
35.1969 24.5809
35.3842 24.3921
35.5716 24.1556
35.759 23.8645
35.9468 23.5318
36.1345 23.3222
36.3222 23.1156
36.5101 22.7838
36.6981 22.5315
36.8861 22.2451
37.0743 21.8573
37.2626 21.641
37.451 21.3804
37.6395 21.1813
37.8281 20.8722
38.0168 20.5637
38.2056 20.3804
38.3945 20.0009
38.5837 19.8401
38.7728 19.4969
38.9621 19.3267
39.1514 18.9785
39.3409 18.7398
39.5304 18.5137
39.7201 18.3756
39.9099 18.1592
40.0999 17.9135
40.2899 17.6486
40.48 17.4458
40.6703 17.2246
40.8607 17.0819
41.0512 16.8169
41.242 16.5681
41.4327 16.3314
41.6236 16.0998
41.8146 15.8768
42.0057 15.6648
42.1969 15.4509
42.3882 15.3179
42.5797 15.0535
42.7713 14.8602
42.963 14.6665
43.1549 14.4895
43.3468 14.271
43.5389 14.0616
43.7312 13.8695
43.9237 13.6535
44.1162 13.5202
44.3088 13.2683
44.5016 13.0997
44.6945 12.9711
44.8875 12.7872
45.0806 12.57
45.2739 12.3792
45.4673 12.2417
45.6609 12.0445
45.8546 11.886
46.0484 11.7383
46.2424 11.555
46.4365 11.4272
46.631 11.2175
46.8254 11.0393
47.0199 10.8751
47.2146 10.7435
47.4095 10.5744
47.6044 10.397
47.7996 10.2524
47.9948 10.122
48.1902 9.93184
48.3858 9.82963
48.5815 9.70613
48.7774 9.55559
48.9734 9.42697
49.1696 9.23093
49.3661 9.15426
49.5626 8.92497
49.7592 8.8581
49.956 8.72922
50.153 8.57432
50.3501 8.43453
50.5474 8.32345
50.7448 8.1859
50.9424 8.08979
51.1402 7.93741
51.3381 7.82004
51.5362 7.7059
51.7344 7.55217
51.9328 7.40872
52.1316 7.27354
52.3304 7.19435
52.5293 7.05033
52.7284 6.98488
52.9276 6.86593
53.1271 6.71176
53.3267 6.63284
53.5265 6.48914
53.7264 6.38041
53.9266 6.32154
54.1269 6.1379
54.3274 6.02354
54.528 5.83839
54.7289 5.71123
54.9301 5.52667
55.1314 5.36952
55.3328 5.1784
55.5344 4.95524
55.7361 4.79034