File: XRD/Ni3Fe_FD0370.xy
TT I
1.27165 7.08306
1.45013 6.07247
1.62863 5.73782
1.80712 5.03458
1.98562 4.98783
2.16411 4.68306
2.34263 5.58068
2.52115 5.69053
2.69965 7.31603
2.87818 8.57007
3.05672 10.9674
3.23527 14.9052
3.4138 19.3654
3.59237 23.721
3.77094 26.5707
3.9495 30.4037
4.12809 34.7905
4.30669 117.629
4.4853 56.3451
4.6639 57.38
4.84253 70.1165
5.02118 91.7755
5.19981 561.981
5.37848 230.794
5.55716 107.227
5.73586 96.4609
5.91455 101.543
6.09328 3990.05
6.27201 86.2157
6.45075 69.7661
6.62952 63.8985
6.8083 59.8066
6.98711 56.7903
7.16591 56.5105
7.34475 72.1921
7.5236 55.6584
7.70247 57.3723
7.88135 59.5395
8.06026 64.3508
8.23919 71.7924
8.41812 88.6305
8.59709 1200.36
8.77609 105.194
8.9551 91.8262
9.13412 85.1936
9.31318 86.2066
9.49226 87.6951
9.67134 97.1369
9.85047 104.456
10.0296 441.071
10.2088 505.678
10.388 109.57
10.5672 470.829
10.7465 89.8121
10.9257 80.1125
11.105 73.6011
11.2844 70.7504
11.4637 66.8769
11.6431 65.605
11.8225 64.2337
12.002 66.1643
12.1814 149.899
12.3609 70.4961
12.5405 66.4864
12.72 70.5454
12.8996 73.41
13.0792 83.1364
13.2589 249.201
13.4386 138.407
13.6183 244.795
13.7981 106.441
13.9779 78.2257
14.1577 74.3366
14.3376 72.6027
14.5175 71.0964
14.6974 72.9569
14.8774 120.956
15.0574 160.36
15.2374 72.0427
15.4175 68.3077
15.5976 68.1977
15.7778 103.901
15.958 164.63
16.1382 63.5327
16.3185 59.7094
16.4988 57.2155
16.6792 56.1221
16.8596 56.5883
17.04 57.7917
17.2205 69.342
17.401 74.502
17.5815 61.2427
17.7622 63.1536
17.9428 79.0675
18.1237 134.629
18.3044 92.1935
18.4852 80.8889
18.666 62.1941
18.8469 59.6743
19.0278 58.447
19.2088 61.8683
19.3898 75.81
19.5709 55.8504
19.752 54.8733
19.9332 58.5186
20.1144 70.7015
20.2957 64.328
20.477 55.5566
20.6586 51.1168
20.84 50.2314
21.0215 50.125
21.203 51.9374
21.3846 50.5868
21.5662 50.5404
21.7479 54.7667
21.9297 65.2693
22.1115 57.1109
22.2933 51.4323
22.4753 50.2705
22.6572 50.5633
22.8393 53.6849
23.0214 58.571
23.2037 50.3003
23.3859 51.575
23.5682 57.2281
23.7505 50.3065
23.9329 46.5667
24.1154 45.5495
24.2979 44.7328
24.4805 44.1277
24.6631 44.0313
24.8458 43.4439
25.0286 44.0532
25.2114 45.9189
25.3943 45.7635
25.5773 42.1104
25.7605 41.6056
25.9436 42.0142
26.1268 42.7903
26.31 41.2246
26.4933 41.9418
26.6767 43.1666
26.8601 41.6802
27.0437 40.054
27.2272 39.815
27.4109 39.4285
27.5946 39.6258
27.7784 38.9764
27.9623 39.3511
28.1462 40.0029
28.3304 38.2702
28.5145 37.0791
28.6987 36.6601
28.8829 36.331
29.0673 35.6411
29.2517 35.2862
29.4361 34.9704
29.6207 34.0616
29.8053 33.722
29.99 33.5372
30.1748 33.3345
30.3597 33.1426
30.5447 33.0611
30.7297 33.1336
30.915 32.4598
31.1002 32.0271
31.2855 31.7211
31.4708 31.6083
31.6563 31.4113
31.8418 31.0389
32.0275 30.7899
32.2132 30.1958
32.399 29.7313
32.5848 29.3227
32.7708 28.9521
32.9569 28.6981
33.143 28.5343
33.3293 28.1945
33.5158 27.8334
33.7022 27.3151
33.8887 27.0302
34.0753 26.694
34.262 26.3969
34.4488 25.9583
34.6357 25.6173
34.8227 25.3789
35.0098 25.1339
35.1969 24.8451
35.3842 24.6119
35.5716 24.3639
35.759 24.1024
35.9468 23.756
36.1345 23.5157
36.3222 23.335
36.5101 23.0502
36.6981 22.6531
36.8861 22.3926
37.0743 22.1044
37.2626 21.7631
37.451 21.5578
37.6395 21.4496
37.8281 21.0376
38.0168 20.7539
38.2056 20.4865
38.3945 20.1556
38.5837 19.9213
38.7728 19.7397
38.9621 19.443
39.1514 19.2058
39.3409 18.9811
39.5304 18.7564
39.7201 18.5098
39.9099 18.3251
40.0999 18.071
40.2899 17.8417
40.48 17.6351
40.6703 17.3619
40.8607 17.2081
41.0512 16.969
41.242 16.7106
41.4327 16.547
41.6236 16.2691
41.8146 16.1074
42.0057 15.8442
42.1969 15.6505
42.3882 15.4635
42.5797 15.2221
42.7713 15.0246
42.963 14.7837
43.1549 14.5436
43.3468 14.3797
43.5389 14.2009
43.7312 13.9364
43.9237 13.8329
44.1162 13.5796
44.3088 13.4186
44.5016 13.2303
44.6945 13.0999
44.8875 12.8785
45.0806 12.66
45.2739 12.513
45.4673 12.3732
45.6609 12.1858
45.8546 12.0187
46.0484 11.7947
46.2424 11.6303
46.4365 11.5757
46.631 11.2801
46.8254 11.1333
47.0199 10.9685
47.2146 10.8257
47.4095 10.6619
47.6044 10.4664
47.7996 10.3522
47.9948 10.1966
48.1902 10.0291
48.3858 9.92141
48.5815 9.75025
48.7774 9.64354
48.9734 9.48349
49.1696 9.32551
49.3661 9.2117
49.5626 9.03959
49.7592 8.9283
49.956 8.77516
50.153 8.65835
50.3501 8.49989
50.5474 8.38315
50.7448 8.22648
50.9424 8.12631
51.1402 8.00808
51.3381 7.85386
51.5362 7.7604
51.7344 7.59927
51.9328 7.52023
52.1316 7.33487
52.3304 7.25059
52.5293 7.13191
52.7284 7.0323
52.9276 6.86357
53.1271 6.80228
53.3267 6.67377
53.5265 6.53917
53.7264 6.46583
53.9266 6.34392
54.1269 6.17754
54.3274 6.06873
54.528 5.91417
54.7289 5.80459
54.9301 5.64321
55.1314 5.52154
55.3328 5.25169
55.5344 5.01866
55.7361 4.93129