File: XRD/Ni3Fe_FD0459.xy
TT I
1.27165 7.68909
1.45013 6.15854
1.62863 5.19084
1.80712 4.69894
1.98562 5.18433
2.16411 5.13536
2.34263 5.42449
2.52115 6.87819
2.69965 7.64433
2.87818 8.22459
3.05672 11.075
3.23527 15.122
3.4138 18.6721
3.59237 23.9603
3.77094 25.9036
3.9495 29.9534
4.12809 34.4622
4.30669 136.053
4.4853 57.6177
4.6639 56.4801
4.84253 69.0291
5.02118 90.4298
5.19981 519.934
5.37848 205.847
5.55716 104.82
5.73586 94.7214
5.91455 98.8301
6.09328 4192.05
6.27201 83.7069
6.45075 68.9105
6.62952 63.1976
6.8083 58.9609
6.98711 56.182
7.16591 56.0642
7.34475 75.4622
7.5236 55.2304
7.70247 56.853
7.88135 58.6383
8.06026 63.3964
8.23919 70.497
8.41812 86.8537
8.59709 1223.23
8.77609 101.722
8.9551 90.3184
9.13412 83.4267
9.31318 84.8991
9.49226 86.0478
9.67134 97.0866
9.85047 102.297
10.0296 408.818
10.2088 410.206
10.388 108.186
10.5672 492.119
10.7465 88.1966
10.9257 78.9237
11.105 72.5626
11.2844 70.3643
11.4637 65.8529
11.6431 64.3232
11.8225 63.6989
12.002 65.4738
12.1814 154.889
12.3609 69.4353
12.5405 65.4025
12.72 69.5001
12.8996 72.3345
13.0792 81.9035
13.2589 250.816
13.4386 124.756
13.6183 253.27
13.7981 97.63
13.9779 77.2686
14.1577 73.5361
14.3376 71.909
14.5175 69.9891
14.6974 72.0581
14.8774 117.96
15.0574 148.119
15.2374 71.243
15.4175 67.5042
15.5976 67.3864
15.7778 101.209
15.958 155.761
16.1382 62.9125
16.3185 59.0149
16.4988 56.3924
16.6792 55.3738
16.8596 55.8377
17.04 56.9961
17.2205 68.7604
17.401 71.7646
17.5815 60.349
17.7622 62.5178
17.9428 77.3407
18.1237 139.707
18.3044 91.9788
18.4852 78.2469
18.666 61.2887
18.8469 59.0236
19.0278 57.7841
19.2088 60.9969
19.3898 76.8017
19.5709 54.8527
19.752 54.3282
19.9332 57.5344
20.1144 70.5309
20.2957 64.4027
20.477 54.1869
20.6586 50.5761
20.84 49.5891
21.0215 49.3883
21.203 51.4668
21.3846 49.7084
21.5662 50.0073
21.7479 54.0102
21.9297 65.2648
22.1115 56.5341
22.2933 50.6506
22.4753 49.5879
22.6572 49.9129
22.8393 53.1311
23.0214 58.0556
23.2037 49.696
23.3859 50.7341
23.5682 57.4357
23.7505 48.8645
23.9329 45.8904
24.1154 44.7818
24.2979 44.1918
24.4805 43.6631
24.6631 43.3918
24.8458 42.9789
25.0286 43.6829
25.2114 45.3557
25.3943 45.2327
25.5773 41.6243
25.7605 41.1307
25.9436 41.5608
26.1268 42.3823
26.31 40.7119
26.4933 41.4619
26.6767 42.8315
26.8601 41.0332
27.0437 39.5697
27.2272 39.107
27.4109 39.0475
27.5946 38.9915
27.7784 38.5476
27.9623 39.0873
28.1462 39.4696
28.3304 37.8028
28.5145 36.599
28.6987 36.2325
28.8829 35.8288
29.0673 35.2482
29.2517 34.9049
29.4361 34.6916
29.6207 33.7378
29.8053 33.3822
29.99 33.1774
30.1748 32.8838
30.3597 32.7534
30.5447 32.7823
30.7297 32.7974
30.915 32.0789
31.1002 31.6489
31.2855 31.404
31.4708 31.3648
31.6563 30.8412
31.8418 30.6475
32.0275 30.4511
32.2132 29.8011
32.399 29.3369
32.5848 28.9881
32.7708 28.5521
32.9569 28.4737
33.143 28.3662
33.3293 27.8342
33.5158 27.5295
33.7022 27.075
33.8887 26.7089
34.0753 26.3142
34.262 25.9435
34.4488 25.6921
34.6357 25.3517
34.8227 25.0708
35.0098 24.8919
35.1969 24.5693
35.3842 24.3832
35.5716 24.1542
35.759 23.8665
35.9468 23.4943
36.1345 23.26
36.3222 22.9517
36.5101 22.8258
36.6981 22.4678
36.8861 22.0873
37.0743 21.7917
37.2626 21.6559
37.451 21.3413
37.6395 21.1974
37.8281 20.8362
38.0168 20.5086
38.2056 20.2482
38.3945 20.0108
38.5837 19.7174
38.7728 19.5196
38.9621 19.2667
39.1514 18.9646
39.3409 18.7217
39.5304 18.5704
39.7201 18.339
39.9099 18.0971
40.0999 17.8505
40.2899 17.6091
40.48 17.411
40.6703 17.1786
40.8607 16.9882
41.0512 16.7621
41.242 16.5261
41.4327 16.3008
41.6236 16.0357
41.8146 15.8378
42.0057 15.6633
42.1969 15.4912
42.3882 15.253
42.5797 15.0529
42.7713 14.8366
42.963 14.6718
43.1549 14.4633
43.3468 14.1722
43.5389 14.0624
43.7312 13.8697
43.9237 13.6439
44.1162 13.4706
44.3088 13.2544
44.5016 13.0892
44.6945 12.8852
44.8875 12.7439
45.0806 12.5266
45.2739 12.3853
45.4673 12.2412
45.6609 12.0752
45.8546 11.9078
46.0484 11.6884
46.2424 11.5112
46.4365 11.3596
46.631 11.212
46.8254 11.0196
47.0199 10.8618
47.2146 10.72
47.4095 10.5485
47.6044 10.3495
47.7996 10.2673
47.9948 10.0816
48.1902 9.91833
48.3858 9.8001
48.5815 9.65008
48.7774 9.50269
48.9734 9.37186
49.1696 9.23589
49.3661 9.08092
49.5626 8.94421
49.7592 8.84006
49.956 8.70789
50.153 8.54968
50.3501 8.41697
50.5474 8.30637
50.7448 8.16937
50.9424 8.05815
51.1402 7.94207
51.3381 7.77444
51.5362 7.66655
51.7344 7.53684
51.9328 7.38893
52.1316 7.24707
52.3304 7.17696
52.5293 7.06551
52.7284 6.94933
52.9276 6.78529
53.1271 6.74356
53.3267 6.58602
53.5265 6.44585
53.7264 6.3671
53.9266 6.23833
54.1269 6.11834
54.3274 6.03879
54.528 5.90956
54.7289 5.69831
54.9301 5.57915
55.1314 5.37703
55.3328 5.19633
55.5344 5.00393
55.7361 4.93629