File: XRD/Ni3Fe_FD0981.xy
TT I
1.27165 7.19809
1.45013 6.25929
1.62863 4.63928
1.80712 4.3148
1.98562 5.01113
2.16411 5.25687
2.34263 5.68497
2.52115 7.62381
2.69965 8.60758
2.87818 9.02159
3.05672 11.2683
3.23527 15.375
3.4138 18.9348
3.59237 23.8205
3.77094 25.5814
3.9495 29.2789
4.12809 34.3667
4.30669 231.369
4.4853 66.0947
4.6639 54.4025
4.84253 66.0868
5.02118 84.0547
5.19981 269.739
5.37848 172.576
5.55716 99.451
5.73586 89.5783
5.91455 90.458
6.09328 4604.15
6.27201 80.5937
6.45075 66.5315
6.62952 61.8852
6.8083 58.089
6.98711 54.7433
7.16591 54.3747
7.34475 93.7065
7.5236 54.2433
7.70247 55.1988
7.88135 56.7564
8.06026 61.1411
8.23919 67.942
8.41812 82.4775
8.59709 1117.36
8.77609 96.2048
8.9551 90.2109
9.13412 80.2023
9.31318 80.6146
9.49226 82.6559
9.67134 96.7438
9.85047 97.3159
10.0296 290.476
10.2088 372.343
10.388 102.22
10.5672 528.831
10.7465 84.7478
10.9257 77.003
11.105 70.4381
11.2844 69.0587
11.4637 63.5514
11.6431 62.3452
11.8225 61.2367
12.002 61.6036
12.1814 151.899
12.3609 69.5326
12.5405 63.3413
12.72 68.9946
12.8996 69.308
13.0792 76.634
13.2589 228.754
13.4386 120.716
13.6183 242.119
13.7981 94.7295
13.9779 73.8827
14.1577 70.8365
14.3376 70.2601
14.5175 67.429
14.6974 68.861
14.8774 104.293
15.0574 149.986
15.2374 69.7862
15.4175 64.7573
15.5976 63.927
15.7778 89.146
15.958 153.791
16.1382 61.5468
16.3185 57.5572
16.4988 54.4773
16.6792 53.4161
16.8596 54.0271
17.04 54.4673
17.2205 64.6624
17.401 68.7965
17.5815 57.8386
17.7622 59.8319
17.9428 70.321
18.1237 138.58
18.3044 89.0674
18.4852 75.5395
18.666 59.0024
18.8469 56.6999
19.0278 55.6264
19.2088 57.8843
19.3898 75.3747
19.5709 52.9883
19.752 52.063
19.9332 54.6799
20.1144 68.7503
20.2957 63.2167
20.477 52.5973
20.6586 48.7254
20.84 47.7399
21.0215 47.5643
21.203 50.0572
21.3846 47.888
21.5662 47.6411
21.7479 51.1014
21.9297 63.5605
22.1115 55.2746
22.2933 48.7265
22.4753 47.9803
22.6572 47.6942
22.8393 50.5208
23.0214 56.5175
23.2037 47.715
23.3859 48.5428
23.5682 56.4568
23.7505 47.2827
23.9329 44.2746
24.1154 43.3169
24.2979 42.5543
24.4805 42.0229
24.6631 42.0465
24.8458 41.3462
25.0286 41.8773
25.2114 43.7488
25.3943 43.7528
25.5773 40.15
25.7605 39.5751
25.9436 39.9298
26.1268 40.9521
26.31 39.2232
26.4933 39.9483
26.6767 41.3886
26.8601 39.73
27.0437 38.1237
27.2272 37.7821
27.4109 37.5497
27.5946 37.6716
27.7784 37.1386
27.9623 37.6019
28.1462 37.9462
28.3304 36.5234
28.5145 35.2463
28.6987 34.8526
28.8829 34.7921
29.0673 34.0482
29.2517 33.7522
29.4361 33.5769
29.6207 32.4765
29.8053 32.3232
29.99 31.9709
30.1748 31.7647
30.3597 31.6597
30.5447 31.4105
30.7297 31.6174
30.915 31.0339
31.1002 30.5764
31.2855 30.2174
31.4708 30.1968
31.6563 29.7717
31.8418 29.5608
32.0275 29.3993
32.2132 28.7842
32.399 28.301
32.5848 27.9489
32.7708 27.62
32.9569 27.4672
33.143 27.2676
33.3293 26.8922
33.5158 26.4956
33.7022 26.1341
33.8887 25.8374
34.0753 25.4863
34.262 25.1608
34.4488 24.7757
34.6357 24.451
34.8227 24.2137
35.0098 24.0015
35.1969 23.7432
35.3842 23.4904
35.5716 23.3876
35.759 23.0517
35.9468 22.6521
36.1345 22.4744
36.3222 22.2077
36.5101 22.0512
36.6981 21.7354
36.8861 21.4269
37.0743 21.1245
37.2626 20.8266
37.451 20.6421
37.6395 20.4958
37.8281 20.1327
38.0168 19.8072
38.2056 19.6014
38.3945 19.3871
38.5837 19.0733
38.7728 18.9454
38.9621 18.6774
39.1514 18.4066
39.3409 18.1453
39.5304 17.9017
39.7201 17.7858
39.9099 17.5171
40.0999 17.2821
40.2899 17.0692
40.48 16.7754
40.6703 16.6058
40.8607 16.4256
41.0512 16.2268
41.242 15.901
41.4327 15.8155
41.6236 15.5425
41.8146 15.3838
42.0057 15.1463
42.1969 14.9647
42.3882 14.7741
42.5797 14.545
42.7713 14.366
42.963 14.21
43.1549 14.0517
43.3468 13.7924
43.5389 13.6193
43.7312 13.3533
43.9237 13.2786
44.1162 13.0253
44.3088 12.9012
44.5016 12.7155
44.6945 12.4892
44.8875 12.4093
45.0806 12.1558
45.2739 11.9771
45.4673 11.8599
45.6609 11.6199
45.8546 11.4748
46.0484 11.3106
46.2424 11.134
46.4365 11.0077
46.631 10.8082
46.8254 10.6855
47.0199 10.5524
47.2146 10.3693
47.4095 10.21
47.6044 10.0395
47.7996 9.87113
47.9948 9.76692
48.1902 9.61985
48.3858 9.46464
48.5815 9.34982
48.7774 9.25056
48.9734 9.07521
49.1696 8.95454
49.3661 8.8153
49.5626 8.65505
49.7592 8.53031
49.956 8.4015
50.153 8.26461
50.3501 8.12078
50.5474 8.02301
50.7448 7.91497
50.9424 7.79265
51.1402 7.66007
51.3381 7.54709
51.5362 7.43747
51.7344 7.26091
51.9328 7.18403
52.1316 7.07697
52.3304 6.94726
52.5293 6.79513
52.7284 6.77809
52.9276 6.59572
53.1271 6.50169
53.3267 6.37869
53.5265 6.24309
53.7264 6.18687
53.9266 6.02118
54.1269 5.98108
54.3274 5.8289
54.528 5.73195
54.7289 5.58742
54.9301 5.3695
55.1314 5.27636
55.3328 5.03855
55.5344 4.89561
55.7361 4.76513