File: XRD/Ni3Fe_FD0930.xy
TT I
1.27165 6.97761
1.45013 6.0142
1.62863 5.8069
1.80712 5.09174
1.98562 4.39943
2.16411 5.04366
2.34263 5.60969
2.52115 7.88158
2.69965 8.91768
2.87818 8.83245
3.05672 10.9654
3.23527 15.2679
3.4138 18.8004
3.59237 22.6938
3.77094 25.3929
3.9495 29.3712
4.12809 33.758
4.30669 96.3456
4.4853 52.8404
4.6639 54.8698
4.84253 67.7742
5.02118 85.7165
5.19981 369.802
5.37848 193.722
5.55716 101.128
5.73586 91.8469
5.91455 93.5732
6.09328 4657.99
6.27201 78.5342
6.45075 69.7672
6.62952 62.2369
6.8083 58.783
6.98711 55.0736
7.16591 56.143
7.34475 65.4875
7.5236 53.4234
7.70247 56.5763
7.88135 57.0002
8.06026 61.9527
8.23919 68.5766
8.41812 82.3071
8.59709 1205.48
8.77609 95.8431
8.9551 88.7483
9.13412 81.9907
9.31318 84.0914
9.49226 83.6259
9.67134 94.8292
9.85047 100.488
10.0296 327.827
10.2088 326.044
10.388 103.279
10.5672 541.29
10.7465 84.9353
10.9257 76.9061
11.105 70.3369
11.2844 67.1809
11.4637 63.4945
11.6431 62.2958
11.8225 61.8535
12.002 63.4172
12.1814 159.544
12.3609 65.3706
12.5405 63.6658
12.72 66.9118
12.8996 70.5058
13.0792 79.3901
13.2589 245.769
13.4386 114.209
13.6183 258.659
13.7981 91.7722
13.9779 74.5722
14.1577 70.6632
14.3376 69.1289
14.5175 67.862
14.6974 69.5461
14.8774 110.422
15.0574 137.225
15.2374 68.1559
15.4175 65.237
15.5976 65.108
15.7778 93.814
15.958 145.454
16.1382 60.2283
16.3185 56.6414
16.4988 54.5296
16.6792 53.5336
16.8596 54.0346
17.04 55.1833
17.2205 66.0227
17.401 67.3047
17.5815 58.2191
17.7622 60.2949
17.9428 72.1795
18.1237 140.824
18.3044 90.7602
18.4852 72.855
18.666 59.2344
18.8469 57.2771
19.0278 55.7363
19.2088 58.2648
19.3898 74.937
19.5709 53.1611
19.752 52.3639
19.9332 55.2371
20.1144 69.1977
20.2957 64.1577
20.477 51.7675
20.6586 48.7611
20.84 47.9247
21.0215 47.8027
21.203 50.2938
21.3846 47.8082
21.5662 48.1461
21.7479 51.9452
21.9297 64.1674
22.1115 55.4953
22.2933 48.7578
22.4753 47.7818
22.6572 48.2023
22.8393 51.2362
23.0214 56.0558
23.2037 48.0168
23.3859 48.8439
23.5682 56.9705
23.7505 46.9359
23.9329 44.4315
24.1154 43.272
24.2979 42.5824
24.4805 42.3147
24.6631 42.0932
24.8458 41.5005
25.0286 42.1115
25.2114 43.8925
25.3943 43.8163
25.5773 40.2242
25.7605 39.7301
25.9436 40.0695
26.1268 41.3374
26.31 39.342
26.4933 40.0676
26.6767 41.5562
26.8601 39.6652
27.0437 38.114
27.2272 37.8772
27.4109 37.8033
27.5946 37.799
27.7784 37.2498
27.9623 37.9022
28.1462 38.0866
28.3304 36.553
28.5145 35.3085
28.6987 35.1001
28.8829 34.8083
29.0673 34.2313
29.2517 33.8211
29.4361 33.5898
29.6207 32.5122
29.8053 32.2158
29.99 32.1248
30.1748 31.9263
30.3597 31.7961
30.5447 31.5997
30.7297 31.6316
30.915 31.0084
31.1002 30.5241
31.2855 30.3478
31.4708 30.3084
31.6563 29.7731
31.8418 29.5928
32.0275 29.4415
32.2132 28.9672
32.399 28.383
32.5848 28.0108
32.7708 27.6156
32.9569 27.4403
33.143 27.3523
33.3293 26.9347
33.5158 26.5296
33.7022 26.167
33.8887 25.8707
34.0753 25.5835
34.262 25.3052
34.4488 24.8375
34.6357 24.5099
34.8227 24.2562
35.0098 24.1308
35.1969 23.7747
35.3842 23.6091
35.5716 23.4192
35.759 23.114
35.9468 22.7024
36.1345 22.5656
36.3222 22.3034
36.5101 22.0275
36.6981 21.7803
36.8861 21.4691
37.0743 21.1486
37.2626 20.802
37.451 20.6458
37.6395 20.4214
37.8281 20.0192
38.0168 19.8767
38.2056 19.6164
38.3945 19.3497
38.5837 19.0746
38.7728 18.8889
38.9621 18.6502
39.1514 18.3596
39.3409 18.1974
39.5304 17.8837
39.7201 17.6999
39.9099 17.5171
40.0999 17.2444
40.2899 17.0276
40.48 16.8036
40.6703 16.6014
40.8607 16.4161
41.0512 16.2247
41.242 15.9984
41.4327 15.7757
41.6236 15.5572
41.8146 15.3613
42.0057 15.1304
42.1969 14.9394
42.3882 14.7722
42.5797 14.61
42.7713 14.354
42.963 14.1756
43.1549 13.9906
43.3468 13.763
43.5389 13.6109
43.7312 13.4399
43.9237 13.2085
44.1162 13.0605
44.3088 12.8521
44.5016 12.6708
44.6945 12.5117
44.8875 12.3391
45.0806 12.1648
45.2739 11.9761
45.4673 11.8417
45.6609 11.6338
45.8546 11.5485
46.0484 11.3125
46.2424 11.1795
46.4365 11.0256
46.631 10.7845
46.8254 10.6606
47.0199 10.488
47.2146 10.3473
47.4095 10.2285
47.6044 10.0696
47.7996 9.95273
47.9948 9.78524
48.1902 9.60766
48.3858 9.46774
48.5815 9.34854
48.7774 9.20296
48.9734 9.08703
49.1696 8.91452
49.3661 8.81542
49.5626 8.65035
49.7592 8.51412
49.956 8.43237
50.153 8.30282
50.3501 8.15893
50.5474 8.02798
50.7448 7.90711
50.9424 7.78251
51.1402 7.67344
51.3381 7.51807
51.5362 7.40148
51.7344 7.2689
51.9328 7.15561
52.1316 7.02559
52.3304 6.90961
52.5293 6.80426
52.7284 6.69259
52.9276 6.57182
53.1271 6.51741
53.3267 6.35272
53.5265 6.27006
53.7264 6.18727
53.9266 6.04148
54.1269 5.97967
54.3274 5.83903
54.528 5.65836
54.7289 5.54147
54.9301 5.35659
55.1314 5.22908
55.3328 4.99289
55.5344 4.84805
55.7361 4.7469