File: XRD/Ni3Fe_FD0486.xy
TT I
1.27165 7.59035
1.45013 6.87121
1.62863 5.329
1.80712 4.87155
1.98562 5.55317
2.16411 5.3083
2.34263 4.96371
2.52115 6.24716
2.69965 8.52642
2.87818 8.75413
3.05672 10.7327
3.23527 14.5319
3.4138 19.0268
3.59237 23.6294
3.77094 25.8807
3.9495 29.7972
4.12809 34.9087
4.30669 126.857
4.4853 56.6227
4.6639 56.4931
4.84253 68.7152
5.02118 89.8623
5.19981 481.464
5.37848 210.02
5.55716 104.948
5.73586 95.3691
5.91455 98.8111
6.09328 4180.89
6.27201 83.9106
6.45075 68.8537
6.62952 63.4909
6.8083 59.6224
6.98711 56.1652
7.16591 56.5074
7.34475 73.2097
7.5236 55.0892
7.70247 57.199
7.88135 58.5401
8.06026 63.5822
8.23919 70.3984
8.41812 86.5252
8.59709 1227.23
8.77609 102.241
8.9551 90.9402
9.13412 83.904
9.31318 84.9071
9.49226 86.4624
9.67134 96.8529
9.85047 102.518
10.0296 403.846
10.2088 451.336
10.388 107.729
10.5672 488.52
10.7465 88.5031
10.9257 79.0788
11.105 72.4469
11.2844 69.6607
11.4637 65.9301
11.6431 64.2103
11.8225 63.6032
12.002 65.3394
12.1814 154.075
12.3609 69.6872
12.5405 65.461
12.72 69.4182
12.8996 72.2488
13.0792 81.3924
13.2589 250.379
13.4386 131.905
13.6183 252.574
13.7981 102.762
13.9779 77.3126
14.1577 73.4382
14.3376 72.0454
14.5175 70.0367
14.6974 71.8014
14.8774 118.456
15.0574 155.911
15.2374 71.2142
15.4175 67.7177
15.5976 67.0116
15.7778 101.552
15.958 158.852
16.1382 62.9762
16.3185 59.1256
16.4988 56.3307
16.6792 55.5328
16.8596 55.8995
17.04 57.145
17.2205 68.8351
17.401 72.3461
17.5815 60.1199
17.7622 62.2513
17.9428 76.922
18.1237 136.076
18.3044 91.9187
18.4852 80.1178
18.666 61.4102
18.8469 59.1219
19.0278 57.8092
19.2088 60.9257
19.3898 75.5201
19.5709 55.1437
19.752 54.3045
19.9332 57.5225
20.1144 69.9957
20.2957 64.0079
20.477 54.7606
20.6586 50.4651
20.84 49.6989
21.0215 49.3781
21.203 51.6314
21.3846 50.0138
21.5662 49.8183
21.7479 54.0486
21.9297 64.5815
22.1115 56.4775
22.2933 50.6031
22.4753 49.6718
22.6572 49.8872
22.8393 53.295
23.0214 57.7754
23.2037 49.5995
23.3859 50.8935
23.5682 56.9582
23.7505 49.342
23.9329 45.9376
24.1154 44.8141
24.2979 43.884
24.4805 43.6178
24.6631 43.3553
24.8458 42.9787
25.0286 43.5215
25.2114 45.4425
25.3943 45.1065
25.5773 41.6215
25.7605 41.1755
25.9436 41.5873
26.1268 42.2092
26.31 40.8804
26.4933 41.4434
26.6767 42.6711
26.8601 41.0253
27.0437 39.4793
27.2272 39.2915
27.4109 39.0061
27.5946 39.0067
27.7784 38.5742
27.9623 38.943
28.1462 39.448
28.3304 37.7539
28.5145 36.4853
28.6987 36.1836
28.8829 36.0001
29.0673 35.2241
29.2517 34.9187
29.4361 34.708
29.6207 33.6257
29.8053 33.4261
29.99 33.1068
30.1748 32.9952
30.3597 32.7166
30.5447 32.5917
30.7297 32.6212
30.915 32.1216
31.1002 31.6654
31.2855 31.2718
31.4708 31.2578
31.6563 30.7311
31.8418 30.6899
32.0275 30.3586
32.2132 29.8644
32.399 29.3497
32.5848 28.8408
32.7708 28.561
32.9569 28.4742
33.143 28.2422
33.3293 27.816
33.5158 27.466
33.7022 27.0859
33.8887 26.7051
34.0753 26.428
34.262 26.0621
34.4488 25.6383
34.6357 25.3447
34.8227 24.9957
35.0098 24.8697
35.1969 24.5521
35.3842 24.2813
35.5716 24.102
35.759 23.7359
35.9468 23.4715
36.1345 23.2485
36.3222 23.0506
36.5101 22.7559
36.6981 22.4084
36.8861 22.1115
37.0743 21.8411
37.2626 21.5374
37.451 21.2791
37.6395 21.0595
37.8281 20.7678
38.0168 20.5259
38.2056 20.3308
38.3945 19.9336
38.5837 19.7546
38.7728 19.4663
38.9621 19.2968
39.1514 18.9638
39.3409 18.695
39.5304 18.5798
39.7201 18.3096
39.9099 18.1268
40.0999 17.8659
40.2899 17.6413
40.48 17.3604
40.6703 17.1679
40.8607 16.9791
41.0512 16.7563
41.242 16.4643
41.4327 16.2756
41.6236 16.035
41.8146 15.8897
42.0057 15.6888
42.1969 15.4068
42.3882 15.2278
42.5797 15.0138
42.7713 14.8259
42.963 14.6449
43.1549 14.4254
43.3468 14.1685
43.5389 14.0253
43.7312 13.8257
43.9237 13.6366
44.1162 13.4227
44.3088 13.2476
44.5016 13.0835
44.6945 12.8791
44.8875 12.709
45.0806 12.5416
45.2739 12.339
45.4673 12.2173
45.6609 11.9864
45.8546 11.8756
46.0484 11.6762
46.2424 11.5533
46.4365 11.3481
46.631 11.1532
46.8254 10.9871
47.0199 10.8484
47.2146 10.7234
47.4095 10.5503
47.6044 10.3315
47.7996 10.2128
47.9948 10.1033
48.1902 9.96375
48.3858 9.8018
48.5815 9.65615
48.7774 9.50781
48.9734 9.38654
49.1696 9.22708
49.3661 9.09308
49.5626 8.96001
49.7592 8.80244
49.956 8.67151
50.153 8.57541
50.3501 8.39791
50.5474 8.26761
50.7448 8.1672
50.9424 8.03553
51.1402 7.92031
51.3381 7.7769
51.5362 7.63887
51.7344 7.5195
51.9328 7.36834
52.1316 7.27238
52.3304 7.20361
52.5293 7.06435
52.7284 6.91432
52.9276 6.78434
53.1271 6.70558
53.3267 6.55982
53.5265 6.46076
53.7264 6.36134
53.9266 6.26723
54.1269 6.12771
54.3274 6.04325
54.528 5.88561
54.7289 5.72498
54.9301 5.55392
55.1314 5.42323
55.3328 5.228
55.5344 5.00963
55.7361 4.87735