File: XRD/Ni3Fe_FD0935.xy
TT I
1.27165 6.66261
1.45013 6.06275
1.62863 5.33847
1.80712 4.82704
1.98562 5.2059
2.16411 4.72869
2.34263 5.6311
2.52115 7.47702
2.69965 8.86344
2.87818 8.38465
3.05672 11.5863
3.23527 15.1777
3.4138 18.6231
3.59237 23.2068
3.77094 25.4811
3.9495 29.4836
4.12809 33.8425
4.30669 90.6843
4.4853 52.5072
4.6639 54.9254
4.84253 68.2879
5.02118 86.1995
5.19981 372.891
5.37848 195.883
5.55716 101.45
5.73586 92.2156
5.91455 94.2871
6.09328 4692.58
6.27201 78.9952
6.45075 70.2096
6.62952 62.5279
6.8083 59.6003
6.98711 54.74
7.16591 55.7989
7.34475 64.5353
7.5236 53.7119
7.70247 56.3939
7.88135 56.6645
8.06026 61.694
8.23919 68.505
8.41812 82.369
8.59709 1209.96
8.77609 95.8617
8.9551 88.9747
9.13412 82.3657
9.31318 84.7978
9.49226 83.3502
9.67134 94.8853
9.85047 101.038
10.0296 330.623
10.2088 320.474
10.388 103.428
10.5672 551.369
10.7465 85.1343
10.9257 77.2776
11.105 70.2561
11.2844 67.144
11.4637 63.9263
11.6431 62.2118
11.8225 61.7969
12.002 63.7792
12.1814 158.935
12.3609 65.4174
12.5405 64.0972
12.72 66.9791
12.8996 70.4178
13.0792 79.6239
13.2589 247.597
13.4386 114.214
13.6183 259.807
13.7981 91.7132
13.9779 74.7425
14.1577 70.9209
14.3376 68.9722
14.5175 68.0543
14.6974 69.4759
14.8774 110.829
15.0574 135.416
15.2374 68.2659
15.4175 65.1464
15.5976 64.6943
15.7778 94.1825
15.958 144.679
16.1382 60.2664
16.3185 56.8209
16.4988 54.627
16.6792 53.6054
16.8596 53.9071
17.04 55.0601
17.2205 66.2879
17.401 67.4074
17.5815 58.1229
17.7622 60.3235
17.9428 72.1656
18.1237 140.448
18.3044 90.9586
18.4852 72.7144
18.666 59.2425
18.8469 56.9874
19.0278 56.019
19.2088 58.4328
19.3898 74.7255
19.5709 53.1599
19.752 52.482
19.9332 55.2431
20.1144 69.3229
20.2957 64.2415
20.477 51.6677
20.6586 48.7755
20.84 47.929
21.0215 47.8347
21.203 50.277
21.3846 47.8155
21.5662 48.3406
21.7479 51.9432
21.9297 64.1698
22.1115 55.7289
22.2933 48.8352
22.4753 47.7654
22.6572 48.1367
22.8393 51.3205
23.0214 56.0787
23.2037 47.8921
23.3859 48.9358
23.5682 56.8348
23.7505 47.039
23.9329 44.4338
24.1154 43.394
24.2979 42.6753
24.4805 42.277
24.6631 41.9449
24.8458 41.54
25.0286 42.174
25.2114 43.9665
25.3943 43.8176
25.5773 40.2857
25.7605 39.8234
25.9436 40.242
26.1268 41.0799
26.31 39.4382
26.4933 40.2654
26.6767 41.567
26.8601 39.7788
27.0437 38.1583
27.2272 37.8316
27.4109 37.8373
27.5946 37.655
27.7784 37.1612
27.9623 37.836
28.1462 38.0727
28.3304 36.5504
28.5145 35.3635
28.6987 35.0626
28.8829 34.7928
29.0673 34.0362
29.2517 33.7164
29.4361 33.6539
29.6207 32.6093
29.8053 32.3006
29.99 32.2328
30.1748 31.9397
30.3597 31.7636
30.5447 31.6804
30.7297 31.7335
30.915 31.0847
31.1002 30.5342
31.2855 30.3377
31.4708 30.3495
31.6563 29.7556
31.8418 29.6986
32.0275 29.3373
32.2132 28.9087
32.399 28.4944
32.5848 28.0209
32.7708 27.6461
32.9569 27.4644
33.143 27.2809
33.3293 26.9293
33.5158 26.6237
33.7022 26.128
33.8887 25.8181
34.0753 25.5606
34.262 25.1968
34.4488 24.8872
34.6357 24.5411
34.8227 24.3215
35.0098 24.0505
35.1969 23.8219
35.3842 23.6112
35.5716 23.3321
35.759 23.142
35.9468 22.7526
36.1345 22.5165
36.3222 22.256
36.5101 22.0164
36.6981 21.7167
36.8861 21.4755
37.0743 21.1551
37.2626 20.9419
37.451 20.644
37.6395 20.5034
37.8281 20.1629
38.0168 19.8984
38.2056 19.6559
38.3945 19.3867
38.5837 19.1142
38.7728 18.9004
38.9621 18.6079
39.1514 18.323
39.3409 18.2021
39.5304 17.9184
39.7201 17.6918
39.9099 17.5378
40.0999 17.3044
40.2899 17.0662
40.48 16.8105
40.6703 16.628
40.8607 16.462
41.0512 16.2118
41.242 15.9866
41.4327 15.7831
41.6236 15.5693
41.8146 15.3623
42.0057 15.0985
42.1969 14.9502
42.3882 14.7694
42.5797 14.5729
42.7713 14.3971
42.963 14.1913
43.1549 13.9796
43.3468 13.7675
43.5389 13.5831
43.7312 13.413
43.9237 13.254
44.1162 13.0347
44.3088 12.879
44.5016 12.625
44.6945 12.5287
44.8875 12.3453
45.0806 12.1593
45.2739 12.0187
45.4673 11.8021
45.6609 11.6729
45.8546 11.4987
46.0484 11.334
46.2424 11.173
46.4365 11.0045
46.631 10.8767
46.8254 10.6849
47.0199 10.5058
47.2146 10.3821
47.4095 10.2125
47.6044 10.085
47.7996 9.92802
47.9948 9.79869
48.1902 9.64211
48.3858 9.47527
48.5815 9.37516
48.7774 9.22134
48.9734 9.07372
49.1696 8.94724
49.3661 8.81313
49.5626 8.64496
49.7592 8.54385
49.956 8.42695
50.153 8.29905
50.3501 8.1533
50.5474 8.06325
50.7448 7.92701
50.9424 7.81312
51.1402 7.66251
51.3381 7.51625
51.5362 7.42297
51.7344 7.27388
51.9328 7.18445
52.1316 7.04074
52.3304 6.92183
52.5293 6.82046
52.7284 6.7492
52.9276 6.6064
53.1271 6.5097
53.3267 6.41639
53.5265 6.28783
53.7264 6.16683
53.9266 6.02943
54.1269 5.95333
54.3274 5.89896
54.528 5.73194
54.7289 5.51593
54.9301 5.38145
55.1314 5.26927
55.3328 5.0501
55.5344 4.89881
55.7361 4.71678