File: XRD/Ni3Fe_FD0303.xy
TT I
1.27165 7.17972
1.45013 6.4874
1.62863 6.04478
1.80712 5.23811
1.98562 4.53003
2.16411 4.64556
2.34263 5.14913
2.52115 5.83031
2.69965 7.41139
2.87818 8.28347
3.05672 10.8693
3.23527 15.3063
3.4138 19.358
3.59237 25.5527
3.77094 26.9313
3.9495 30.8186
4.12809 36.7266
4.30669 314.859
4.4853 77.1851
4.6639 57.1006
4.84253 68.7256
5.02118 90.4137
5.19981 486.547
5.37848 257.748
5.55716 106.919
5.73586 95.9782
5.91455 99.8838
6.09328 3641.03
6.27201 90.002
6.45075 70.1545
6.62952 65.6179
6.8083 61.62
6.98711 57.7461
7.16591 58.0718
7.34475 115.786
7.5236 56.7982
7.70247 58.2028
7.88135 59.9333
8.06026 64.1369
8.23919 72.0176
8.41812 89.2547
8.59709 972.762
8.77609 108.045
8.9551 98.0679
9.13412 84.5927
9.31318 85.2292
9.49226 86.6727
9.67134 105.959
9.85047 103.495
10.0296 370.569
10.2088 597.2
10.388 110.277
10.5672 445.223
10.7465 90.4347
10.9257 81.6784
11.105 74.6116
11.2844 74.5176
11.4637 67.1662
11.6431 66.0325
11.8225 64.5081
12.002 65.975
12.1814 135.565
12.3609 77.4841
12.5405 66.7778
12.72 74.4885
12.8996 73.2588
13.0792 81.3739
13.2589 208.838
13.4386 150.413
13.6183 211.883
13.7981 112.741
13.9779 78.4534
14.1577 75.9055
14.3376 75.2883
14.5175 70.9805
14.6974 73.0312
14.8774 108.253
15.0574 175.916
15.2374 74.8257
15.4175 68.6138
15.5976 68.101
15.7778 94.5433
15.958 181.964
16.1382 66.4544
16.3185 61.1916
16.4988 57.6758
16.6792 56.6029
16.8596 57.3701
17.04 57.7984
17.2205 66.9343
17.401 77.5156
17.5815 61.2868
17.7622 63.3717
17.9428 76.7167
18.1237 137.157
18.3044 88.3319
18.4852 86.1561
18.666 62.9629
18.8469 59.8909
19.0278 59.0142
19.2088 61.8586
19.3898 78.4827
19.5709 56.5642
19.752 55.1107
19.9332 58.2512
20.1144 71.203
20.2957 63.7679
20.477 56.9835
20.6586 51.6239
20.84 50.7172
21.0215 50.2634
21.203 52.0797
21.3846 51.1831
21.5662 50.3982
21.7479 53.8739
21.9297 66.209
22.1115 57.3259
22.2933 52.3356
22.4753 50.8971
22.6572 50.5359
22.8393 53.0125
23.0214 60.1969
23.2037 50.8281
23.3859 51.4284
23.5682 57.2835
23.7505 51.211
23.9329 46.9972
24.1154 45.808
24.2979 44.9413
24.4805 44.3168
24.6631 44.539
24.8458 43.7119
25.0286 44.1461
25.2114 45.9397
25.3943 46.5169
25.5773 42.5148
25.7605 41.8802
25.9436 42.1685
26.1268 43.1165
26.31 41.7232
26.4933 42.0194
26.6767 43.5155
26.8601 41.9813
27.0437 40.3905
27.2272 39.9227
27.4109 39.7313
27.5946 39.7989
27.7784 39.288
27.9623 39.5874
28.1462 40.2911
28.3304 38.7563
28.5145 37.2975
28.6987 36.8031
28.8829 36.7418
29.0673 35.9795
29.2517 35.5167
29.4361 35.4162
29.6207 34.3181
29.8053 34.0391
29.99 33.7313
30.1748 33.5718
30.3597 33.5415
30.5447 33.2178
30.7297 33.3023
30.915 32.8708
31.1002 32.3163
31.2855 31.9752
31.4708 31.8301
31.6563 31.4978
31.8418 31.2184
32.0275 30.9309
32.2132 30.4631
32.399 30.0088
32.5848 29.5426
32.7708 29.2524
32.9569 29.1171
33.143 28.7704
33.3293 28.3883
33.5158 28.0609
33.7022 27.5133
33.8887 27.2088
34.0753 26.8827
34.262 26.5738
34.4488 26.3255
34.6357 25.9093
34.8227 25.5864
35.0098 25.3365
35.1969 25.0765
35.3842 24.825
35.5716 24.5878
35.759 24.312
35.9468 23.9616
36.1345 23.6666
36.3222 23.4975
36.5101 23.2496
36.6981 22.9444
36.8861 22.5718
37.0743 22.3442
37.2626 22.0731
37.451 21.7349
37.6395 21.5864
37.8281 21.2315
38.0168 20.9607
38.2056 20.7299
38.3945 20.4731
38.5837 20.236
38.7728 19.8842
38.9621 19.6504
39.1514 19.3419
39.3409 19.1542
39.5304 18.9401
39.7201 18.7319
39.9099 18.5568
40.0999 18.271
40.2899 18.0112
40.48 17.744
40.6703 17.5776
40.8607 17.3852
41.0512 17.0873
41.242 16.816
41.4327 16.6388
41.6236 16.358
41.8146 16.2595
42.0057 16.0351
42.1969 15.7969
42.3882 15.5968
42.5797 15.3821
42.7713 15.1183
42.963 14.9494
43.1549 14.7626
43.3468 14.5278
43.5389 14.3644
43.7312 14.1524
43.9237 13.9238
44.1162 13.7712
44.3088 13.5607
44.5016 13.3636
44.6945 13.2079
44.8875 13.0127
45.0806 12.8217
45.2739 12.6854
45.4673 12.4843
45.6609 12.3014
45.8546 12.1584
46.0484 11.9922
46.2424 11.7919
46.4365 11.6284
46.631 11.4578
46.8254 11.2177
47.0199 11.0906
47.2146 10.9519
47.4095 10.7269
47.6044 10.6022
47.7996 10.4638
47.9948 10.3238
48.1902 10.1576
48.3858 9.98821
48.5815 9.87381
48.7774 9.77042
48.9734 9.58
49.1696 9.43217
49.3661 9.27617
49.5626 9.13469
49.7592 9.01605
49.956 8.88418
50.153 8.7517
50.3501 8.6158
50.5474 8.48633
50.7448 8.32752
50.9424 8.22159
51.1402 8.11216
51.3381 7.97161
51.5362 7.82057
51.7344 7.71905
51.9328 7.54168
52.1316 7.42656
52.3304 7.33974
52.5293 7.21761
52.7284 7.10649
52.9276 6.96036
53.1271 6.88986
53.3267 6.76646
53.5265 6.63155
53.7264 6.48163
53.9266 6.39296
54.1269 6.29404
54.3274 6.1509
54.528 5.97613
54.7289 5.83279
54.9301 5.66217
55.1314 5.56261
55.3328 5.32639
55.5344 5.15607
55.7361 5.01161