File: XRD/Ni3Fe_FD0062.xy
TT I
1.27165 31.7617
1.45013 25.9586
1.62863 22.8633
1.80712 20.4493
1.98562 19.7343
2.16411 19.9251
2.34263 20.4516
2.52115 21.2545
2.69965 25.5147
2.87818 35.7431
3.05672 63.0467
3.23527 62.6366
3.4138 32.8494
3.59237 26.1604
3.77094 25.5772
3.9495 26.9213
4.12809 29.9374
4.30669 37.7769
4.4853 38.0958
4.6639 43.638
4.84253 56.6218
5.02118 105.659
5.19981 342.53
5.37848 2745.89
5.55716 146.963
5.73586 103.899
5.91455 122.558
6.09328 624.001
6.27201 196.191
6.45075 63.7361
6.62952 48.3522
6.8083 42.8917
6.98711 42.4657
7.16591 43.2806
7.34475 40.3139
7.5236 66.4949
7.70247 43.831
7.88135 39.874
8.06026 42.3643
8.23919 48.1467
8.41812 61.8355
8.59709 201.042
8.77609 296.167
8.9551 74.1427
9.13412 67.0139
9.31318 290.113
9.49226 60.6653
9.67134 59.6056
9.85047 66.3924
10.0296 134.247
10.2088 707.01
10.388 94.7635
10.5672 102.845
10.7465 169.786
10.9257 52.6939
11.105 46.5537
11.2844 44.1893
11.4637 41.3102
11.6431 40.589
11.8225 41.3901
12.002 115.657
12.1814 51.8959
12.3609 78.1304
12.5405 42.8783
12.72 41.1078
12.8996 42.9411
13.0792 50.6611
13.2589 70.6798
13.4386 187.261
13.6183 79.1989
13.7981 172.056
13.9779 54.1383
14.1577 72.3133
14.3376 46.6967
14.5175 42.9841
14.6974 43.0566
14.8774 51.1085
15.0574 84.5899
15.2374 55.0425
15.4175 42.6664
15.5976 41.6937
15.7778 47.4144
15.958 69.5343
16.1382 69.8404
16.3185 38.6941
16.4988 35.6163
16.6792 34.5677
16.8596 34.8006
17.04 40.7209
17.2205 36.5294
17.401 42.6902
17.5815 38.7584
17.7622 39.7173
17.9428 41.9943
18.1237 47.0817
18.3044 72.2514
18.4852 57.3218
18.666 45.785
18.8469 37.4869
19.0278 36.1077
19.2088 36.5062
19.3898 47.559
19.5709 42.2496
19.752 34.3507
19.9332 34.055
20.1144 34.9406
20.2957 40.9763
20.477 39.5301
20.6586 32.9008
20.84 35.1483
21.0215 30.76
21.203 30.546
21.3846 31.9406
21.5662 31.5733
21.7479 31.4496
21.9297 32.8152
22.1115 39.1976
22.2933 36.1118
22.4753 31.5462
22.6572 30.8737
22.8393 32.2911
23.0214 32.0077
23.2037 35.3566
23.3859 31.841
23.5682 32.3872
23.7505 35.7241
23.9329 30.7305
24.1154 29.3793
24.2979 28.1797
24.4805 27.6036
24.6631 28.0052
24.8458 27.3773
25.0286 26.9904
25.2114 27.3254
25.3943 28.2129
25.5773 28.3888
25.7605 26.3867
25.9436 26.3991
26.1268 25.8833
26.31 26.6684
26.4933 25.9085
26.6767 25.8848
26.8601 27.1765
27.0437 26.8122
27.2272 25.2571
27.4109 24.7385
27.5946 24.8565
27.7784 24.8943
27.9623 24.4033
28.1462 24.9015
28.3304 25.0145
28.5145 24.256
28.6987 23.5724
28.8829 22.9038
29.0673 22.6788
29.2517 22.4378
29.4361 21.9971
29.6207 21.9202
29.8053 21.5383
29.99 21.3193
30.1748 21.2505
30.3597 21.0063
30.5447 20.9746
30.7297 20.7307
30.915 21.0029
31.1002 20.7855
31.2855 20.3484
31.4708 20.1243
31.6563 20.1572
31.8418 19.896
32.0275 19.6887
32.2132 19.6307
32.399 19.3084
32.5848 18.8318
32.7708 18.633
32.9569 18.5912
33.143 18.3054
33.3293 18.1214
33.5158 18.0622
33.7022 17.7423
33.8887 17.474
34.0753 17.2745
34.262 16.9895
34.4488 16.8547
34.6357 16.6251
34.8227 16.4067
35.0098 16.2378
35.1969 16.0709
35.3842 15.9633
35.5716 15.8625
35.759 15.7381
35.9468 15.4766
36.1345 15.3094
36.3222 15.1398
36.5101 14.9367
36.6981 14.846
36.8861 14.6506
37.0743 14.4351
37.2626 14.2239
37.451 14.0647
37.6395 14.0193
37.8281 13.7816
38.0168 13.6233
38.2056 13.4198
38.3945 13.2024
38.5837 13.1351
38.7728 12.8783
38.9621 12.7713
39.1514 12.6394
39.3409 12.4381
39.5304 12.2992
39.7201 12.2544
39.9099 12.0438
40.0999 11.9203
40.2899 11.7824
40.48 11.5749
40.6703 11.4862
40.8607 11.3766
41.0512 11.1895
41.242 11.0698
41.4327 10.942
41.6236 10.774
41.8146 10.6493
42.0057 10.502
42.1969 10.3822
42.3882 10.2413
42.5797 10.114
42.7713 9.95354
42.963 9.81042
43.1549 9.68531
43.3468 9.5784
43.5389 9.50047
43.7312 9.3153
43.9237 9.18973
44.1162 9.09377
44.3088 8.95996
44.5016 8.85246
44.6945 8.7217
44.8875 8.6317
45.0806 8.52249
45.2739 8.39017
45.4673 8.29358
45.6609 8.14324
45.8546 8.07864
46.0484 7.96282
46.2424 7.82525
46.4365 7.73404
46.631 7.60807
46.8254 7.49747
47.0199 7.39543
47.2146 7.287
47.4095 7.15025
47.6044 7.09195
47.7996 6.9827
47.9948 6.90914
48.1902 6.81159
48.3858 6.73571
48.5815 6.59907
48.7774 6.5113
48.9734 6.41526
49.1696 6.31432
49.3661 6.23137
49.5626 6.12313
49.7592 6.04892
49.956 5.98675
50.153 5.88819
50.3501 5.80351
50.5474 5.72382
50.7448 5.62882
50.9424 5.56297
51.1402 5.50365
51.3381 5.39698
51.5362 5.31147
51.7344 5.23665
51.9328 5.09902
52.1316 5.0403
52.3304 5.04548
52.5293 4.92007
52.7284 4.86905
52.9276 4.73953
53.1271 4.69029
53.3267 4.55588
53.5265 4.53016
53.7264 4.43515
53.9266 4.33741
54.1269 4.2655
54.3274 4.20909
54.528 4.03723
54.7289 3.92663
54.9301 3.81196
55.1314 3.69032
55.3328 3.567
55.5344 3.38077
55.7361 3.29227