File: XRD/Ni3Fe_FD0389.xy
TT I
1.27165 7.78703
1.45013 5.93009
1.62863 5.68083
1.80712 4.87846
1.98562 4.87153
2.16411 5.2853
2.34263 5.17581
2.52115 5.90411
2.69965 6.8807
2.87818 8.61984
3.05672 10.8557
3.23527 14.9979
3.4138 19.0623
3.59237 24.2663
3.77094 26.9815
3.9495 30.2205
4.12809 35.3384
4.30669 219.544
4.4853 66.6598
4.6639 56.2322
4.84253 68.9464
5.02118 89.7898
5.19981 455.805
5.37848 224.967
5.55716 105.282
5.73586 95.5177
5.91455 98.7046
6.09328 3983.26
6.27201 86.875
6.45075 69.2059
6.62952 64.402
6.8083 60.0776
6.98711 57.5701
7.16591 56.5984
7.34475 93.456
7.5236 55.7861
7.70247 57.9388
7.88135 59.3035
8.06026 63.7906
8.23919 71.3621
8.41812 87.6166
8.59709 1142.36
8.77609 104.957
8.9551 94.0496
9.13412 84.1766
9.31318 85.0975
9.49226 86.5133
9.67134 101.032
9.85047 102.463
10.0296 384.681
10.2088 504.141
10.388 107.866
10.5672 479.712
10.7465 89.2833
10.9257 80.5902
11.105 73.7811
11.2844 72.4952
11.4637 66.6863
11.6431 65.4423
11.8225 63.9275
12.002 65.413
12.1814 148.658
12.3609 73.3197
12.5405 65.9505
12.72 71.7874
12.8996 72.94
13.0792 80.9314
13.2589 235.675
13.4386 140.23
13.6183 238.462
13.7981 106.781
13.9779 77.671
14.1577 74.4431
14.3376 73.3394
14.5175 70.7103
14.6974 72.1578
14.8774 113.802
15.0574 164.243
15.2374 73.1793
15.4175 68.402
15.5976 67.4843
15.7778 98.1617
15.958 168.866
16.1382 64.5326
16.3185 60.3372
16.4988 56.9883
16.6792 56.0726
16.8596 56.6571
17.04 57.3731
17.2205 68.1435
17.401 74.6891
17.5815 60.9804
17.7622 62.9424
17.9428 76.4357
18.1237 137.456
18.3044 90.9142
18.4852 82.3973
18.666 62.0009
18.8469 59.498
19.0278 58.5903
19.2088 61.3755
19.3898 76.7967
19.5709 55.9199
19.752 54.6686
19.9332 57.647
20.1144 70.6249
20.2957 64.4226
20.477 55.9093
20.6586 51.1407
20.84 50.1041
21.0215 49.7354
21.203 51.9298
21.3846 50.5153
21.5662 50.0225
21.7479 53.9019
21.9297 65.3913
22.1115 57.1927
22.2933 51.3893
22.4753 50.1869
22.6572 50.2741
22.8393 53.1394
23.0214 58.6942
23.2037 50.1827
23.3859 51.2378
23.5682 57.4462
23.7505 50.3031
23.9329 46.3047
24.1154 45.3592
24.2979 44.6229
24.4805 43.8395
24.6631 43.9472
24.8458 43.3603
25.0286 43.8917
25.2114 45.8067
25.3943 45.7946
25.5773 42.0278
25.7605 41.3744
25.9436 41.9146
26.1268 42.7804
26.31 41.1969
26.4933 41.7265
26.6767 43.1726
26.8601 41.6213
27.0437 39.9654
27.2272 39.5283
27.4109 39.4208
27.5946 39.3802
27.7784 38.856
27.9623 39.3658
28.1462 39.8767
28.3304 38.2066
28.5145 36.8532
28.6987 36.5978
28.8829 36.2401
29.0673 35.5506
29.2517 35.1539
29.4361 35.0043
29.6207 33.9876
29.8053 33.7479
29.99 33.3793
30.1748 33.1916
30.3597 33.1039
30.5447 33.0328
30.7297 33.0253
30.915 32.392
31.1002 31.8765
31.2855 31.6075
31.4708 31.5679
31.6563 31.0861
31.8418 30.9311
32.0275 30.717
32.2132 30.1449
32.399 29.7361
32.5848 29.218
32.7708 28.983
32.9569 28.7662
33.143 28.524
33.3293 28.092
33.5158 27.7045
33.7022 27.2422
33.8887 26.9147
34.0753 26.7557
34.262 26.3002
34.4488 25.9604
34.6357 25.6691
34.8227 25.4048
35.0098 25.1427
35.1969 24.8424
35.3842 24.5214
35.5716 24.4358
35.759 24.0528
35.9468 23.7282
36.1345 23.4764
36.3222 23.2943
36.5101 22.916
36.6981 22.6535
36.8861 22.448
37.0743 22.0197
37.2626 21.8203
37.451 21.5077
37.6395 21.3562
37.8281 21.0018
38.0168 20.6718
38.2056 20.4752
38.3945 20.1496
38.5837 19.9248
38.7728 19.6971
38.9621 19.4647
39.1514 19.2277
39.3409 18.8976
39.5304 18.7236
39.7201 18.5409
39.9099 18.3049
40.0999 18.0328
40.2899 17.818
40.48 17.5712
40.6703 17.3727
40.8607 17.155
41.0512 16.9447
41.242 16.6378
41.4327 16.456
41.6236 16.2305
41.8146 16.097
42.0057 15.8117
42.1969 15.602
42.3882 15.4621
42.5797 15.1518
42.7713 15.0113
42.963 14.767
43.1549 14.584
43.3468 14.3617
43.5389 14.1702
43.7312 14.0531
43.9237 13.7794
44.1162 13.5898
44.3088 13.4218
44.5016 13.1877
44.6945 13.0362
44.8875 12.8414
45.0806 12.6768
45.2739 12.532
45.4673 12.3381
45.6609 12.1235
45.8546 11.9952
46.0484 11.8136
46.2424 11.6558
46.4365 11.4912
46.631 11.3449
46.8254 11.1382
47.0199 10.9809
47.2146 10.8432
47.4095 10.6157
47.6044 10.474
47.7996 10.3518
47.9948 10.1578
48.1902 10.0489
48.3858 9.90757
48.5815 9.75164
48.7774 9.63229
48.9734 9.48568
49.1696 9.35696
49.3661 9.15688
49.5626 9.01612
49.7592 8.90513
49.956 8.80515
50.153 8.65854
50.3501 8.51481
50.5474 8.42708
50.7448 8.26557
50.9424 8.14515
51.1402 8.02155
51.3381 7.83856
51.5362 7.77173
51.7344 7.5987
51.9328 7.46841
52.1316 7.34239
52.3304 7.26776
52.5293 7.12837
52.7284 7.01567
52.9276 6.88727
53.1271 6.78731
53.3267 6.63911
53.5265 6.53021
53.7264 6.40869
53.9266 6.34594
54.1269 6.17768
54.3274 6.10484
54.528 5.96232
54.7289 5.76846
54.9301 5.63278
55.1314 5.46078
55.3328 5.33919
55.5344 5.07787
55.7361 5.00563