File: XRD/Ni3Fe_FD0388.xy
TT I
1.27165 7.44363
1.45013 7.05811
1.62863 5.46123
1.80712 5.23771
1.98562 4.73059
2.16411 4.54148
2.34263 5.17659
2.52115 6.20918
2.69965 7.40576
2.87818 8.25952
3.05672 10.9621
3.23527 15.0468
3.4138 19.2486
3.59237 24.6157
3.77094 26.3919
3.9495 30.1681
4.12809 35.3645
4.30669 215.718
4.4853 66.3795
4.6639 56.5715
4.84253 69.0611
5.02118 90.235
5.19981 455.446
5.37848 225.843
5.55716 105.893
5.73586 95.0369
5.91455 98.6461
6.09328 4007.09
6.27201 86.7371
6.45075 69.4237
6.62952 64.56
6.8083 60.2968
6.98711 57.1199
7.16591 56.9112
7.34475 92.8732
7.5236 55.9303
7.70247 57.7293
7.88135 59.2641
8.06026 63.7822
8.23919 71.3589
8.41812 87.843
8.59709 1145.44
8.77609 104.924
8.9551 93.942
9.13412 84.0788
9.31318 85.0526
9.49226 86.836
9.67134 100.911
9.85047 103.169
10.0296 384.684
10.2088 507.419
10.388 108.09
10.5672 484.14
10.7465 89.6076
10.9257 80.6963
11.105 73.6673
11.2844 72.1556
11.4637 66.8
11.6431 65.0375
11.8225 64.0153
12.002 65.3401
12.1814 147.93
12.3609 72.9494
12.5405 66.2704
12.72 71.5704
12.8996 72.8181
13.0792 81.264
13.2589 235.956
13.4386 140.732
13.6183 238.54
13.7981 106.7
13.9779 77.595
14.1577 74.6214
14.3376 73.6687
14.5175 70.6527
14.6974 72.2344
14.8774 113.946
15.0574 164.324
15.2374 72.8973
15.4175 68.1186
15.5976 67.4065
15.7778 98.0633
15.958 168.444
16.1382 64.3539
16.3185 60.3048
16.4988 56.9229
16.6792 55.9819
16.8596 56.7608
17.04 57.4358
17.2205 68.0886
17.401 74.6211
17.5815 60.7821
17.7622 62.809
17.9428 76.8527
18.1237 137.645
18.3044 91.0058
18.4852 82.6953
18.666 62.0392
18.8469 59.3734
19.0278 58.3402
19.2088 61.1748
19.3898 76.9496
19.5709 55.9113
19.752 54.6005
19.9332 57.827
20.1144 70.4498
20.2957 64.4089
20.477 55.9282
20.6586 51.0701
20.84 50.2905
21.0215 49.928
21.203 51.8552
21.3846 50.4574
21.5662 50.2032
21.7479 53.9904
21.9297 65.4777
22.1115 56.9932
22.2933 51.5052
22.4753 50.1489
22.6572 50.2004
22.8393 53.1916
23.0214 58.6991
23.2037 50.1283
23.3859 51.1434
23.5682 57.3724
23.7505 50.151
23.9329 46.4169
24.1154 45.3206
24.2979 44.6728
24.4805 43.995
24.6631 44.0521
24.8458 43.4021
25.0286 43.9466
25.2114 45.8175
25.3943 45.7952
25.5773 41.9964
25.7605 41.5405
25.9436 41.9374
26.1268 42.615
26.31 41.2212
26.4933 41.8613
26.6767 43.1358
26.8601 41.4263
27.0437 39.8423
27.2272 39.5291
27.4109 39.45
27.5946 39.2858
27.7784 38.8086
27.9623 39.2044
28.1462 39.836
28.3304 38.2527
28.5145 36.9471
28.6987 36.592
28.8829 36.2461
29.0673 35.491
29.2517 35.1797
29.4361 35.0224
29.6207 34.0483
29.8053 33.7419
29.99 33.3348
30.1748 33.2827
30.3597 33.1023
30.5447 33.068
30.7297 33.0198
30.915 32.448
31.1002 31.9729
31.2855 31.7081
31.4708 31.5694
31.6563 31.1998
31.8418 31.0214
32.0275 30.7599
32.2132 30.1645
32.399 29.6993
32.5848 29.2653
32.7708 28.8641
32.9569 28.7005
33.143 28.3998
33.3293 28.087
33.5158 27.7374
33.7022 27.2668
33.8887 26.9618
34.0753 26.5757
34.262 26.2728
34.4488 25.9293
34.6357 25.6215
34.8227 25.3561
35.0098 25.1006
35.1969 24.8216
35.3842 24.6482
35.5716 24.3732
35.759 24.0451
35.9468 23.8103
36.1345 23.4722
36.3222 23.2466
36.5101 23.0442
36.6981 22.6781
36.8861 22.2928
37.0743 22.055
37.2626 21.7695
37.451 21.5654
37.6395 21.3618
37.8281 20.9802
38.0168 20.7512
38.2056 20.4425
38.3945 20.1578
38.5837 19.9718
38.7728 19.67
38.9621 19.4306
39.1514 19.1535
39.3409 18.9227
39.5304 18.6945
39.7201 18.5457
39.9099 18.3343
40.0999 18.044
40.2899 17.8088
40.48 17.5637
40.6703 17.3893
40.8607 17.1692
41.0512 16.9297
41.242 16.6927
41.4327 16.476
41.6236 16.1737
41.8146 16.0748
42.0057 15.7686
42.1969 15.5625
42.3882 15.4565
42.5797 15.1765
42.7713 14.9784
42.963 14.7944
43.1549 14.5732
43.3468 14.3803
43.5389 14.2085
43.7312 13.993
43.9237 13.8602
44.1162 13.6264
44.3088 13.3904
44.5016 13.2173
44.6945 13.0436
44.8875 12.8445
45.0806 12.6679
45.2739 12.5024
45.4673 12.3335
45.6609 12.1778
45.8546 11.9802
46.0484 11.8096
46.2424 11.6497
46.4365 11.4684
46.631 11.3295
46.8254 11.1177
47.0199 10.9923
47.2146 10.8056
47.4095 10.6539
47.6044 10.5076
47.7996 10.2897
47.9948 10.1734
48.1902 10.0447
48.3858 9.95006
48.5815 9.76127
48.7774 9.62419
48.9734 9.47148
49.1696 9.31379
49.3661 9.2389
49.5626 9.02919
49.7592 8.93182
49.956 8.7887
50.153 8.62816
50.3501 8.50627
50.5474 8.39027
50.7448 8.25426
50.9424 8.13018
51.1402 8.00193
51.3381 7.8625
51.5362 7.77562
51.7344 7.62627
51.9328 7.50906
52.1316 7.32271
52.3304 7.26489
52.5293 7.12487
52.7284 7.02495
52.9276 6.88681
53.1271 6.77124
53.3267 6.66027
53.5265 6.5779
53.7264 6.42929
53.9266 6.30569
54.1269 6.22242
54.3274 6.08627
54.528 5.92813
54.7289 5.80643
54.9301 5.60853
55.1314 5.46422
55.3328 5.2749
55.5344 5.0539
55.7361 4.97791