File: XRD/Ni3Fe_FD0914.xy
TT I
1.27165 7.68596
1.45013 6.23458
1.62863 4.9181
1.80712 4.86034
1.98562 4.55613
2.16411 4.44529
2.34263 5.86439
2.52115 7.1884
2.69965 8.6274
2.87818 8.84996
3.05672 11.1442
3.23527 14.9352
3.4138 18.4983
3.59237 22.9037
3.77094 25.5329
3.9495 29.4467
4.12809 34.1732
4.30669 121.067
4.4853 55.2327
4.6639 54.9428
4.84253 67.5901
5.02118 85.9042
5.19981 355.547
5.37848 183.064
5.55716 100.656
5.73586 91.4633
5.91455 93.1807
6.09328 4621.23
6.27201 79.2982
6.45075 68.0458
6.62952 61.9623
6.8083 58.3934
6.98711 55.0557
7.16591 54.8653
7.34475 70.6134
7.5236 53.6153
7.70247 55.9881
7.88135 57.1223
8.06026 61.9348
8.23919 68.3511
8.41812 82.6604
8.59709 1198.92
8.77609 96.2266
8.9551 88.6159
9.13412 81.6112
9.31318 82.9691
9.49226 83.4773
9.67134 94.9066
9.85047 99.5079
10.0296 329.008
10.2088 321.864
10.388 103.022
10.5672 542.806
10.7465 84.6331
10.9257 76.7887
11.105 70.3454
11.2844 67.7756
11.4637 63.6146
11.6431 62.465
11.8225 61.4614
12.002 63.3338
12.1814 157.963
12.3609 66.1329
12.5405 63.8906
12.72 67.1918
12.8996 70.1401
13.0792 78.8704
13.2589 244.974
13.4386 113.67
13.6183 258.166
13.7981 91.549
13.9779 74.5978
14.1577 70.8701
14.3376 69.4952
14.5175 67.6182
14.6974 69.6311
14.8774 110.044
15.0574 137.383
15.2374 68.6771
15.4175 65.47
15.5976 64.7479
15.7778 93.244
15.958 145.263
16.1382 60.5776
16.3185 56.8589
16.4988 54.3689
16.6792 53.412
16.8596 53.8353
17.04 54.8696
17.2205 65.7776
17.401 67.5933
17.5815 58.1862
17.7622 60.5094
17.9428 72.2827
18.1237 139.438
18.3044 90.7066
18.4852 72.9116
18.666 59.1881
18.8469 56.9914
19.0278 55.8319
19.2088 58.1989
19.3898 74.8602
19.5709 53.0644
19.752 52.4104
19.9332 55.1508
20.1144 69.4564
20.2957 63.8624
20.477 51.8867
20.6586 48.711
20.84 47.9252
21.0215 47.8726
21.203 50.3831
21.3846 48.0296
21.5662 48.0433
21.7479 51.9821
21.9297 64.2469
22.1115 55.5717
22.2933 48.8105
22.4753 47.8201
22.6572 48.0614
22.8393 51.3654
23.0214 56.221
23.2037 47.8976
23.3859 48.8789
23.5682 57.0066
23.7505 47.0389
23.9329 44.4975
24.1154 43.5154
24.2979 42.6311
24.4805 42.257
24.6631 42.0411
24.8458 41.5631
25.0286 42.2045
25.2114 44.0565
25.3943 43.7169
25.5773 40.1105
25.7605 39.8008
25.9436 40.1977
26.1268 41.034
26.31 39.4804
26.4933 40.0771
26.6767 41.6342
26.8601 39.8847
27.0437 38.2137
27.2272 38.0186
27.4109 37.8514
27.5946 37.744
27.7784 37.2042
27.9623 37.9461
28.1462 38.2124
28.3304 36.3552
28.5145 35.338
28.6987 35.0447
28.8829 34.8961
29.0673 34.0951
29.2517 33.6771
29.4361 33.605
29.6207 32.5749
29.8053 32.3028
29.99 32.0082
30.1748 31.8508
30.3597 31.6623
30.5447 31.6651
30.7297 31.675
30.915 31.0331
31.1002 30.6114
31.2855 30.3196
31.4708 30.3896
31.6563 29.8412
31.8418 29.6273
32.0275 29.4097
32.2132 28.8409
32.399 28.4788
32.5848 28.0352
32.7708 27.7761
32.9569 27.6353
33.143 27.4037
33.3293 26.9005
33.5158 26.5895
33.7022 26.1959
33.8887 25.9337
34.0753 25.5131
34.262 25.1811
34.4488 24.88
34.6357 24.5345
34.8227 24.2904
35.0098 24.1123
35.1969 23.7731
35.3842 23.6025
35.5716 23.4479
35.759 23.0515
35.9468 22.723
36.1345 22.4723
36.3222 22.3022
36.5101 22.0276
36.6981 21.7333
36.8861 21.4224
37.0743 21.123
37.2626 20.863
37.451 20.6308
37.6395 20.4887
37.8281 20.1396
38.0168 19.8836
38.2056 19.6229
38.3945 19.3463
38.5837 19.1459
38.7728 18.8742
38.9621 18.6802
39.1514 18.3884
39.3409 18.1482
39.5304 17.9587
39.7201 17.7701
39.9099 17.5216
40.0999 17.2888
40.2899 17.0559
40.48 16.714
40.6703 16.6094
40.8607 16.469
41.0512 16.2673
41.242 15.9566
41.4327 15.7796
41.6236 15.553
41.8146 15.3499
42.0057 15.1475
42.1969 14.9733
42.3882 14.7921
42.5797 14.5981
42.7713 14.3593
42.963 14.1673
43.1549 14.0098
43.3468 13.7454
43.5389 13.6281
43.7312 13.3973
43.9237 13.2339
44.1162 13.0298
44.3088 12.8392
44.5016 12.6721
44.6945 12.4529
44.8875 12.3351
45.0806 12.2094
45.2739 11.9689
45.4673 11.853
45.6609 11.6041
45.8546 11.4991
46.0484 11.2866
46.2424 11.1591
46.4365 11.0239
46.631 10.8652
46.8254 10.7295
47.0199 10.5329
47.2146 10.3665
47.4095 10.1983
47.6044 10.0625
47.7996 9.88979
47.9948 9.79513
48.1902 9.61339
48.3858 9.49295
48.5815 9.36454
48.7774 9.22798
48.9734 9.07246
49.1696 8.93708
49.3661 8.77302
49.5626 8.64896
49.7592 8.57676
49.956 8.44455
50.153 8.27696
50.3501 8.15821
50.5474 8.01752
50.7448 7.91738
50.9424 7.80134
51.1402 7.70053
51.3381 7.52403
51.5362 7.4171
51.7344 7.31529
51.9328 7.21691
52.1316 7.07016
52.3304 6.98798
52.5293 6.85122
52.7284 6.70944
52.9276 6.65832
53.1271 6.51442
53.3267 6.39697
53.5265 6.28807
53.7264 6.17989
53.9266 6.09923
54.1269 5.96382
54.3274 5.85705
54.528 5.68565
54.7289 5.58861
54.9301 5.44893
55.1314 5.2383
55.3328 5.02961
55.5344 4.82688
55.7361 4.72675