File: XRD/Ni3Fe_FD1032.xy
TT I
1.27165 6.70137
1.45013 6.29461
1.62863 4.95869
1.80712 4.54196
1.98562 4.31871
2.16411 4.35912
2.34263 4.97614
2.52115 7.24125
2.69965 8.14285
2.87818 8.82646
3.05672 10.8211
3.23527 14.6638
3.4138 18.1743
3.59237 21.0598
3.77094 24.7784
3.9495 28.3172
4.12809 32.1886
4.30669 57.2087
4.4853 45.7655
4.6639 52.9952
4.84253 64.0681
5.02118 82.4177
5.19981 228.312
5.37848 221.943
5.55716 96.6955
5.73586 88.1126
5.91455 88.6479
6.09328 4533.72
6.27201 75.9458
6.45075 63.0617
6.62952 57.5253
6.8083 54.1844
6.98711 52.1993
7.16591 51.1545
7.34475 55.8884
7.5236 60.3482
7.70247 53.0652
7.88135 54.6399
8.06026 58.7311
8.23919 64.9909
8.41812 77.3108
8.59709 1062.91
8.77609 94.7881
8.9551 82.332
9.13412 78.5489
9.31318 91.6651
9.49226 80.5955
9.67134 85.7444
9.85047 93.5422
10.0296 336.554
10.2088 449.804
10.388 97.1311
10.5672 502.369
10.7465 86.5771
10.9257 73.1902
11.105 67.7421
11.2844 64.3474
11.4637 61.7287
11.6431 60.2527
11.8225 59.5649
12.002 67.5834
12.1814 145.878
12.3609 64.1986
12.5405 61.085
12.72 63.8283
12.8996 67.5747
13.0792 76.3886
13.2589 223.044
13.4386 127.535
13.6183 233.428
13.7981 101.327
13.9779 73.2315
14.1577 76.4275
14.3376 67.1199
14.5175 66.1081
14.6974 67.0355
14.8774 107.523
15.0574 161.355
15.2374 66.4355
15.4175 63.7545
15.5976 62.9985
15.7778 93.0493
15.958 167.924
16.1382 59.6424
16.3185 55.3886
16.4988 53.151
16.6792 52.4579
16.8596 52.5583
17.04 53.3383
17.2205 64.284
17.401 71.7163
17.5815 56.8631
17.7622 59.878
17.9428 72.2697
18.1237 141.745
18.3044 88.3775
18.4852 79.2204
18.666 58.6256
18.8469 56.2842
19.0278 54.7801
19.2088 57.5893
19.3898 75.8943
19.5709 52.8405
19.752 51.4252
19.9332 54.5458
20.1144 70.1135
20.2957 63.1866
20.477 52.6094
20.6586 48.2459
20.84 47.8599
21.0215 47.1624
21.203 49.3276
21.3846 47.5834
21.5662 47.5338
21.7479 51.4516
21.9297 65.1079
22.1115 55.7535
22.2933 49.0718
22.4753 47.2564
22.6572 47.4043
22.8393 50.8659
23.0214 57.263
23.2037 47.6237
23.3859 49.045
23.5682 57.0502
23.7505 48.0685
23.9329 44.2015
24.1154 42.8992
24.2979 42.2642
24.4805 41.7361
24.6631 41.887
24.8458 41.0036
25.0286 41.8084
25.2114 43.9745
25.3943 44.1389
25.5773 39.9802
25.7605 39.4529
25.9436 39.9215
26.1268 41.2049
26.31 39.2265
26.4933 39.8486
26.6767 41.8841
26.8601 39.8606
27.0437 38.1347
27.2272 37.7066
27.4109 37.659
27.5946 37.8014
27.7784 37.0622
27.9623 37.9268
28.1462 38.52
28.3304 36.6781
28.5145 35.2579
28.6987 34.7869
28.8829 34.742
29.0673 34.0465
29.2517 33.546
29.4361 33.6245
29.6207 32.386
29.8053 32.0908
29.99 31.8481
30.1748 31.7916
30.3597 31.6226
30.5447 31.5389
30.7297 31.7274
30.915 31.0833
31.1002 30.5236
31.2855 30.2456
31.4708 30.2959
31.6563 29.7643
31.8418 29.5659
32.0275 29.3943
32.2132 28.7745
32.399 28.407
32.5848 27.9478
32.7708 27.5677
32.9569 27.4846
33.143 27.3052
33.3293 26.9038
33.5158 26.4995
33.7022 26.013
33.8887 25.802
34.0753 25.4482
34.262 25.2038
34.4488 24.7557
34.6357 24.4495
34.8227 24.238
35.0098 23.9727
35.1969 23.7663
35.3842 23.6043
35.5716 23.3861
35.759 22.9648
35.9468 22.6794
36.1345 22.5062
36.3222 22.2261
36.5101 21.9685
36.6981 21.7076
36.8861 21.3748
37.0743 21.1203
37.2626 20.9017
37.451 20.6699
37.6395 20.3699
37.8281 20.088
38.0168 19.7957
38.2056 19.5392
38.3945 19.2597
38.5837 19.1019
38.7728 18.8834
38.9621 18.5732
39.1514 18.313
39.3409 18.1306
39.5304 17.8673
39.7201 17.705
39.9099 17.4908
40.0999 17.3088
40.2899 17.0864
40.48 16.7717
40.6703 16.5566
40.8607 16.3985
41.0512 16.2121
41.242 15.9422
41.4327 15.7749
41.6236 15.5187
41.8146 15.3536
42.0057 15.1126
42.1969 14.8759
42.3882 14.7636
42.5797 14.5166
42.7713 14.3646
42.963 14.1411
43.1549 13.9566
43.3468 13.7258
43.5389 13.5621
43.7312 13.3991
43.9237 13.1915
44.1162 12.9914
44.3088 12.8634
44.5016 12.6496
44.6945 12.4553
44.8875 12.3264
45.0806 12.1144
45.2739 11.9544
45.4673 11.8227
45.6609 11.5841
45.8546 11.4418
46.0484 11.2889
46.2424 11.1506
46.4365 10.9838
46.631 10.8074
46.8254 10.6582
47.0199 10.4941
47.2146 10.36
47.4095 10.1973
47.6044 10.0538
47.7996 9.8784
47.9948 9.73494
48.1902 9.62801
48.3858 9.49525
48.5815 9.35612
48.7774 9.21869
48.9734 9.06793
49.1696 8.93992
49.3661 8.7906
49.5626 8.64609
49.7592 8.50188
49.956 8.40046
50.153 8.29136
50.3501 8.13394
50.5474 8.02252
50.7448 7.91867
50.9424 7.76506
51.1402 7.63803
51.3381 7.48088
51.5362 7.44068
51.7344 7.29009
51.9328 7.15131
52.1316 7.03503
52.3304 6.95133
52.5293 6.83917
52.7284 6.70878
52.9276 6.59576
53.1271 6.46484
53.3267 6.39528
53.5265 6.22579
53.7264 6.16212
53.9266 6.04238
54.1269 5.92273
54.3274 5.84144
54.528 5.6841
54.7289 5.52764
54.9301 5.38717
55.1314 5.26807
55.3328 5.03734
55.5344 4.93523
55.7361 4.72177