File: XRD/Ni3Fe_FD0103.xy
TT I
1.27165 8.10477
1.45013 7.11584
1.62863 6.42111
1.80712 5.28648
1.98562 5.01698
2.16411 4.69531
2.34263 3.74293
2.52115 3.7426
2.69965 5.45516
2.87818 7.3752
3.05672 10.912
3.23527 14.8449
3.4138 18.1624
3.59237 21.5132
3.77094 24.4234
3.9495 28.0113
4.12809 31.866
4.30669 37.2486
4.4853 44.0349
4.6639 53.392
4.84253 65.349
5.02118 92.9596
5.19981 651.758
5.37848 646.06
5.55716 110.874
5.73586 97.1756
5.91455 109.792
6.09328 2217.83
6.27201 94.9771
6.45075 66.3694
6.62952 59.0794
6.8083 54.3826
6.98711 52.1065
7.16591 51.3082
7.34475 51.2425
7.5236 58.0563
7.70247 53.0352
7.88135 55.2586
8.06026 59.6893
8.23919 66.7916
8.41812 83.9282
8.59709 769.293
8.77609 127.615
8.9551 85.1277
9.13412 80.726
9.31318 93.3723
9.49226 82.597
9.67134 87.3792
9.85047 97.8324
10.0296 583.238
10.2088 1172.64
10.388 104.923
10.5672 269.067
10.7465 93.6298
10.9257 74.2529
11.105 69.1372
11.2844 64.8804
11.4637 62.5008
11.6431 61.0381
11.8225 60.0112
12.002 68.1131
12.1814 105.073
12.3609 80.5451
12.5405 62.2666
12.72 64.2426
12.8996 68.7795
13.0792 78.257
13.2589 186.682
13.4386 247.885
13.6183 170.682
13.7981 181.931
13.9779 75.1321
14.1577 75.9339
14.3376 67.8207
14.5175 67.1742
14.6974 68.7031
14.8774 120.224
15.0574 206.609
15.2374 68.4275
15.4175 64.8936
15.5976 64.5845
15.7778 107.774
15.958 176.816
16.1382 61.8723
16.3185 56.3657
16.4988 54.1112
16.6792 52.9994
16.8596 53.3381
17.04 54.383
17.2205 63.3142
17.401 81.0166
17.5815 58.0054
17.7622 60.2997
17.9428 84.6844
18.1237 101.647
18.3044 87.482
18.4852 99.1171
18.666 59.8448
18.8469 57.2768
19.0278 55.7325
19.2088 61.2587
19.3898 65.1892
19.5709 56.8048
19.752 52.3581
19.9332 57.6808
20.1144 63.611
20.2957 59.5843
20.477 60.6254
20.6586 49.0627
20.84 48.3729
21.0215 48.4006
21.203 48.4227
21.3846 50.2478
21.5662 48.1822
21.7479 53.3712
21.9297 58.7415
22.1115 55.9636
22.2933 52.6922
22.4753 47.9402
22.6572 48.3813
22.8393 50.9412
23.0214 54.6766
23.2037 49.6168
23.3859 51.27
23.5682 51.2318
23.7505 54.4827
23.9329 44.9474
24.1154 43.7187
24.2979 42.922
24.4805 42.309
24.6631 42.4219
24.8458 41.8359
25.0286 42.2563
25.2114 43.5112
25.3943 43.7879
25.5773 41.505
25.7605 40.1458
25.9436 40.3155
26.1268 40.6287
26.31 40.5246
26.4933 40.1675
26.6767 40.9908
26.8601 40.8967
27.0437 39.0061
27.2272 38.2436
27.4109 37.9911
27.5946 38.0081
27.7784 38.0846
27.9623 37.7913
28.1462 38.4451
28.3304 37.3835
28.5145 35.8593
28.6987 35.4414
28.8829 34.8783
29.0673 34.7916
29.2517 33.9041
29.4361 33.4687
29.6207 33.1073
29.8053 32.4663
29.99 32.2128
30.1748 32.0678
30.3597 32.0331
30.5447 31.7856
30.7297 31.5939
30.915 31.5364
31.1002 30.962
31.2855 30.485
31.4708 30.3949
31.6563 30.4122
31.8418 29.8919
32.0275 29.6747
32.2132 29.282
32.399 28.6896
32.5848 28.1781
32.7708 27.8741
32.9569 27.7787
33.143 27.4182
33.3293 27.0904
33.5158 26.8657
33.7022 26.2757
33.8887 26.0616
34.0753 25.8231
34.262 25.38
34.4488 25.0496
34.6357 24.6681
34.8227 24.3763
35.0098 24.2226
35.1969 23.9645
35.3842 23.6585
35.5716 23.5121
35.759 23.2615
35.9468 22.9392
36.1345 22.7326
36.3222 22.5116
36.5101 22.1741
36.6981 21.9022
36.8861 21.5945
37.0743 21.3107
37.2626 21.0816
37.451 20.8311
37.6395 20.5929
37.8281 20.2542
38.0168 19.9801
38.2056 19.7153
38.3945 19.4419
38.5837 19.2328
38.7728 19.0558
38.9621 18.768
39.1514 18.5334
39.3409 18.2578
39.5304 18.0622
39.7201 17.832
39.9099 17.6859
40.0999 17.4279
40.2899 17.1619
40.48 16.9405
40.6703 16.7679
40.8607 16.5832
41.0512 16.3687
41.242 16.1183
41.4327 15.9344
41.6236 15.6456
41.8146 15.5294
42.0057 15.2444
42.1969 15.1082
42.3882 14.919
42.5797 14.6883
42.7713 14.5054
42.963 14.2824
43.1549 14.1161
43.3468 13.8622
43.5389 13.7696
43.7312 13.5005
43.9237 13.3144
44.1162 13.1858
44.3088 12.9309
44.5016 12.7947
44.6945 12.6011
44.8875 12.4221
45.0806 12.1921
45.2739 12.0617
45.4673 11.8847
45.6609 11.7403
45.8546 11.5927
46.0484 11.4401
46.2424 11.2398
46.4365 11.093
46.631 10.9411
46.8254 10.6964
47.0199 10.5699
47.2146 10.4584
47.4095 10.2716
47.6044 10.1461
47.7996 9.97995
47.9948 9.83854
48.1902 9.71358
48.3858 9.54721
48.5815 9.40953
48.7774 9.30626
48.9734 9.14997
49.1696 9.03067
49.3661 8.89689
49.5626 8.71605
49.7592 8.60749
49.956 8.49993
50.153 8.39407
50.3501 8.198
50.5474 8.10277
50.7448 7.97058
50.9424 7.88123
51.1402 7.76475
51.3381 7.60464
51.5362 7.45513
51.7344 7.37554
51.9328 7.22233
52.1316 7.10608
52.3304 7.01318
52.5293 6.8844
52.7284 6.8016
52.9276 6.66138
53.1271 6.56855
53.3267 6.4397
53.5265 6.31334
53.7264 6.21042
53.9266 6.0955
54.1269 5.99716
54.3274 5.86775
54.528 5.70123
54.7289 5.53201
54.9301 5.38204
55.1314 5.18877
55.3328 4.96188
55.5344 4.80247
55.7361 4.68342