File: XRD/Ni3Fe_FD0441.xy
TT I
1.27165 7.70569
1.45013 6.76743
1.62863 5.81992
1.80712 5.21016
1.98562 4.85067
2.16411 4.77039
2.34263 5.44858
2.52115 6.43204
2.69965 7.44689
2.87818 8.87561
3.05672 10.7067
3.23527 15.0381
3.4138 19.3689
3.59237 24.0656
3.77094 26.0772
3.9495 29.8231
4.12809 34.9556
4.30669 170.154
4.4853 61.7487
4.6639 56.095
4.84253 68.6207
5.02118 89.9375
5.19981 477.173
5.37848 203.776
5.55716 104.387
5.73586 94.2908
5.91455 98.7267
6.09328 4353.32
6.27201 84.9663
6.45075 68.3965
6.62952 63.5347
6.8083 59.2851
6.98711 56.2565
7.16591 55.7977
7.34475 82.9797
7.5236 55.3618
7.70247 56.8792
7.88135 58.8199
8.06026 63.2228
8.23919 70.9723
8.41812 87.0917
8.59709 1230.7
8.77609 102.204
8.9551 91.9093
9.13412 83.5062
9.31318 84.1317
9.49226 86.3892
9.67134 98.5078
9.85047 102.306
10.0296 398.003
10.2088 423.835
10.388 107.313
10.5672 506.298
10.7465 88.5141
10.9257 79.6243
11.105 72.9949
11.2844 70.9839
11.4637 66.0925
11.6431 64.7281
11.8225 63.5424
12.002 65.1799
12.1814 154.635
12.3609 70.4273
12.5405 65.771
12.72 70.2782
12.8996 72.6007
13.0792 81.2409
13.2589 247.304
13.4386 126.406
13.6183 249.589
13.7981 98.6392
13.9779 77.2123
14.1577 73.5985
14.3376 72.237
14.5175 70.356
14.6974 72.0016
14.8774 116.67
15.0574 152.162
15.2374 71.7145
15.4175 67.7396
15.5976 67.1992
15.7778 100.128
15.958 157.262
16.1382 63.1471
16.3185 59.4313
16.4988 56.5025
16.6792 55.3917
16.8596 55.9373
17.04 56.9452
17.2205 68.402
17.401 72.2066
17.5815 60.1691
17.7622 62.5673
17.9428 76.7545
18.1237 138.722
18.3044 91.9776
18.4852 78.315
18.666 61.3236
18.8469 59.0788
19.0278 57.9309
19.2088 60.937
19.3898 77.3961
19.5709 55.1737
19.752 54.4059
19.9332 57.6218
20.1144 70.8448
20.2957 64.4558
20.477 54.3698
20.6586 50.715
20.84 49.6113
21.0215 49.5994
21.203 51.6317
21.3846 49.8947
21.5662 49.7762
21.7479 54.1105
21.9297 65.5414
22.1115 56.7703
22.2933 50.6892
22.4753 49.7282
22.6572 49.9524
22.8393 52.9539
23.0214 58.2732
23.2037 49.7004
23.3859 50.7943
23.5682 57.4334
23.7505 49.1415
23.9329 46.0844
24.1154 44.8654
24.2979 44.3107
24.4805 43.8595
24.6631 43.4939
24.8458 42.959
25.0286 43.6918
25.2114 45.4296
25.3943 45.4188
25.5773 41.6965
25.7605 41.1348
25.9436 41.461
26.1268 42.4001
26.31 40.886
26.4933 41.5427
26.6767 42.9539
26.8601 41.1414
27.0437 39.5381
27.2272 39.2295
27.4109 39.0626
27.5946 39.1878
27.7784 38.7159
27.9623 39.1184
28.1462 39.4842
28.3304 37.7515
28.5145 36.5449
28.6987 36.3116
28.8829 35.8591
29.0673 35.2897
29.2517 34.9742
29.4361 34.7597
29.6207 33.7558
29.8053 33.505
29.99 33.1753
30.1748 32.93
30.3597 32.8649
30.5447 32.7417
30.7297 32.8587
30.915 32.1456
31.1002 31.7324
31.2855 31.5076
31.4708 31.2968
31.6563 30.8302
31.8418 30.5651
32.0275 30.4676
32.2132 29.8658
32.399 29.3997
32.5848 29.0039
32.7708 28.6516
32.9569 28.5538
33.143 28.2146
33.3293 27.8445
33.5158 27.4243
33.7022 27.1493
33.8887 26.7493
34.0753 26.4668
34.262 26.0551
34.4488 25.7036
34.6357 25.421
34.8227 25.0873
35.0098 24.8517
35.1969 24.5445
35.3842 24.3536
35.5716 24.1506
35.759 23.8521
35.9468 23.5128
36.1345 23.2533
36.3222 23.1083
36.5101 22.8487
36.6981 22.5418
36.8861 22.1954
37.0743 21.9119
37.2626 21.6062
37.451 21.3569
37.6395 21.1719
37.8281 20.8669
38.0168 20.5839
38.2056 20.3063
38.3945 19.9907
38.5837 19.7868
38.7728 19.6399
38.9621 19.3429
39.1514 19.0374
39.3409 18.7275
39.5304 18.5378
39.7201 18.2827
39.9099 18.161
40.0999 17.9244
40.2899 17.6628
40.48 17.4467
40.6703 17.2151
40.8607 17.0138
41.0512 16.8255
41.242 16.526
41.4327 16.375
41.6236 16.1255
41.8146 15.879
42.0057 15.6998
42.1969 15.4789
42.3882 15.3325
42.5797 15.0288
42.7713 14.8486
42.963 14.6533
43.1549 14.4892
43.3468 14.1892
43.5389 14.0917
43.7312 13.8921
43.9237 13.6418
44.1162 13.5016
44.3088 13.3088
44.5016 13.1182
44.6945 12.903
44.8875 12.7858
45.0806 12.6425
45.2739 12.4113
45.4673 12.2258
45.6609 12.0388
45.8546 11.8743
46.0484 11.7284
46.2424 11.5318
46.4365 11.3943
46.631 11.2353
46.8254 11.0505
47.0199 10.9231
47.2146 10.7344
47.4095 10.5241
47.6044 10.39
47.7996 10.2479
47.9948 10.092
48.1902 9.95536
48.3858 9.82468
48.5815 9.67548
48.7774 9.52401
48.9734 9.43359
49.1696 9.25927
49.3661 9.11444
49.5626 8.95431
49.7592 8.83348
49.956 8.69645
50.153 8.59347
50.3501 8.46759
50.5474 8.32381
50.7448 8.1863
50.9424 8.0759
51.1402 7.96807
51.3381 7.79535
51.5362 7.68849
51.7344 7.56078
51.9328 7.40314
52.1316 7.31292
52.3304 7.17204
52.5293 7.02792
52.7284 6.9726
52.9276 6.84487
53.1271 6.73125
53.3267 6.60918
53.5265 6.46037
53.7264 6.41453
53.9266 6.24171
54.1269 6.15574
54.3274 6.06299
54.528 5.90195
54.7289 5.74727
54.9301 5.63071
55.1314 5.42633
55.3328 5.25195
55.5344 5.08328
55.7361 4.91045