File: XRD/Ni3Fe_FD0311.xy
TT I
1.27165 7.69519
1.45013 6.58365
1.62863 5.29427
1.80712 5.14276
1.98562 4.5908
2.16411 4.85984
2.34263 5.51728
2.52115 5.87495
2.69965 6.45685
2.87818 8.69472
3.05672 11.0341
3.23527 15.1478
3.4138 19.2911
3.59237 25.3259
3.77094 26.7648
3.9495 30.6633
4.12809 36.2139
4.30669 322.225
4.4853 78.0034
4.6639 56.8979
4.84253 68.7902
5.02118 90.2556
5.19981 477.705
5.37848 247.474
5.55716 106.077
5.73586 95.6319
5.91455 99.1357
6.09328 3650.29
6.27201 89.9498
6.45075 70.2493
6.62952 65.4606
6.8083 61.2641
6.98711 58.2253
7.16591 57.6788
7.34475 116.455
7.5236 56.8131
7.70247 58.2803
7.88135 59.5491
8.06026 64.0491
8.23919 71.8457
8.41812 89.4871
8.59709 961.523
8.77609 107.198
8.9551 97.823
9.13412 83.8774
9.31318 84.7826
9.49226 87.0144
9.67134 105.999
9.85047 103.237
10.0296 361.781
10.2088 570.129
10.388 110.192
10.5672 449.417
10.7465 89.9872
10.9257 81.7835
11.105 74.2898
11.2844 74.3609
11.4637 66.9761
11.6431 65.7207
11.8225 64.7108
12.002 65.7761
12.1814 136.068
12.3609 77.359
12.5405 66.7453
12.72 74.387
12.8996 72.9255
13.0792 81.235
13.2589 207.727
13.4386 146.443
13.6183 210.952
13.7981 110.247
13.9779 78.2172
14.1577 75.523
14.3376 75.2183
14.5175 71.0107
14.6974 72.824
14.8774 107.515
15.0574 174.052
15.2374 74.9666
15.4175 68.6221
15.5976 67.8968
15.7778 93.8068
15.958 181.116
16.1382 66.3413
16.3185 61.3705
16.4988 57.5278
16.6792 56.3865
16.8596 57.4528
17.04 57.7164
17.2205 66.6187
17.401 76.8914
17.5815 61.4011
17.7622 63.2456
17.9428 76.3461
18.1237 138.752
18.3044 88.2634
18.4852 85.1359
18.666 62.6803
18.8469 60.0299
19.0278 59.0244
19.2088 61.645
19.3898 78.7738
19.5709 56.2709
19.752 55.1316
19.9332 58.1184
20.1144 71.6536
20.2957 63.764
20.477 56.4536
20.6586 51.4904
20.84 50.5078
21.0215 50.295
21.203 52.1065
21.3846 50.9154
21.5662 50.2915
21.7479 53.735
21.9297 66.4736
22.1115 57.3959
22.2933 51.9338
22.4753 50.6214
22.6572 50.4201
22.8393 52.8524
23.0214 60.1405
23.2037 50.7969
23.3859 51.3142
23.5682 57.4862
23.7505 50.7984
23.9329 46.6511
24.1154 45.721
24.2979 45.0274
24.4805 44.2532
24.6631 44.262
24.8458 43.5824
25.0286 44.2292
25.2114 45.9658
25.3943 46.397
25.5773 42.2793
25.7605 41.9106
25.9436 42.1339
26.1268 43.142
26.31 41.5069
26.4933 41.906
26.6767 43.4649
26.8601 41.9815
27.0437 40.3492
27.2272 39.7945
27.4109 39.7809
27.5946 39.7156
27.7784 39.2373
27.9623 39.4567
28.1462 40.2028
28.3304 38.5363
28.5145 37.2402
28.6987 36.8079
28.8829 36.5216
29.0673 35.874
29.2517 35.3665
29.4361 35.3252
29.6207 34.3955
29.8053 33.9757
29.99 33.6593
30.1748 33.5298
30.3597 33.404
30.5447 33.1435
30.7297 33.3201
30.915 32.739
31.1002 32.217
31.2855 31.9137
31.4708 31.9004
31.6563 31.4416
31.8418 31.2157
32.0275 30.9161
32.2132 30.4539
32.399 29.9404
32.5848 29.5037
32.7708 29.155
32.9569 28.9928
33.143 28.6266
33.3293 28.4168
33.5158 28.0285
33.7022 27.5418
33.8887 27.2811
34.0753 26.8903
34.262 26.5429
34.4488 26.1674
34.6357 25.873
34.8227 25.5405
35.0098 25.3519
35.1969 25.0234
35.3842 24.7312
35.5716 24.5177
35.759 24.2607
35.9468 23.9156
36.1345 23.6767
36.3222 23.4155
36.5101 23.1489
36.6981 22.8695
36.8861 22.5857
37.0743 22.2031
37.2626 22.0102
37.451 21.7058
37.6395 21.552
37.8281 21.2408
38.0168 20.8915
38.2056 20.6163
38.3945 20.3853
38.5837 20.1568
38.7728 19.847
38.9621 19.6295
39.1514 19.3109
39.3409 19.1658
39.5304 18.8459
39.7201 18.7181
39.9099 18.4348
40.0999 18.305
40.2899 17.9384
40.48 17.7547
40.6703 17.5696
40.8607 17.2793
41.0512 17.0739
41.242 16.796
41.4327 16.6331
41.6236 16.3905
41.8146 16.2303
42.0057 15.9943
42.1969 15.7407
42.3882 15.5231
42.5797 15.3859
42.7713 15.1335
42.963 14.9334
43.1549 14.7415
43.3468 14.5511
43.5389 14.3842
43.7312 14.1231
43.9237 13.9383
44.1162 13.7392
44.3088 13.542
44.5016 13.3453
44.6945 13.1613
44.8875 13.0508
45.0806 12.7827
45.2739 12.5982
45.4673 12.4288
45.6609 12.2613
45.8546 12.0978
46.0484 11.9491
46.2424 11.7628
46.4365 11.591
46.631 11.4028
46.8254 11.2465
47.0199 11.1048
47.2146 10.9323
47.4095 10.7358
47.6044 10.5866
47.7996 10.4656
47.9948 10.2509
48.1902 10.1714
48.3858 10.0334
48.5815 9.85657
48.7774 9.71162
48.9734 9.59019
49.1696 9.45622
49.3661 9.25501
49.5626 9.14797
49.7592 9.02499
49.956 8.89346
50.153 8.74907
50.3501 8.60812
50.5474 8.45042
50.7448 8.35495
50.9424 8.20707
51.1402 8.0818
51.3381 7.95489
51.5362 7.87297
51.7344 7.68772
51.9328 7.57727
52.1316 7.44729
52.3304 7.32354
52.5293 7.22795
52.7284 7.06902
52.9276 6.91821
53.1271 6.83849
53.3267 6.72843
53.5265 6.5613
53.7264 6.47795
53.9266 6.38278
54.1269 6.22465
54.3274 6.13421
54.528 5.98708
54.7289 5.80699
54.9301 5.67711
55.1314 5.50647
55.3328 5.35607
55.5344 5.09169
55.7361 4.92603