File: XRD/Ni3Fe_FD1059.xy
TT I
1.27165 7.27156
1.45013 6.3025
1.62863 4.47257
1.80712 4.56343
1.98562 3.55139
2.16411 4.20562
2.34263 5.02861
2.52115 7.33792
2.69965 8.04233
2.87818 8.89785
3.05672 10.9005
3.23527 14.3871
3.4138 18.3199
3.59237 21.1501
3.77094 24.7397
3.9495 28.4673
4.12809 32.5149
4.30669 56.7654
4.4853 46.635
4.6639 52.5272
4.84253 64.2379
5.02118 83.0125
5.19981 229.821
5.37848 210.556
5.55716 97.1659
5.73586 88.0812
5.91455 88.917
6.09328 4564.17
6.27201 75.8291
6.45075 63.7403
6.62952 58.0329
6.8083 54.2871
6.98711 52.6819
7.16591 51.3995
7.34475 56.0118
7.5236 58.6339
7.70247 53.2187
7.88135 54.611
8.06026 58.9027
8.23919 65.6097
8.41812 77.936
8.59709 1090.37
8.77609 94.548
8.9551 82.7268
9.13412 78.9201
9.31318 89.2311
9.49226 80.8448
9.67134 86.6114
9.85047 94.0454
10.0296 348.263
10.2088 449.402
10.388 97.8814
10.5672 508.083
10.7465 85.6624
10.9257 73.7828
11.105 68.2062
11.2844 64.8095
11.4637 61.7946
11.6431 60.9337
11.8225 59.5829
12.002 66.2249
12.1814 146.069
12.3609 64.8234
12.5405 61.4158
12.72 63.8268
12.8996 67.6762
13.0792 76.7275
13.2589 228.519
13.4386 128.306
13.6183 235.92
13.7981 100.899
13.9779 73.7263
14.1577 74.9211
14.3376 67.4831
14.5175 66.2787
14.6974 67.262
14.8774 110.06
15.0574 160.742
15.2374 66.6253
15.4175 64.0705
15.5976 63.4677
15.7778 94.7062
15.958 169.368
16.1382 59.8366
16.3185 55.9502
16.4988 53.5493
16.6792 52.5182
16.8596 52.9862
17.04 53.9056
17.2205 64.8133
17.401 72.3819
17.5815 57.1651
17.7622 59.8495
17.9428 73.3636
18.1237 142.818
18.3044 88.7981
18.4852 79.052
18.666 58.8709
18.8469 56.436
19.0278 55.0393
19.2088 58.1231
19.3898 76.2598
19.5709 53.0841
19.752 51.8707
19.9332 55.2387
20.1144 70.5254
20.2957 63.532
20.477 52.9701
20.6586 48.4554
20.84 47.8548
21.0215 47.4731
21.203 49.5857
21.3846 48.0633
21.5662 47.6179
21.7479 51.7015
21.9297 65.3655
22.1115 55.8958
22.2933 49.1022
22.4753 47.691
22.6572 47.7253
22.8393 51.0866
23.0214 57.4869
23.2037 47.9472
23.3859 49.4523
23.5682 57.2153
23.7505 48.3513
23.9329 44.3422
24.1154 43.0778
24.2979 42.4159
24.4805 42.0039
24.6631 42.0121
24.8458 41.2964
25.0286 41.9906
25.2114 44.292
25.3943 44.3731
25.5773 40.1451
25.7605 39.6565
25.9436 40.1877
26.1268 41.186
26.31 39.4491
26.4933 40.0014
26.6767 41.9198
26.8601 40.2656
27.0437 38.2706
27.2272 37.9857
27.4109 37.7724
27.5946 37.9802
27.7784 37.4541
27.9623 37.9684
28.1462 38.7163
28.3304 36.8321
28.5145 35.4393
28.6987 35.0743
28.8829 34.8426
29.0673 34.1391
29.2517 33.8094
29.4361 33.6602
29.6207 32.6037
29.8053 32.3163
29.99 32.111
30.1748 31.8901
30.3597 31.7522
30.5447 31.698
30.7297 31.8267
30.915 31.3259
31.1002 30.6306
31.2855 30.4451
31.4708 30.4424
31.6563 29.9928
31.8418 29.8106
32.0275 29.5489
32.2132 28.9896
32.399 28.5438
32.5848 28.0094
32.7708 27.6582
32.9569 27.7006
33.143 27.4222
33.3293 27.0234
33.5158 26.5547
33.7022 26.1704
33.8887 25.9275
34.0753 25.6562
34.262 25.3188
34.4488 24.9279
34.6357 24.6038
34.8227 24.4171
35.0098 24.0483
35.1969 23.8146
35.3842 23.6801
35.5716 23.5538
35.759 23.0574
35.9468 22.8133
36.1345 22.5773
36.3222 22.3568
36.5101 22.1289
36.6981 21.8809
36.8861 21.4667
37.0743 21.1604
37.2626 20.9442
37.451 20.6953
37.6395 20.5188
37.8281 20.1685
38.0168 19.9054
38.2056 19.6882
38.3945 19.4003
38.5837 19.1677
38.7728 18.9456
38.9621 18.6528
39.1514 18.4
39.3409 18.1721
39.5304 18.0198
39.7201 17.7788
39.9099 17.5424
40.0999 17.338
40.2899 17.1176
40.48 16.8353
40.6703 16.6949
40.8607 16.4537
41.0512 16.2773
41.242 15.9979
41.4327 15.8052
41.6236 15.6195
41.8146 15.4528
42.0057 15.2569
42.1969 14.9688
42.3882 14.846
42.5797 14.5672
42.7713 14.4456
42.963 14.1979
43.1549 14.0134
43.3468 13.8153
43.5389 13.6045
43.7312 13.4772
43.9237 13.2393
44.1162 13.0828
44.3088 12.9236
44.5016 12.7131
44.6945 12.5282
44.8875 12.3863
45.0806 12.1735
45.2739 12.0444
45.4673 11.8741
45.6609 11.6897
45.8546 11.5038
46.0484 11.3913
46.2424 11.1969
46.4365 11.0418
46.631 10.8681
46.8254 10.6644
47.0199 10.5612
47.2146 10.4285
47.4095 10.2182
47.6044 10.0991
47.7996 9.94785
47.9948 9.79424
48.1902 9.65977
48.3858 9.48978
48.5815 9.40903
48.7774 9.2665
48.9734 9.09676
49.1696 8.95316
49.3661 8.83185
49.5626 8.68574
49.7592 8.56156
49.956 8.46158
50.153 8.31987
50.3501 8.15603
50.5474 8.07681
50.7448 7.93315
50.9424 7.80615
51.1402 7.69263
51.3381 7.58195
51.5362 7.43756
51.7344 7.36257
51.9328 7.18393
52.1316 7.05523
52.3304 6.92856
52.5293 6.83286
52.7284 6.77489
52.9276 6.62534
53.1271 6.58095
53.3267 6.41362
53.5265 6.28826
53.7264 6.19823
53.9266 6.07727
54.1269 5.97639
54.3274 5.82835
54.528 5.72208
54.7289 5.53188
54.9301 5.45207
55.1314 5.30199
55.3328 5.11671
55.5344 4.92816
55.7361 4.72964