File: XRD/Ni3Fe_FD0046.xy
TT I
1.27165 33.1425
1.45013 26.5735
1.62863 23.7251
1.80712 21.2837
1.98562 21.186
2.16411 20.9358
2.34263 21.9181
2.52115 22.4881
2.69965 26.4137
2.87818 37.2752
3.05672 63.4236
3.23527 68.2941
3.4138 35.1229
3.59237 27.0899
3.77094 26.0843
3.9495 26.8245
4.12809 29.5837
4.30669 38.6025
4.4853 37.2871
4.6639 41.8604
4.84253 53.5663
5.02118 98.4452
5.19981 300.788
5.37848 3366.53
5.55716 152.793
5.73586 102.502
5.91455 117.265
6.09328 545.022
6.27201 237.101
6.45075 64.2758
6.62952 46.8613
6.8083 41.535
6.98711 40.0783
7.16591 42.9922
7.34475 39.8743
7.5236 55.6001
7.70247 43.7903
7.88135 37.8097
8.06026 39.7218
8.23919 45.13
8.41812 57.8562
8.59709 180.925
8.77609 426.836
8.9551 74.9088
9.13412 63.9513
9.31318 335.722
9.49226 57.5429
9.67134 55.9855
9.85047 62.056
10.0296 113.142
10.2088 658.34
10.388 104.191
10.5672 96.8635
10.7465 217.047
10.9257 50.7296
11.105 44.1219
11.2844 42.0439
11.4637 38.9722
11.6431 38.3501
11.8225 39.039
12.002 110.785
12.1814 49.6256
12.3609 89.7783
12.5405 42.3539
12.72 39.27
12.8996 40.643
13.0792 46.3785
13.2589 68.0659
13.4386 184.763
13.6183 82.2345
13.7981 186.655
13.9779 55.6643
14.1577 59.8777
14.3376 46.9596
14.5175 41.1054
14.6974 40.4971
14.8774 47.6801
15.0574 72.7927
15.2374 65.0629
15.4175 41.49
15.5976 40.0693
15.7778 44.5305
15.958 61.6189
16.1382 87.3782
16.3185 38.5111
16.4988 34.4865
16.6792 33.2064
16.8596 33.2834
17.04 42.8915
17.2205 35.0965
17.401 39.6985
17.5815 40.502
17.7622 37.2662
17.9428 40.8592
18.1237 45.0158
18.3044 87.5129
18.4852 55.5465
18.666 51.2421
18.8469 36.9168
19.0278 35.1499
19.2088 35.3001
19.3898 46.4657
19.5709 45.5834
19.752 34.257
19.9332 32.9507
20.1144 33.8795
20.2957 43.3703
20.477 39.184
20.6586 33.8151
20.84 34.6254
21.0215 30.1869
21.203 29.894
21.3846 30.8382
21.5662 31.6119
21.7479 30.7605
21.9297 32.2358
22.1115 41.7422
22.2933 38.4204
22.4753 32.1017
22.6572 30.5031
22.8393 31.8736
23.0214 31.7229
23.2037 38.3977
23.3859 31.8837
23.5682 34.0788
23.7505 35.5183
23.9329 33.0015
24.1154 29.4215
24.2979 27.9189
24.4805 27.2454
24.6631 27.3485
24.8458 27.4682
25.0286 26.7911
25.2114 26.9284
25.3943 28.9157
25.5773 29.6693
25.7605 26.6292
25.9436 26.9003
26.1268 25.8655
26.31 27.0165
26.4933 26.3949
26.6767 25.9877
26.8601 27.6253
27.0437 28.1227
27.2272 25.6404
27.4109 24.8827
27.5946 24.8942
27.7784 25.2752
27.9623 24.6542
28.1462 25.548
28.3304 26.2453
28.5145 25.0997
28.6987 23.8139
28.8829 23.0102
29.0673 22.8253
29.2517 22.8064
29.4361 22.1439
29.6207 22.0627
29.8053 21.8553
29.99 21.2629
30.1748 21.495
30.3597 21.0411
30.5447 21.1631
30.7297 20.877
30.915 21.173
31.1002 21.357
31.2855 20.6706
31.4708 20.3019
31.6563 20.4683
31.8418 20.4668
32.0275 19.9378
32.2132 20.0421
32.399 19.7703
32.5848 19.1377
32.7708 18.8085
32.9569 18.8176
33.143 18.5995
33.3293 18.311
33.5158 18.4174
33.7022 18.1101
33.8887 17.7214
34.0753 17.534
34.262 17.3244
34.4488 17.0063
34.6357 16.8895
34.8227 16.6173
35.0098 16.4027
35.1969 16.2363
35.3842 16.1585
35.5716 16.0225
35.759 16.0808
35.9468 15.7644
36.1345 15.534
36.3222 15.3345
36.5101 15.297
36.6981 15.05
36.8861 14.8416
37.0743 14.6564
37.2626 14.4752
37.451 14.2344
37.6395 14.2015
37.8281 14.014
38.0168 13.7309
38.2056 13.6296
38.3945 13.3945
38.5837 13.2489
38.7728 13.0647
38.9621 12.9756
39.1514 12.8071
39.3409 12.6501
39.5304 12.5348
39.7201 12.3982
39.9099 12.1998
40.0999 12.0868
40.2899 11.9619
40.48 11.7439
40.6703 11.7096
40.8607 11.5826
41.0512 11.4081
41.242 11.2658
41.4327 11.1131
41.6236 10.9408
41.8146 10.848
42.0057 10.7132
42.1969 10.5755
42.3882 10.4284
42.5797 10.277
42.7713 10.139
42.963 9.97938
43.1549 9.83526
43.3468 9.71343
43.5389 9.6232
43.7312 9.47753
43.9237 9.34383
44.1162 9.22593
44.3088 9.12937
44.5016 8.96307
44.6945 8.84939
44.8875 8.75393
45.0806 8.63139
45.2739 8.51252
45.4673 8.41686
45.6609 8.289
45.8546 8.17999
46.0484 8.1164
46.2424 7.9713
46.4365 7.86853
46.631 7.74472
46.8254 7.60726
47.0199 7.53335
47.2146 7.40292
47.4095 7.30074
47.6044 7.19999
47.7996 7.08571
47.9948 7.01361
48.1902 6.90894
48.3858 6.79744
48.5815 6.70714
48.7774 6.6402
48.9734 6.53292
49.1696 6.43181
49.3661 6.34951
49.5626 6.23398
49.7592 6.13889
49.956 6.0706
50.153 5.99996
50.3501 5.88373
50.5474 5.82177
50.7448 5.7118
50.9424 5.63545
51.1402 5.60279
51.3381 5.50523
51.5362 5.37845
51.7344 5.28883
51.9328 5.22372
52.1316 5.11789
52.3304 5.08888
52.5293 4.96936
52.7284 4.94989
52.9276 4.8645
53.1271 4.76251
53.3267 4.69133
53.5265 4.62297
53.7264 4.51793
53.9266 4.43617
54.1269 4.31738
54.3274 4.21544
54.528 4.15409
54.7289 3.98316
54.9301 3.84825
55.1314 3.78291
55.3328 3.60527
55.5344 3.41938
55.7361 3.41067