File: XRD/Ni3Fe_FD0648.xy
TT I
1.27165 7.30473
1.45013 6.17877
1.62863 5.11083
1.80712 5.42703
1.98562 5.00497
2.16411 5.10786
2.34263 5.8239
2.52115 6.70307
2.69965 7.8045
2.87818 8.22165
3.05672 10.9328
3.23527 15.6452
3.4138 19.2132
3.59237 24.9762
3.77094 26.885
3.9495 30.1826
4.12809 35.2422
4.30669 279.693
4.4853 71.522
4.6639 55.4683
4.84253 66.927
5.02118 86.2064
5.19981 329.33
5.37848 197.105
5.55716 102.04
5.73586 91.71
5.91455 93.4908
6.09328 4296.23
6.27201 84.4359
6.45075 67.8216
6.62952 63.8253
6.8083 59.2898
6.98711 56.7108
7.16591 55.9883
7.34475 105.524
7.5236 55.3205
7.70247 56.4013
7.88135 57.9946
8.06026 62.3277
8.23919 69.5874
8.41812 85.5915
8.59709 1087.12
8.77609 100.227
8.9551 93.8288
9.13412 81.9537
9.31318 82.1703
9.49226 84.3925
9.67134 101.506
9.85047 99.7847
10.0296 316.983
10.2088 448.877
10.388 104.903
10.5672 495.322
10.7465 86.9366
10.9257 79.2111
11.105 72.1704
11.2844 71.6289
11.4637 65.1636
11.6431 63.9534
11.8225 62.6453
12.002 63.5141
12.1814 146.023
12.3609 73.2722
12.5405 64.7333
12.72 71.6607
12.8996 71.0149
13.0792 78.6228
13.2589 224.955
13.4386 129.686
13.6183 235.98
13.7981 100.659
13.9779 76.0258
14.1577 72.9769
14.3376 72.4258
14.5175 68.7739
14.6974 70.703
14.8774 106.5
15.0574 155.031
15.2374 71.9228
15.4175 66.7617
15.5976 65.7355
15.7778 92.1083
15.958 163.948
16.1382 63.8132
16.3185 59.3099
16.4988 55.809
16.6792 54.6804
16.8596 55.7191
17.04 55.8721
17.2205 65.9483
17.401 72.6345
17.5815 59.3789
17.7622 61.3553
17.9428 72.5745
18.1237 138.015
18.3044 89.2805
18.4852 80.0856
18.666 60.5898
18.8469 58.3356
19.0278 57.1778
19.2088 59.5949
19.3898 76.9946
19.5709 54.5286
19.752 53.5399
19.9332 56.091
20.1144 69.9272
20.2957 63.6145
20.477 54.3007
20.6586 49.8908
20.84 49.1226
21.0215 48.8326
21.203 50.7293
21.3846 49.1254
21.5662 48.9162
21.7479 52.3812
21.9297 64.5709
22.1115 56.1202
22.2933 50.1346
22.4753 49.2279
22.6572 48.8271
22.8393 51.6753
23.0214 57.9211
23.2037 49.0069
23.3859 49.6432
23.5682 56.8592
23.7505 48.6971
23.9329 45.407
24.1154 44.3303
24.2979 43.6577
24.4805 43.049
24.6631 42.9351
24.8458 42.3871
25.0286 42.8308
25.2114 44.7021
25.3943 44.7197
25.5773 41.0185
25.7605 40.6884
25.9436 40.89
26.1268 41.8475
26.31 40.2699
26.4933 40.6775
26.6767 42.3547
26.8601 40.599
27.0437 39.0952
27.2272 38.6709
27.4109 38.4568
27.5946 38.413
27.7784 37.9157
27.9623 38.5242
28.1462 39.045
28.3304 37.3148
28.5145 36.1502
28.6987 35.8594
28.8829 35.6441
29.0673 34.7855
29.2517 34.457
29.4361 34.3741
29.6207 33.4377
29.8053 33.0649
29.99 32.6891
30.1748 32.5519
30.3597 32.5013
30.5447 32.3037
30.7297 32.2805
30.915 31.8278
31.1002 31.2112
31.2855 30.963
31.4708 30.9449
31.6563 30.586
31.8418 30.3587
32.0275 30.1236
32.2132 29.45
32.399 28.9801
32.5848 28.5981
32.7708 28.2305
32.9569 28.1373
33.143 27.9306
33.3293 27.5028
33.5158 27.1802
33.7022 26.6806
33.8887 26.3682
34.0753 26.1185
34.262 25.8018
34.4488 25.3999
34.6357 25.059
34.8227 24.7589
35.0098 24.5517
35.1969 24.237
35.3842 24.0781
35.5716 23.8598
35.759 23.5607
35.9468 23.2535
36.1345 23.0316
36.3222 22.7664
36.5101 22.4564
36.6981 22.2334
36.8861 21.8489
37.0743 21.568
37.2626 21.4006
37.451 21.0537
37.6395 20.9715
37.8281 20.5974
38.0168 20.3076
38.2056 20.013
38.3945 19.7248
38.5837 19.5471
38.7728 19.324
38.9621 19.0284
39.1514 18.7782
39.3409 18.5561
39.5304 18.2819
39.7201 18.1367
39.9099 17.9079
40.0999 17.7253
40.2899 17.3424
40.48 17.2181
40.6703 17.0224
40.8607 16.8306
41.0512 16.589
41.242 16.3117
41.4327 16.177
41.6236 15.9081
41.8146 15.7549
42.0057 15.4575
42.1969 15.2889
42.3882 15.1268
42.5797 14.8585
42.7713 14.6996
42.963 14.4834
43.1549 14.314
43.3468 14.0736
43.5389 13.9297
43.7312 13.6924
43.9237 13.5174
44.1162 13.3217
44.3088 13.172
44.5016 12.9237
44.6945 12.7997
44.8875 12.6293
45.0806 12.4578
45.2739 12.2645
45.4673 12.0812
45.6609 11.9124
45.8546 11.7249
46.0484 11.6171
46.2424 11.4131
46.4365 11.246
46.631 11.0795
46.8254 10.9436
47.0199 10.763
47.2146 10.6169
47.4095 10.4914
47.6044 10.2651
47.7996 10.1437
47.9948 10.0261
48.1902 9.84956
48.3858 9.68816
48.5815 9.5719
48.7774 9.45122
48.9734 9.2965
49.1696 9.14694
49.3661 9.01441
49.5626 8.85837
49.7592 8.71255
49.956 8.61105
50.153 8.49288
50.3501 8.3669
50.5474 8.22364
50.7448 8.12518
50.9424 7.99545
51.1402 7.84889
51.3381 7.69982
51.5362 7.60083
51.7344 7.46595
51.9328 7.33557
52.1316 7.18331
52.3304 7.09576
52.5293 6.97375
52.7284 6.83734
52.9276 6.76163
53.1271 6.66115
53.3267 6.5214
53.5265 6.44591
53.7264 6.30116
53.9266 6.18243
54.1269 6.07077
54.3274 5.95511
54.528 5.81517
54.7289 5.66142
54.9301 5.51468
55.1314 5.33775
55.3328 5.17203
55.5344 4.93318
55.7361 4.84016