File: XRD/Ni3Fe_FD0520.xy
TT I
1.27165 8.04252
1.45013 6.84868
1.62863 4.89388
1.80712 5.33553
1.98562 5.00418
2.16411 5.07202
2.34263 5.60655
2.52115 6.80903
2.69965 7.68997
2.87818 8.98793
3.05672 11.0806
3.23527 15.3965
3.4138 19.0443
3.59237 24.4793
3.77094 26.5109
3.9495 30.2093
4.12809 35.4934
4.30669 250.334
4.4853 69.2788
4.6639 55.8019
4.84253 67.7027
5.02118 88.2667
5.19981 381.709
5.37848 206.411
5.55716 103.208
5.73586 92.7696
5.91455 95.6701
6.09328 4119.01
6.27201 85.4123
6.45075 68.3025
6.62952 64.0768
6.8083 59.4245
6.98711 56.8718
7.16591 56.6474
7.34475 99.6483
7.5236 55.7335
7.70247 56.9045
7.88135 58.2986
8.06026 63.2727
8.23919 69.9161
8.41812 86.5391
8.59709 1131.75
8.77609 102.339
8.9551 93.7142
9.13412 82.6271
9.31318 83.6802
9.49226 85.1056
9.67134 101.334
9.85047 100.615
10.0296 342.325
10.2088 454.105
10.388 106.486
10.5672 494.151
10.7465 87.8485
10.9257 79.7791
11.105 72.9873
11.2844 71.4529
11.4637 65.5405
11.6431 64.2371
11.8225 63.1291
12.002 64.4173
12.1814 150.182
12.3609 72.6046
12.5405 65.0715
12.72 71.5051
12.8996 72.024
13.0792 79.6794
13.2589 230.477
13.4386 132.198
13.6183 238.184
13.7981 103.347
13.9779 76.7182
14.1577 73.2311
14.3376 73.0591
14.5175 69.7973
14.6974 71.5452
14.8774 109.765
15.0574 156.639
15.2374 72.4541
15.4175 67.1395
15.5976 66.4454
15.7778 94.4538
15.958 163.231
16.1382 64.0087
16.3185 59.7777
16.4988 56.2402
16.6792 55.2293
16.8596 56.2334
17.04 56.3761
17.2205 67.0717
17.401 72.599
17.5815 59.9163
17.7622 61.8264
17.9428 74.3233
18.1237 137.857
18.3044 90.0287
18.4852 80.9012
18.666 61.2052
18.8469 58.6241
19.0278 57.6398
19.2088 60.118
19.3898 77.3825
19.5709 54.9908
19.752 53.8258
19.9332 56.8812
20.1144 70.3103
20.2957 64.3893
20.477 54.9001
20.6586 50.433
20.84 49.3948
21.0215 49.242
21.203 51.1118
21.3846 49.678
21.5662 49.3692
21.7479 53.0965
21.9297 64.7718
22.1115 56.3533
22.2933 50.5905
22.4753 49.4622
22.6572 49.3435
22.8393 52.4058
23.0214 58.3335
23.2037 49.4046
23.3859 50.4385
23.5682 57.007
23.7505 49.1845
23.9329 45.9386
24.1154 44.8376
24.2979 43.9665
24.4805 43.39
24.6631 43.2968
24.8458 42.8013
25.0286 43.3114
25.2114 45.2451
25.3943 45.309
25.5773 41.5646
25.7605 40.9393
25.9436 41.3949
26.1268 42.1982
26.31 40.5637
26.4933 41.2147
26.6767 42.6307
26.8601 41.1834
27.0437 39.4999
27.2272 39.1004
27.4109 38.7854
27.5946 38.834
27.7784 38.3587
27.9623 38.6881
28.1462 39.3748
28.3304 37.6296
28.5145 36.5155
28.6987 36.0174
28.8829 35.8467
29.0673 35.1804
29.2517 34.7724
29.4361 34.5623
29.6207 33.5533
29.8053 33.3161
29.99 33.0154
30.1748 32.8423
30.3597 32.6476
30.5447 32.6887
30.7297 32.5983
30.915 31.9605
31.1002 31.6264
31.2855 31.2111
31.4708 31.1955
31.6563 30.7205
31.8418 30.5225
32.0275 30.272
32.2132 29.8159
32.399 29.3611
32.5848 28.9024
32.7708 28.5156
32.9569 28.356
33.143 28.1169
33.3293 27.7197
33.5158 27.3872
33.7022 26.9243
33.8887 26.6975
34.0753 26.3341
34.262 25.9195
34.4488 25.6337
34.6357 25.2354
34.8227 25.0532
35.0098 24.7856
35.1969 24.4316
35.3842 24.2554
35.5716 24.0776
35.759 23.7825
35.9468 23.3952
36.1345 23.2334
36.3222 22.9664
36.5101 22.7169
36.6981 22.4181
36.8861 22.1036
37.0743 21.7963
37.2626 21.5493
37.451 21.3004
37.6395 21.0245
37.8281 20.7986
38.0168 20.5024
38.2056 20.2372
38.3945 19.9298
38.5837 19.7305
38.7728 19.419
38.9621 19.2248
39.1514 18.9489
39.3409 18.6978
39.5304 18.5409
39.7201 18.2807
39.9099 18.1239
40.0999 17.8271
40.2899 17.5626
40.48 17.3601
40.6703 17.1833
40.8607 17.0272
41.0512 16.8076
41.242 16.4669
41.4327 16.276
41.6236 16.0556
41.8146 15.8749
42.0057 15.6298
42.1969 15.4809
42.3882 15.2047
42.5797 15.024
42.7713 14.764
42.963 14.5795
43.1549 14.3994
43.3468 14.1528
43.5389 14.0235
43.7312 13.822
43.9237 13.6615
44.1162 13.384
44.3088 13.204
44.5016 13.0625
44.6945 12.8738
44.8875 12.7155
45.0806 12.5213
45.2739 12.365
45.4673 12.2293
45.6609 12.0174
45.8546 11.8039
46.0484 11.6922
46.2424 11.5049
46.4365 11.3664
46.631 11.1511
46.8254 11.0286
47.0199 10.8666
47.2146 10.7121
47.4095 10.5329
47.6044 10.3835
47.7996 10.2055
47.9948 10.075
48.1902 9.91186
48.3858 9.77632
48.5815 9.69035
48.7774 9.53802
48.9734 9.3707
49.1696 9.24658
49.3661 9.08082
49.5626 8.95452
49.7592 8.80563
49.956 8.7044
50.153 8.52985
50.3501 8.40876
50.5474 8.29836
50.7448 8.18256
50.9424 8.05216
51.1402 7.90304
51.3381 7.77675
51.5362 7.67819
51.7344 7.53441
51.9328 7.39766
52.1316 7.26463
52.3304 7.202
52.5293 7.04289
52.7284 6.94461
52.9276 6.82043
53.1271 6.72054
53.3267 6.60009
53.5265 6.48116
53.7264 6.3572
53.9266 6.24911
54.1269 6.11326
54.3274 6.00818
54.528 5.89941
54.7289 5.69648
54.9301 5.57363
55.1314 5.42566
55.3328 5.21595
55.5344 5.01708
55.7361 4.89005