File: XRD/Ni3Fe_FD0359.xy
TT I
1.27165 7.74918
1.45013 6.09937
1.62863 5.7505
1.80712 4.95687
1.98562 4.32478
2.16411 4.89831
2.34263 5.38062
2.52115 6.43929
2.69965 7.80533
2.87818 7.78819
3.05672 11.2363
3.23527 15.1323
3.4138 19.215
3.59237 23.6709
3.77094 26.1511
3.9495 29.9082
4.12809 35.0755
4.30669 117.441
4.4853 55.9492
4.6639 56.8878
4.84253 69.7362
5.02118 92.1385
5.19981 615.185
5.37848 220.11
5.55716 106.824
5.73586 96.8072
5.91455 101.788
6.09328 4013.96
6.27201 85.252
6.45075 69.6128
6.62952 63.6258
6.8083 59.7678
6.98711 57.071
7.16591 56.4021
7.34475 72.3041
7.5236 55.512
7.70247 57.3671
7.88135 58.7937
8.06026 63.9595
8.23919 71.3934
8.41812 87.9095
8.59709 1190.62
8.77609 104.205
8.9551 91.0506
9.13412 84.3206
9.31318 86.0686
9.49226 86.863
9.67134 96.7039
9.85047 103.536
10.0296 443.984
10.2088 454.936
10.388 110.248
10.5672 488.056
10.7465 89.4667
10.9257 79.726
11.105 73.5162
11.2844 70.7805
11.4637 66.8232
11.6431 65.3707
11.8225 64.1973
12.002 66.5253
12.1814 151.033
12.3609 69.7578
12.5405 66.1218
12.72 70.0615
12.8996 73.1523
13.0792 83.5731
13.2589 246.739
13.4386 132.994
13.6183 245.197
13.7981 102.12
13.9779 77.8917
14.1577 74.1798
14.3376 72.4914
14.5175 70.8417
14.6974 72.9995
14.8774 120.402
15.0574 152.519
15.2374 71.3605
15.4175 68.2389
15.5976 68.1448
15.7778 103.378
15.958 161.741
16.1382 63.3898
16.3185 59.6182
16.4988 57.0656
16.6792 56.0466
16.8596 56.462
17.04 58.0075
17.2205 69.4327
17.401 73.1639
17.5815 60.892
17.7622 63.3328
17.9428 79.3003
18.1237 139.515
18.3044 91.8951
18.4852 79.2767
18.666 62.2345
18.8469 59.6927
19.0278 58.5321
19.2088 61.9168
19.3898 76.7814
19.5709 55.7385
19.752 54.7649
19.9332 58.6244
20.1144 71.3973
20.2957 64.6052
20.477 54.9569
20.6586 50.8867
20.84 50.3462
21.0215 50.2528
21.203 51.9048
21.3846 50.3635
21.5662 50.5547
21.7479 54.7012
21.9297 66.0599
22.1115 57.1388
22.2933 51.3056
22.4753 50.1379
22.6572 50.5541
22.8393 53.7178
23.0214 58.8808
23.2037 50.3173
23.3859 51.579
23.5682 57.7941
23.7505 49.6999
23.9329 46.6472
24.1154 45.4697
24.2979 44.5654
24.4805 44.1544
24.6631 44.0634
24.8458 43.4866
25.0286 44.2956
25.2114 45.8399
25.3943 45.8862
25.5773 41.9601
25.7605 41.5974
25.9436 42.1441
26.1268 42.9605
26.31 41.2569
26.4933 41.8731
26.6767 43.3323
26.8601 41.4832
27.0437 39.9837
27.2272 39.6744
27.4109 39.4889
27.5946 39.5167
27.7784 38.9663
27.9623 39.4627
28.1462 39.928
28.3304 38.2473
28.5145 36.9844
28.6987 36.6529
28.8829 36.3913
29.0673 35.6256
29.2517 35.2696
29.4361 34.9839
29.6207 34.0246
29.8053 33.7759
29.99 33.5163
30.1748 33.3693
30.3597 33.2178
30.5447 32.9848
30.7297 33.0726
30.915 32.4436
31.1002 31.9229
31.2855 31.7016
31.4708 31.6587
31.6563 31.2291
31.8418 30.9395
32.0275 30.7061
32.2132 30.1789
32.399 29.7285
32.5848 29.3547
32.7708 28.8692
32.9569 28.8094
33.143 28.5483
33.3293 28.114
33.5158 27.7825
33.7022 27.3583
33.8887 27.0277
34.0753 26.6612
34.262 26.2934
34.4488 26.0504
34.6357 25.5971
34.8227 25.3583
35.0098 25.0727
35.1969 24.8234
35.3842 24.5965
35.5716 24.3873
35.759 24.1023
35.9468 23.7179
36.1345 23.4703
36.3222 23.2577
36.5101 22.9883
36.6981 22.7055
36.8861 22.4124
37.0743 21.981
37.2626 21.8833
37.451 21.5694
37.6395 21.3855
37.8281 21.0717
38.0168 20.7807
38.2056 20.5174
38.3945 20.2032
38.5837 20.0037
38.7728 19.7515
38.9621 19.4619
39.1514 19.1941
39.3409 18.951
39.5304 18.7286
39.7201 18.509
39.9099 18.3065
40.0999 18.0574
40.2899 17.8113
40.48 17.6458
40.6703 17.3918
40.8607 17.1935
41.0512 16.9996
41.242 16.6586
41.4327 16.4724
41.6236 16.2209
41.8146 16.0475
42.0057 15.8471
42.1969 15.6319
42.3882 15.3959
42.5797 15.216
42.7713 15.0142
42.963 14.7748
43.1549 14.5991
43.3468 14.4339
43.5389 14.2333
43.7312 14.0
43.9237 13.8078
44.1162 13.6416
44.3088 13.4019
44.5016 13.247
44.6945 13.0768
44.8875 12.8906
45.0806 12.6454
45.2739 12.532
45.4673 12.3197
45.6609 12.1201
45.8546 11.9893
46.0484 11.8205
46.2424 11.6185
46.4365 11.4824
46.631 11.2746
46.8254 11.1505
47.0199 10.9954
47.2146 10.8882
47.4095 10.6983
47.6044 10.4896
47.7996 10.3245
47.9948 10.169
48.1902 10.0553
48.3858 9.89268
48.5815 9.78701
48.7774 9.65349
48.9734 9.517
49.1696 9.33662
49.3661 9.19212
49.5626 9.02049
49.7592 8.90779
49.956 8.7998
50.153 8.65146
50.3501 8.46373
50.5474 8.38314
50.7448 8.22151
50.9424 8.12022
51.1402 8.00957
51.3381 7.88584
51.5362 7.72777
51.7344 7.61512
51.9328 7.47879
52.1316 7.32935
52.3304 7.24261
52.5293 7.1421
52.7284 6.98435
52.9276 6.90631
53.1271 6.76028
53.3267 6.64377
53.5265 6.57111
53.7264 6.43976
53.9266 6.32096
54.1269 6.19441
54.3274 6.07934
54.528 5.97315
54.7289 5.75307
54.9301 5.65749
55.1314 5.48088
55.3328 5.21796
55.5344 5.10457
55.7361 4.89641