File: XRD/Ni3Fe_FD0807.xy
TT I
1.27165 6.90712
1.45013 6.13973
1.62863 5.12423
1.80712 4.83855
1.98562 4.60103
2.16411 4.69519
2.34263 4.95944
2.52115 7.40064
2.69965 7.73912
2.87818 9.24244
3.05672 10.7247
3.23527 14.9523
3.4138 18.3048
3.59237 23.4037
3.77094 25.291
3.9495 29.4303
4.12809 34.3669
4.30669 115.336
4.4853 54.8132
4.6639 55.3197
4.84253 68.1498
5.02118 86.5616
5.19981 393.204
5.37848 187.507
5.55716 101.361
5.73586 92.2749
5.91455 94.5603
6.09328 4530.45
6.27201 79.448
6.45075 68.5298
6.62952 62.5525
6.8083 58.7615
6.98711 55.3223
7.16591 55.6384
7.34475 70.3177
7.5236 54.0293
7.70247 56.4341
7.88135 57.1801
8.06026 61.9138
8.23919 68.8407
8.41812 83.2976
8.59709 1209.58
8.77609 96.8642
8.9551 89.084
9.13412 82.2847
9.31318 83.7189
9.49226 83.9666
9.67134 95.1112
9.85047 100.642
10.0296 345.876
10.2088 346.888
10.388 104.094
10.5672 536.758
10.7465 85.2362
10.9257 77.4094
11.105 70.715
11.2844 68.1607
11.4637 64.2844
11.6431 62.6513
11.8225 62.3924
12.002 64.0463
12.1814 158.054
12.3609 66.5672
12.5405 64.2535
12.72 67.6265
12.8996 70.7059
13.0792 79.7054
13.2589 248.646
13.4386 118.189
13.6183 258.317
13.7981 92.769
13.9779 75.046
14.1577 71.2315
14.3376 69.9904
14.5175 68.2292
14.6974 70.2012
14.8774 111.709
15.0574 139.045
15.2374 69.2082
15.4175 65.7393
15.5976 65.2714
15.7778 95.4364
15.958 145.769
16.1382 60.9744
16.3185 57.3921
16.4988 54.8548
16.6792 53.8622
16.8596 54.5482
17.04 55.6005
17.2205 66.7092
17.401 68.3075
17.5815 58.6906
17.7622 60.6831
17.9428 73.2205
18.1237 141.663
18.3044 91.4489
18.4852 74.2212
18.666 59.5659
18.8469 57.4341
19.0278 56.2644
19.2088 58.8438
19.3898 75.7542
19.5709 53.3598
19.752 52.6882
19.9332 55.6613
20.1144 69.7506
20.2957 64.0439
20.477 52.3427
20.6586 49.0919
20.84 48.3383
21.0215 48.1228
21.203 50.4209
21.3846 48.4914
21.5662 48.4017
21.7479 52.48
21.9297 64.2465
22.1115 56.1023
22.2933 49.0663
22.4753 48.2118
22.6572 48.3307
22.8393 51.6337
23.0214 56.5301
23.2037 48.3434
23.3859 49.3293
23.5682 57.1663
23.7505 47.3871
23.9329 44.6248
24.1154 43.4262
24.2979 43.0929
24.4805 42.606
24.6631 42.2591
24.8458 41.872
25.0286 42.5351
25.2114 44.2133
25.3943 43.9833
25.5773 40.4783
25.7605 39.9114
25.9436 40.4645
26.1268 41.3979
26.31 39.7194
26.4933 40.4353
26.6767 41.7857
26.8601 40.0153
27.0437 38.4338
27.2272 38.1921
27.4109 38.0104
27.5946 37.963
27.7784 37.5432
27.9623 38.0859
28.1462 38.3736
28.3304 36.7028
28.5145 35.4836
28.6987 35.2374
28.8829 35.0286
29.0673 34.28
29.2517 33.9625
29.4361 33.7728
29.6207 32.8088
29.8053 32.4765
29.99 32.2866
30.1748 32.0182
30.3597 31.8939
30.5447 31.7493
30.7297 31.8964
30.915 31.2909
31.1002 30.7936
31.2855 30.5148
31.4708 30.4346
31.6563 30.0037
31.8418 29.8441
32.0275 29.6311
32.2132 29.1337
32.399 28.6378
32.5848 28.193
32.7708 27.7832
32.9569 27.7122
33.143 27.605
33.3293 27.0982
33.5158 26.7404
33.7022 26.2796
33.8887 26.1084
34.0753 25.6152
34.262 25.3606
34.4488 25.0699
34.6357 24.6576
34.8227 24.3731
35.0098 24.2004
35.1969 23.9294
35.3842 23.7629
35.5716 23.528
35.759 23.2916
35.9468 22.8621
36.1345 22.6534
36.3222 22.4388
36.5101 22.1849
36.6981 21.8283
36.8861 21.5612
37.0743 21.2247
37.2626 21.0429
37.451 20.7691
37.6395 20.6007
37.8281 20.2795
38.0168 19.971
38.2056 19.8004
38.3945 19.542
38.5837 19.2761
38.7728 19.0057
38.9621 18.7753
39.1514 18.5318
39.3409 18.2928
39.5304 18.0708
39.7201 17.9158
39.9099 17.6138
40.0999 17.4085
40.2899 17.1905
40.48 16.9779
40.6703 16.8126
40.8607 16.5943
41.0512 16.3479
41.242 16.1129
41.4327 15.8986
41.6236 15.6693
41.8146 15.4514
42.0057 15.2305
42.1969 15.0154
42.3882 14.9032
42.5797 14.6195
42.7713 14.5016
42.963 14.2707
43.1549 14.0399
43.3468 13.8726
43.5389 13.6725
43.7312 13.5382
43.9237 13.3031
44.1162 13.1629
44.3088 12.9512
44.5016 12.7211
44.6945 12.6053
44.8875 12.4443
45.0806 12.2572
45.2739 12.0685
45.4673 11.9063
45.6609 11.7478
45.8546 11.5784
46.0484 11.3982
46.2424 11.226
46.4365 11.0902
46.631 10.9005
46.8254 10.7495
47.0199 10.5681
47.2146 10.4659
47.4095 10.2989
47.6044 10.1355
47.7996 9.95728
47.9948 9.83152
48.1902 9.71284
48.3858 9.52952
48.5815 9.41935
48.7774 9.32899
48.9734 9.17278
49.1696 9.01229
49.3661 8.87622
49.5626 8.73247
49.7592 8.58864
49.956 8.4913
50.153 8.32756
50.3501 8.21932
50.5474 8.0968
50.7448 7.97042
50.9424 7.84142
51.1402 7.70656
51.3381 7.59187
51.5362 7.4787
51.7344 7.34361
51.9328 7.20025
52.1316 7.08365
52.3304 6.9952
52.5293 6.89125
52.7284 6.79067
52.9276 6.60986
53.1271 6.58015
53.3267 6.43318
53.5265 6.29556
53.7264 6.24627
53.9266 6.11756
54.1269 6.03069
54.3274 5.88826
54.528 5.75262
54.7289 5.56427
54.9301 5.42407
55.1314 5.32476
55.3328 5.09118
55.5344 4.91422
55.7361 4.73703