File: XRD/Ni3Fe_FD0032.xy
TT I
1.27165 32.4773
1.45013 27.8185
1.62863 24.8892
1.80712 23.0043
1.98562 22.6067
2.16411 24.3557
2.34263 24.4385
2.52115 23.8881
2.69965 27.3246
2.87818 37.2496
3.05672 64.1549
3.23527 72.9719
3.4138 38.3872
3.59237 37.271
3.77094 36.3062
3.9495 33.9577
4.12809 44.7196
4.30669 86.9203
4.4853 56.2438
4.6639 45.1092
4.84253 53.0167
5.02118 89.268
5.19981 296.573
5.37848 3515.61
5.55716 154.424
5.73586 100.898
5.91455 113.754
6.09328 496.777
6.27201 282.291
6.45075 70.3728
6.62952 55.4202
6.8083 53.7121
6.98711 42.9604
7.16591 46.409
7.34475 74.2507
7.5236 53.743
7.70247 44.1234
7.88135 37.3238
8.06026 39.5145
8.23919 45.3049
8.41812 58.3388
8.59709 173.823
8.77609 568.673
8.9551 77.4732
9.13412 60.457
9.31318 256.369
9.49226 54.6901
9.67134 55.1767
9.85047 62.3788
10.0296 107.652
10.2088 561.48
10.388 121.315
10.5672 94.3153
10.7465 240.098
10.9257 49.44
11.105 44.1048
11.2844 42.9472
11.4637 38.9579
11.6431 38.7177
11.8225 37.4726
12.002 78.5885
12.1814 48.2634
12.3609 95.5728
12.5405 44.1065
12.72 42.1604
12.8996 40.0851
13.0792 43.8132
13.2589 66.4495
13.4386 166.807
13.6183 88.6559
13.7981 175.055
13.9779 58.3566
14.1577 50.2563
14.3376 46.4116
14.5175 39.4131
14.6974 39.4947
14.8774 45.3181
15.0574 64.4875
15.2374 78.9148
15.4175 41.7487
15.5976 39.3364
15.7778 42.9457
15.958 56.934
16.1382 101.721
16.3185 39.1728
16.4988 34.5713
16.6792 32.5251
16.8596 32.8436
17.04 40.4146
17.2205 34.4971
17.401 37.7606
17.5815 44.4188
17.7622 36.1133
17.9428 40.2554
18.1237 44.0207
18.3044 92.973
18.4852 55.3546
18.666 57.4361
18.8469 36.5623
19.0278 34.4066
19.2088 34.6014
19.3898 41.3702
19.5709 47.1233
19.752 34.9616
19.9332 32.5927
20.1144 33.1816
20.2957 43.7161
20.477 38.9605
20.6586 36.3357
20.84 32.4065
21.0215 29.9536
21.203 29.3352
21.3846 29.9242
21.5662 31.8109
21.7479 30.2353
21.9297 31.7972
22.1115 42.0003
22.2933 40.2462
22.4753 33.9178
22.6572 30.3425
22.8393 31.0825
23.0214 31.5346
23.2037 39.6978
23.3859 32.8143
23.5682 34.022
23.7505 34.8483
23.9329 37.2253
24.1154 29.3024
24.2979 27.6618
24.4805 26.9542
24.6631 27.0242
24.8458 27.7158
25.0286 26.4902
25.2114 26.7453
25.3943 28.9496
25.5773 30.2765
25.7605 27.7232
25.9436 26.874
26.1268 25.786
26.31 26.9436
26.4933 27.068
26.6767 26.1307
26.8601 27.658
27.0437 29.1446
27.2272 26.1333
27.4109 24.8137
27.5946 24.8861
27.7784 25.2067
27.9623 24.9198
28.1462 25.5627
28.3304 27.0013
28.5145 26.205
28.6987 24.5212
28.8829 23.122
29.0673 22.8323
29.2517 23.225
29.4361 22.2018
29.6207 22.1475
29.8053 22.3857
29.99 21.4139
30.1748 21.4576
30.3597 21.2099
30.5447 21.5081
30.7297 21.1481
30.915 21.3507
31.1002 22.1449
31.2855 21.2201
31.4708 20.5204
31.6563 20.5639
31.8418 21.1087
32.0275 20.2394
32.2132 20.3443
32.399 20.3266
32.5848 19.5297
32.7708 18.8742
32.9569 18.8278
33.143 18.7656
33.3293 18.3685
33.5158 18.7819
33.7022 18.6018
33.8887 17.9286
34.0753 17.7208
34.262 17.4996
34.4488 17.1483
34.6357 17.0166
34.8227 16.8949
35.0098 16.574
35.1969 16.3155
35.3842 16.2879
35.5716 16.1928
35.759 16.3569
35.9468 16.2892
36.1345 15.8827
36.3222 15.634
36.5101 15.4734
36.6981 15.2724
36.8861 15.1321
37.0743 15.0289
37.2626 14.7028
37.451 14.5002
37.6395 14.394
37.8281 14.164
38.0168 13.9554
38.2056 13.8359
38.3945 13.5559
38.5837 13.485
38.7728 13.3668
38.9621 13.1511
39.1514 13.0643
39.3409 12.7784
39.5304 12.6548
39.7201 12.4904
39.9099 12.4365
40.0999 12.2352
40.2899 12.2027
40.48 11.9746
40.6703 11.7825
40.8607 11.707
41.0512 11.5893
41.242 11.4478
41.4327 11.3124
41.6236 11.1654
41.8146 10.9933
42.0057 10.8375
42.1969 10.7551
42.3882 10.5649
42.5797 10.4547
42.7713 10.2765
42.963 10.1423
43.1549 10.0531
43.3468 9.91256
43.5389 9.78003
43.7312 9.61687
43.9237 9.47722
44.1162 9.41438
44.3088 9.30831
44.5016 9.10836
44.6945 9.07055
44.8875 8.91496
45.0806 8.81941
45.2739 8.69236
45.4673 8.57352
45.6609 8.44127
45.8546 8.31943
46.0484 8.21969
46.2424 8.12243
46.4365 7.97427
46.631 7.88825
46.8254 7.74805
47.0199 7.69024
47.2146 7.55894
47.4095 7.40338
47.6044 7.32309
47.7996 7.24614
47.9948 7.11549
48.1902 7.00288
48.3858 6.92332
48.5815 6.80361
48.7774 6.73087
48.9734 6.63788
49.1696 6.5296
49.3661 6.43217
49.5626 6.34879
49.7592 6.25662
49.956 6.19504
50.153 6.09918
50.3501 5.99715
50.5474 5.93846
50.7448 5.82319
50.9424 5.76628
51.1402 5.66607
51.3381 5.55648
51.5362 5.48678
51.7344 5.3932
51.9328 5.32692
52.1316 5.24133
52.3304 5.18744
52.5293 5.06673
52.7284 5.00229
52.9276 4.95357
53.1271 4.84048
53.3267 4.76342
53.5265 4.65965
53.7264 4.59866
53.9266 4.54296
54.1269 4.43064
54.3274 4.33491
54.528 4.23018
54.7289 4.07064
54.9301 3.96167
55.1314 3.84292
55.3328 3.67284
55.5344 3.53918
55.7361 3.47622