File: XRD/Ni3Fe_FD0101.xy
TT I
1.27165 9.29907
1.45013 6.95103
1.62863 6.7713
1.80712 5.62688
1.98562 5.30737
2.16411 5.08521
2.34263 4.14982
2.52115 4.65839
2.69965 5.15012
2.87818 7.5488
3.05672 10.7668
3.23527 14.84
3.4138 18.8787
3.59237 21.2093
3.77094 24.5892
3.9495 28.2968
4.12809 32.4917
4.30669 37.0653
4.4853 44.2322
4.6639 53.3678
4.84253 65.4288
5.02118 93.3725
5.19981 665.17
5.37848 669.925
5.55716 111.431
5.73586 97.5695
5.91455 111.509
6.09328 2184.34
6.27201 95.9757
6.45075 66.7578
6.62952 58.9762
6.8083 54.9132
6.98711 53.1247
7.16591 51.3978
7.34475 51.4346
7.5236 58.172
7.70247 53.1708
7.88135 55.3625
8.06026 60.0092
8.23919 66.8418
8.41812 84.0758
8.59709 759.294
8.77609 128.363
8.9551 84.6801
9.13412 80.6187
9.31318 94.6082
9.49226 82.4082
9.67134 87.7806
9.85047 97.9989
10.0296 587.777
10.2088 1197.56
10.388 105.148
10.5672 264.374
10.7465 94.7282
10.9257 74.81
11.105 69.2382
11.2844 65.2137
11.4637 62.3588
11.6431 60.9873
11.8225 60.1098
12.002 69.0467
12.1814 104.366
12.3609 80.754
12.5405 62.273
12.72 63.8773
12.8996 68.6025
13.0792 78.7771
13.2589 184.529
13.4386 248.32
13.6183 168.642
13.7981 183.877
13.9779 75.3286
14.1577 76.3733
14.3376 67.798
14.5175 66.9774
14.6974 68.7254
14.8774 119.915
15.0574 206.552
15.2374 68.209
15.4175 65.1709
15.5976 64.6707
15.7778 107.446
15.958 175.498
16.1382 61.9201
16.3185 56.388
16.4988 54.171
16.6792 52.9323
16.8596 53.2167
17.04 54.3814
17.2205 63.0462
17.401 80.9009
17.5815 57.9083
17.7622 60.4846
17.9428 84.6499
18.1237 101.038
18.3044 87.1549
18.4852 99.0022
18.666 60.1677
18.8469 57.2462
19.0278 55.7987
19.2088 61.296
19.3898 65.0255
19.5709 56.7958
19.752 52.4194
19.9332 57.6353
20.1144 63.5305
20.2957 59.3945
20.477 60.3829
20.6586 48.9701
20.84 48.466
21.0215 48.1948
21.203 48.3317
21.3846 50.2327
21.5662 48.1786
21.7479 53.2333
21.9297 58.6604
22.1115 55.8803
22.2933 52.6379
22.4753 48.0153
22.6572 48.1421
22.8393 50.9156
23.0214 54.5279
23.2037 49.4961
23.3859 51.315
23.5682 51.1815
23.7505 54.4257
23.9329 45.0589
24.1154 43.5784
24.2979 42.9203
24.4805 42.1716
24.6631 42.4551
24.8458 41.6815
25.0286 42.2932
25.2114 43.3267
25.3943 43.6316
25.5773 41.3836
25.7605 40.1192
25.9436 40.299
26.1268 40.5594
26.31 40.5727
26.4933 40.0485
26.6767 40.8101
26.8601 40.9651
27.0437 39.0723
27.2272 38.2445
27.4109 37.8352
27.5946 38.0398
27.7784 38.0821
27.9623 37.8343
28.1462 38.4554
28.3304 37.4256
28.5145 35.8003
28.6987 35.27
28.8829 34.8039
29.0673 34.705
29.2517 33.8745
29.4361 33.6339
29.6207 33.1891
29.8053 32.4856
29.99 32.1635
30.1748 31.9478
30.3597 32.1166
30.5447 31.7544
30.7297 31.6248
30.915 31.6321
31.1002 30.9555
31.2855 30.6234
31.4708 30.2857
31.6563 30.3637
31.8418 29.8283
32.0275 29.5496
32.2132 29.2151
32.399 28.6893
32.5848 28.1877
32.7708 27.8353
32.9569 27.7494
33.143 27.3498
33.3293 27.1678
33.5158 26.7919
33.7022 26.2824
33.8887 25.9279
34.0753 25.7369
34.262 25.3507
34.4488 25.0293
34.6357 24.6541
34.8227 24.4546
35.0098 24.2218
35.1969 23.9447
35.3842 23.6338
35.5716 23.5271
35.759 23.1985
35.9468 22.8498
36.1345 22.5905
36.3222 22.4179
36.5101 22.1792
36.6981 21.9033
36.8861 21.6442
37.0743 21.2768
37.2626 21.0327
37.451 20.7333
37.6395 20.6099
37.8281 20.3261
38.0168 19.9603
38.2056 19.7048
38.3945 19.4569
38.5837 19.238
38.7728 18.9351
38.9621 18.7823
39.1514 18.5183
39.3409 18.2233
39.5304 17.9991
39.7201 17.8392
39.9099 17.6251
40.0999 17.4409
40.2899 17.1857
40.48 16.959
40.6703 16.7306
40.8607 16.5647
41.0512 16.3455
41.242 16.1129
41.4327 15.8523
41.6236 15.6259
41.8146 15.4606
42.0057 15.2658
42.1969 15.0605
42.3882 14.8646
42.5797 14.6709
42.7713 14.4665
42.963 14.2787
43.1549 14.0444
43.3468 13.8354
43.5389 13.6992
43.7312 13.475
43.9237 13.2969
44.1162 13.1511
44.3088 12.945
44.5016 12.7524
44.6945 12.5667
44.8875 12.3996
45.0806 12.2579
45.2739 12.0547
45.4673 11.9069
45.6609 11.7184
45.8546 11.5446
46.0484 11.3957
46.2424 11.2504
46.4365 11.1124
46.631 10.8738
46.8254 10.7706
47.0199 10.5702
47.2146 10.4298
47.4095 10.2724
47.6044 10.0834
47.7996 9.99461
47.9948 9.83711
48.1902 9.679
48.3858 9.58141
48.5815 9.43602
48.7774 9.29802
48.9734 9.14929
49.1696 9.00614
49.3661 8.88518
49.5626 8.73394
49.7592 8.59485
49.956 8.46927
50.153 8.36267
50.3501 8.22438
50.5474 8.09682
50.7448 8.01464
50.9424 7.84892
51.1402 7.73291
51.3381 7.58056
51.5362 7.50183
51.7344 7.35642
51.9328 7.22327
52.1316 7.12631
52.3304 7.01385
52.5293 6.87694
52.7284 6.76346
52.9276 6.66942
53.1271 6.59083
53.3267 6.45263
53.5265 6.30056
53.7264 6.19321
53.9266 6.0936
54.1269 5.98104
54.3274 5.8508
54.528 5.68042
54.7289 5.54667
54.9301 5.35578
55.1314 5.21537
55.3328 4.97618
55.5344 4.77965
55.7361 4.70571