File: XRD/Ni3Fe_FD1058.xy
TT I
1.27165 6.92717
1.45013 5.71354
1.62863 4.7344
1.80712 4.05191
1.98562 4.45028
2.16411 4.27382
2.34263 5.18841
2.52115 6.93713
2.69965 8.99709
2.87818 8.90301
3.05672 10.7636
3.23527 14.8977
3.4138 18.3372
3.59237 21.4359
3.77094 24.7022
3.9495 28.3148
4.12809 32.5178
4.30669 56.1068
4.4853 46.2796
4.6639 52.5038
4.84253 64.2108
5.02118 82.881
5.19981 232.67
5.37848 209.785
5.55716 97.4854
5.73586 87.9585
5.91455 89.0955
6.09328 4546.63
6.27201 75.7627
6.45075 63.65
6.62952 58.115
6.8083 54.8645
6.98711 52.7719
7.16591 51.5408
7.34475 55.786
7.5236 58.6255
7.70247 53.1599
7.88135 54.8248
8.06026 59.0451
8.23919 65.5017
8.41812 78.0406
8.59709 1096.01
8.77609 94.889
8.9551 82.4094
9.13412 79.2343
9.31318 89.5001
9.49226 80.9937
9.67134 86.4279
9.85047 93.9835
10.0296 350.918
10.2088 439.187
10.388 97.6708
10.5672 506.237
10.7465 86.5518
10.9257 73.4217
11.105 68.1279
11.2844 65.1389
11.4637 61.9094
11.6431 60.6448
11.8225 59.5873
12.002 66.5403
12.1814 146.302
12.3609 64.5126
12.5405 61.46
12.72 63.9596
12.8996 68.0242
13.0792 76.784
13.2589 229.247
13.4386 127.639
13.6183 237.815
13.7981 100.215
13.9779 73.5266
14.1577 75.1973
14.3376 67.3684
14.5175 66.5949
14.6974 67.5024
14.8774 110.169
15.0574 160.25
15.2374 66.5136
15.4175 64.1356
15.5976 63.485
15.7778 94.8602
15.958 168.862
16.1382 59.9832
16.3185 55.6165
16.4988 53.3242
16.6792 52.5423
16.8596 53.0435
17.04 53.8449
17.2205 64.6929
17.401 72.2864
17.5815 57.463
17.7622 60.137
17.9428 73.5155
18.1237 142.327
18.3044 88.801
18.4852 79.0545
18.666 58.9437
18.8469 56.2742
19.0278 55.0121
19.2088 58.1242
19.3898 76.2279
19.5709 53.0912
19.752 51.7909
19.9332 55.3333
20.1144 70.5537
20.2957 63.4821
20.477 52.9237
20.6586 48.3546
20.84 47.9187
21.0215 47.4784
21.203 49.7465
21.3846 48.0242
21.5662 47.7057
21.7479 51.8476
21.9297 65.4401
22.1115 56.0099
22.2933 49.2075
22.4753 47.6318
22.6572 47.6804
22.8393 51.3356
23.0214 57.5185
23.2037 47.8015
23.3859 49.4007
23.5682 57.3792
23.7505 48.3326
23.9329 44.2501
24.1154 43.1792
24.2979 42.5375
24.4805 42.0176
24.6631 42.0542
24.8458 41.3639
25.0286 42.035
25.2114 44.1487
25.3943 44.3276
25.5773 40.1626
25.7605 39.5742
25.9436 40.0609
26.1268 41.3769
26.31 39.4171
26.4933 40.0107
26.6767 41.8099
26.8601 40.0505
27.0437 38.2865
27.2272 37.8749
27.4109 37.7513
27.5946 38.0407
27.7784 37.4238
27.9623 38.0756
28.1462 38.8585
28.3304 36.8938
28.5145 35.4298
28.6987 35.1328
28.8829 34.9591
29.0673 34.2338
29.2517 33.8159
29.4361 33.7994
29.6207 32.6193
29.8053 32.2729
29.99 32.037
30.1748 31.8757
30.3597 31.8091
30.5447 31.7167
30.7297 31.9536
30.915 31.2873
31.1002 30.676
31.2855 30.4687
31.4708 30.4002
31.6563 29.9388
31.8418 29.733
32.0275 29.5751
32.2132 28.9789
32.399 28.5315
32.5848 28.1898
32.7708 27.743
32.9569 27.5849
33.143 27.4506
33.3293 27.056
33.5158 26.6959
33.7022 26.1652
33.8887 25.9021
34.0753 25.6255
34.262 25.2382
34.4488 24.8604
34.6357 24.6417
34.8227 24.3993
35.0098 24.0858
35.1969 23.8815
35.3842 23.6691
35.5716 23.4668
35.759 23.1994
35.9468 22.8209
36.1345 22.5949
36.3222 22.306
36.5101 22.1755
36.6981 21.8206
36.8861 21.4982
37.0743 21.2394
37.2626 20.9671
37.451 20.6966
37.6395 20.5308
37.8281 20.1914
38.0168 19.9624
38.2056 19.6309
38.3945 19.4192
38.5837 19.1687
38.7728 18.9463
38.9621 18.6405
39.1514 18.4593
39.3409 18.2586
39.5304 18.0196
39.7201 17.8348
39.9099 17.5966
40.0999 17.3719
40.2899 17.1215
40.48 16.9132
40.6703 16.7207
40.8607 16.5496
41.0512 16.307
41.242 16.0049
41.4327 15.8072
41.6236 15.6369
41.8146 15.4194
42.0057 15.1998
42.1969 14.9597
42.3882 14.8207
42.5797 14.6126
42.7713 14.439
42.963 14.2336
43.1549 14.0191
43.3468 13.7909
43.5389 13.6428
43.7312 13.4221
43.9237 13.2642
44.1162 13.0818
44.3088 12.9084
44.5016 12.6971
44.6945 12.523
44.8875 12.3244
45.0806 12.1963
45.2739 12.0261
45.4673 11.868
45.6609 11.6922
45.8546 11.5402
46.0484 11.3561
46.2424 11.1527
46.4365 11.0578
46.631 10.8904
46.8254 10.6945
47.0199 10.5427
47.2146 10.3837
47.4095 10.2407
47.6044 10.0656
47.7996 9.92077
47.9948 9.81026
48.1902 9.67519
48.3858 9.5573
48.5815 9.36969
48.7774 9.24008
48.9734 9.13643
49.1696 8.95924
49.3661 8.79795
49.5626 8.67327
49.7592 8.55246
49.956 8.45616
50.153 8.34146
50.3501 8.17837
50.5474 8.04076
50.7448 7.93826
50.9424 7.86464
51.1402 7.71923
51.3381 7.57792
51.5362 7.44114
51.7344 7.30248
51.9328 7.19401
52.1316 7.06454
52.3304 6.98243
52.5293 6.83178
52.7284 6.75503
52.9276 6.6158
53.1271 6.51538
53.3267 6.41469
53.5265 6.27899
53.7264 6.21518
53.9266 6.08109
54.1269 5.97635
54.3274 5.86937
54.528 5.76387
54.7289 5.5557
54.9301 5.46756
55.1314 5.30118
55.3328 5.0657
55.5344 4.87785
55.7361 4.76536