File: XRD/Ni3Fe_FD0405.xy
TT I
1.27165 7.74505
1.45013 6.28308
1.62863 5.99731
1.80712 4.82729
1.98562 4.78306
2.16411 5.39776
2.34263 5.50414
2.52115 6.19513
2.69965 7.17262
2.87818 8.13127
3.05672 11.2161
3.23527 14.8054
3.4138 19.397
3.59237 25.0233
3.77094 26.9758
3.9495 30.3261
4.12809 35.7831
4.30669 262.751
4.4853 71.2734
4.6639 56.3491
4.84253 68.2689
5.02118 88.9064
5.19981 430.354
5.37848 224.15
5.55716 105.243
5.73586 94.7959
5.91455 97.714
6.09328 3963.25
6.27201 87.2842
6.45075 69.2644
6.62952 64.8595
6.8083 60.3809
6.98711 57.5016
7.16591 57.1976
7.34475 102.203
7.5236 55.9343
7.70247 57.7001
7.88135 59.0663
8.06026 63.7749
8.23919 71.1226
8.41812 87.97
8.59709 1087.63
8.77609 104.737
8.9551 95.6108
9.13412 83.67
9.31318 84.6309
9.49226 86.2732
9.67134 102.78
9.85047 102.361
10.0296 364.062
10.2088 508.471
10.388 108.101
10.5672 477.539
10.7465 89.4598
10.9257 80.7256
11.105 73.6785
11.2844 72.9757
11.4637 66.4957
11.6431 65.0691
11.8225 64.1759
12.002 65.2575
12.1814 144.547
12.3609 74.2052
12.5405 66.0862
12.72 72.6593
12.8996 72.8412
13.0792 80.3895
13.2589 226.077
13.4386 138.786
13.6183 230.709
13.7981 106.814
13.9779 77.6854
14.1577 74.3117
14.3376 73.8673
14.5175 70.3315
14.6974 72.0928
14.8774 110.988
15.0574 165.741
15.2374 73.382
15.4175 67.9095
15.5976 67.373
15.7778 95.5585
15.958 171.16
16.1382 65.0907
16.3185 60.5065
16.4988 57.0214
16.6792 56.0207
16.8596 56.6803
17.04 57.2036
17.2205 67.0733
17.401 74.4984
17.5815 60.5108
17.7622 62.8369
17.9428 75.699
18.1237 137.071
18.3044 89.7615
18.4852 82.5754
18.666 61.8425
18.8469 59.36
19.0278 58.2599
19.2088 61.0549
19.3898 77.2498
19.5709 55.7267
19.752 54.6296
19.9332 57.4625
20.1144 70.6528
20.2957 64.0507
20.477 56.0145
20.6586 50.7565
20.84 49.9727
21.0215 49.8396
21.203 51.7793
21.3846 50.4186
21.5662 49.9235
21.7479 53.6496
21.9297 65.5943
22.1115 57.1079
22.2933 51.5531
22.4753 49.9595
22.6572 49.9495
22.8393 52.9655
23.0214 58.9827
23.2037 50.0407
23.3859 50.9727
23.5682 57.4769
23.7505 50.1577
23.9329 46.3314
24.1154 45.0916
24.2979 44.6919
24.4805 43.9416
24.6631 43.8882
24.8458 43.2183
25.0286 43.6932
25.2114 45.6699
25.3943 45.7895
25.5773 41.8579
25.7605 41.4196
25.9436 41.8198
26.1268 42.7358
26.31 41.0465
26.4933 41.7255
26.6767 43.0505
26.8601 41.511
27.0437 39.7758
27.2272 39.5171
27.4109 39.3398
27.5946 39.3069
27.7784 38.8919
27.9623 39.0774
28.1462 39.8142
28.3304 38.2037
28.5145 36.7742
28.6987 36.4129
28.8829 36.2336
29.0673 35.588
29.2517 35.2304
29.4361 34.952
29.6207 33.9879
29.8053 33.7337
29.99 33.4078
30.1748 33.2051
30.3597 33.1006
30.5447 32.8446
30.7297 33.1006
30.915 32.3509
31.1002 31.8886
31.2855 31.6444
31.4708 31.5887
31.6563 31.0491
31.8418 30.7509
32.0275 30.7165
32.2132 30.1485
32.399 29.6149
32.5848 29.1847
32.7708 28.837
32.9569 28.6214
33.143 28.4317
33.3293 28.074
33.5158 27.6853
33.7022 27.2366
33.8887 26.972
34.0753 26.6761
34.262 26.2986
34.4488 25.8871
34.6357 25.5951
34.8227 25.1585
35.0098 25.1285
35.1969 24.8282
35.3842 24.5487
35.5716 24.3432
35.759 24.0087
35.9468 23.5631
36.1345 23.4333
36.3222 23.1898
36.5101 22.9358
36.6981 22.6755
36.8861 22.3984
37.0743 22.0165
37.2626 21.7836
37.451 21.4704
37.6395 21.3095
37.8281 20.9738
38.0168 20.7311
38.2056 20.4904
38.3945 20.1966
38.5837 19.8999
38.7728 19.7031
38.9621 19.3937
39.1514 19.1312
39.3409 18.9157
39.5304 18.7319
39.7201 18.5193
39.9099 18.2554
40.0999 17.9986
40.2899 17.7679
40.48 17.4806
40.6703 17.3208
40.8607 17.1368
41.0512 16.8608
41.242 16.6126
41.4327 16.4538
41.6236 16.2305
41.8146 15.971
42.0057 15.7819
42.1969 15.567
42.3882 15.431
42.5797 15.162
42.7713 14.9581
42.963 14.7716
43.1549 14.5382
43.3468 14.3396
43.5389 14.1344
43.7312 13.9284
43.9237 13.7417
44.1162 13.6099
44.3088 13.4076
44.5016 13.2154
44.6945 13.0031
44.8875 12.8509
45.0806 12.6661
45.2739 12.517
45.4673 12.3507
45.6609 12.1212
45.8546 11.998
46.0484 11.813
46.2424 11.6061
46.4365 11.4961
46.631 11.2868
46.8254 11.1152
47.0199 10.9198
47.2146 10.8071
47.4095 10.6127
47.6044 10.4667
47.7996 10.3141
47.9948 10.1623
48.1902 10.0337
48.3858 9.91561
48.5815 9.75639
48.7774 9.61918
48.9734 9.49504
49.1696 9.33451
49.3661 9.18404
49.5626 9.02049
49.7592 8.91472
49.956 8.77202
50.153 8.6488
50.3501 8.51472
50.5474 8.38306
50.7448 8.22785
50.9424 8.10562
51.1402 7.98381
51.3381 7.85655
51.5362 7.75014
51.7344 7.58705
51.9328 7.46632
52.1316 7.33058
52.3304 7.24098
52.5293 7.11875
52.7284 6.9595
52.9276 6.83229
53.1271 6.79075
53.3267 6.66526
53.5265 6.52341
53.7264 6.43091
53.9266 6.32635
54.1269 6.20084
54.3274 6.08348
54.528 5.93145
54.7289 5.78224
54.9301 5.60601
55.1314 5.52098
55.3328 5.24309
55.5344 5.03429
55.7361 4.91194