File: XRD/Ni3Fe_FD1039.xy
TT I
1.27165 7.04169
1.45013 5.61821
1.62863 4.29273
1.80712 4.55864
1.98562 4.51676
2.16411 3.91682
2.34263 5.70922
2.52115 7.52242
2.69965 8.78246
2.87818 9.19932
3.05672 10.9461
3.23527 14.7241
3.4138 18.4173
3.59237 21.4053
3.77094 24.2706
3.9495 28.2444
4.12809 31.9711
4.30669 56.5305
4.4853 45.9944
4.6639 52.8212
4.84253 64.0097
5.02118 83.172
5.19981 232.604
5.37848 215.277
5.55716 97.7813
5.73586 88.1201
5.91455 88.7339
6.09328 4551.12
6.27201 76.1396
6.45075 63.1198
6.62952 57.9054
6.8083 54.5968
6.98711 52.5474
7.16591 51.2926
7.34475 56.0185
7.5236 59.5778
7.70247 53.0228
7.88135 54.9389
8.06026 58.778
8.23919 65.2689
8.41812 77.4015
8.59709 1076.81
8.77609 94.677
8.9551 82.2658
9.13412 79.1792
9.31318 90.206
9.49226 81.0577
9.67134 86.1928
9.85047 94.2241
10.0296 345.046
10.2088 434.641
10.388 97.5383
10.5672 505.974
10.7465 86.66
10.9257 73.6217
11.105 67.892
11.2844 64.6868
11.4637 61.8657
11.6431 60.3917
11.8225 59.9427
12.002 67.4682
12.1814 146.951
12.3609 64.2146
12.5405 61.563
12.72 63.6701
12.8996 67.763
13.0792 76.4907
13.2589 226.88
13.4386 126.654
13.6183 235.991
13.7981 100.155
13.9779 73.3256
14.1577 76.1747
14.3376 67.3844
14.5175 66.2947
14.6974 67.2008
14.8774 109.015
15.0574 160.074
15.2374 66.4719
15.4175 63.9729
15.5976 63.2589
15.7778 93.47
15.958 166.655
16.1382 59.8593
16.3185 55.6581
16.4988 53.3439
16.6792 52.5462
16.8596 52.8839
17.04 53.7612
17.2205 64.8309
17.401 71.4657
17.5815 57.2598
17.7622 60.0237
17.9428 72.7271
18.1237 141.579
18.3044 88.5998
18.4852 79.035
18.666 58.9525
18.8469 56.2091
19.0278 54.7183
19.2088 58.0298
19.3898 75.9818
19.5709 52.9144
19.752 51.4378
19.9332 54.749
20.1144 70.2008
20.2957 63.3737
20.477 52.749
20.6586 48.1869
20.84 47.8375
21.0215 47.3617
21.203 49.5225
21.3846 47.8331
21.5662 47.2954
21.7479 51.5968
21.9297 65.201
22.1115 55.7984
22.2933 48.9091
22.4753 47.4179
22.6572 47.5021
22.8393 50.9554
23.0214 57.3674
23.2037 47.5909
23.3859 49.1301
23.5682 57.3031
23.7505 48.1304
23.9329 44.1578
24.1154 43.14
24.2979 42.3452
24.4805 41.9571
24.6631 41.7935
24.8458 41.1399
25.0286 41.8407
25.2114 44.1193
25.3943 44.282
25.5773 39.9533
25.7605 39.5133
25.9436 40.0598
26.1268 41.2496
26.31 39.4768
26.4933 40.0457
26.6767 41.8738
26.8601 39.9925
27.0437 38.2802
27.2272 37.8168
27.4109 37.7133
27.5946 37.7084
27.7784 37.1935
27.9623 37.8894
28.1462 38.5996
28.3304 36.7495
28.5145 35.241
28.6987 34.9164
28.8829 34.7248
29.0673 34.0587
29.2517 33.624
29.4361 33.5451
29.6207 32.5174
29.8053 32.1287
29.99 31.9011
30.1748 31.8775
30.3597 31.6188
30.5447 31.6375
30.7297 31.718
30.915 31.0872
31.1002 30.6061
31.2855 30.3509
31.4708 30.2743
31.6563 29.894
31.8418 29.626
32.0275 29.5445
32.2132 28.8886
32.399 28.4613
32.5848 28.0376
32.7708 27.6267
32.9569 27.5151
33.143 27.3257
33.3293 26.9585
33.5158 26.576
33.7022 26.0764
33.8887 25.9036
34.0753 25.5424
34.262 25.113
34.4488 24.8306
34.6357 24.5121
34.8227 24.2429
35.0098 24.0971
35.1969 23.7132
35.3842 23.6297
35.5716 23.449
35.759 23.0609
35.9468 22.7437
36.1345 22.5176
36.3222 22.2693
36.5101 22.0511
36.6981 21.7155
36.8861 21.4534
37.0743 21.119
37.2626 20.8798
37.451 20.654
37.6395 20.5464
37.8281 20.1252
38.0168 19.84
38.2056 19.6244
38.3945 19.3987
38.5837 19.1392
38.7728 18.867
38.9621 18.6442
39.1514 18.3825
39.3409 18.1472
39.5304 17.9289
39.7201 17.7209
39.9099 17.5156
40.0999 17.2888
40.2899 17.0455
40.48 16.8259
40.6703 16.6071
40.8607 16.4379
41.0512 16.189
41.242 15.9761
41.4327 15.7793
41.6236 15.553
41.8146 15.3267
42.0057 15.1406
42.1969 14.9407
42.3882 14.7897
42.5797 14.5935
42.7713 14.3436
42.963 14.1627
43.1549 14.0061
43.3468 13.7476
43.5389 13.5531
43.7312 13.442
43.9237 13.2437
44.1162 13.071
44.3088 12.8291
44.5016 12.6435
44.6945 12.4698
44.8875 12.3164
45.0806 12.1459
45.2739 11.9673
45.4673 11.7976
45.6609 11.6473
45.8546 11.4829
46.0484 11.3274
46.2424 11.1681
46.4365 11.0135
46.631 10.7965
46.8254 10.66
47.0199 10.4629
47.2146 10.3786
47.4095 10.2161
47.6044 10.0518
47.7996 9.91529
47.9948 9.7741
48.1902 9.59454
48.3858 9.48902
48.5815 9.35138
48.7774 9.20779
48.9734 9.06642
49.1696 8.95707
49.3661 8.79062
49.5626 8.65779
49.7592 8.53658
49.956 8.38635
50.153 8.27631
50.3501 8.14257
50.5474 7.99705
50.7448 7.90079
50.9424 7.81147
51.1402 7.68704
51.3381 7.52922
51.5362 7.41552
51.7344 7.28433
51.9328 7.19141
52.1316 7.05873
52.3304 6.94272
52.5293 6.81768
52.7284 6.73443
52.9276 6.6097
53.1271 6.54696
53.3267 6.39374
53.5265 6.27649
53.7264 6.1567
53.9266 6.08382
54.1269 5.9451
54.3274 5.86982
54.528 5.71109
54.7289 5.5715
54.9301 5.39907
55.1314 5.28801
55.3328 5.0682
55.5344 4.9069
55.7361 4.74516