File: XRD/Ni3Fe_FD0861.xy
TT I
1.27165 7.00287
1.45013 5.52765
1.62863 5.39297
1.80712 5.05677
1.98562 4.67624
2.16411 4.99334
2.34263 5.98797
2.52115 7.75044
2.69965 8.4048
2.87818 8.51804
3.05672 11.4274
3.23527 15.0961
3.4138 19.2189
3.59237 24.2364
3.77094 26.1314
3.9495 29.647
4.12809 34.677
4.30669 225.515
4.4853 66.0005
4.6639 54.7994
4.84253 66.5396
5.02118 85.0291
5.19981 294.868
5.37848 177.189
5.55716 100.268
5.73586 90.476
5.91455 91.1223
6.09328 4432.82
6.27201 81.4082
6.45075 66.6613
6.62952 61.9548
6.8083 58.0908
6.98711 55.2726
7.16591 54.8455
7.34475 92.5186
7.5236 53.9153
7.70247 55.3435
7.88135 57.504
8.06026 61.6959
8.23919 68.4275
8.41812 83.8226
8.59709 1131.53
8.77609 97.2021
8.9551 90.724
9.13412 80.7966
9.31318 81.1693
9.49226 83.1137
9.67134 97.4514
9.85047 98.2199
10.0296 302.332
10.2088 398.052
10.388 102.722
10.5672 520.171
10.7465 85.3
10.9257 77.4685
11.105 71.0188
11.2844 69.6372
11.4637 64.0801
11.6431 62.8345
11.8225 61.8684
12.002 62.406
12.1814 152.701
12.3609 69.9474
12.5405 63.8282
12.72 69.2556
12.8996 69.9832
13.0792 77.3538
13.2589 231.563
13.4386 121.791
13.6183 245.185
13.7981 96.1765
13.9779 74.8057
14.1577 71.4199
14.3376 70.8792
14.5175 67.6276
14.6974 69.3078
14.8774 106.041
15.0574 147.226
15.2374 70.1472
15.4175 65.3805
15.5976 64.6549
15.7778 90.7327
15.958 154.35
16.1382 61.7122
16.3185 57.7478
16.4988 54.6985
16.6792 53.6589
16.8596 54.5584
17.04 54.8949
17.2205 65.3748
17.401 70.6986
17.5815 58.3535
17.7622 60.3075
17.9428 71.5265
18.1237 138.129
18.3044 89.4111
18.4852 76.3842
18.666 59.6481
18.8469 57.1425
19.0278 56.1002
19.2088 58.3904
19.3898 76.2322
19.5709 53.4098
19.752 52.4912
19.9332 54.9275
20.1144 69.1235
20.2957 63.6045
20.477 53.076
20.6586 49.0977
20.84 48.1909
21.0215 47.929
21.203 50.1992
21.3846 48.4322
21.5662 47.9782
21.7479 51.6778
21.9297 63.8807
22.1115 55.3523
22.2933 49.2961
22.4753 48.2127
22.6572 48.0854
22.8393 50.9627
23.0214 56.6766
23.2037 48.0883
23.3859 48.8833
23.5682 56.4281
23.7505 47.6902
23.9329 44.5884
24.1154 43.6249
24.2979 42.8706
24.4805 42.4289
24.6631 42.3524
24.8458 41.6838
25.0286 42.0429
25.2114 44.031
25.3943 44.0365
25.5773 40.4291
25.7605 39.8619
25.9436 40.2713
26.1268 41.229
26.31 39.6716
26.4933 40.1555
26.6767 41.5106
26.8601 39.9577
27.0437 38.4565
27.2272 37.9648
27.4109 37.9633
27.5946 37.864
27.7784 37.3125
27.9623 37.932
28.1462 38.2223
28.3304 36.7143
28.5145 35.5366
28.6987 35.0513
28.8829 35.0268
29.0673 34.0921
29.2517 33.9319
29.4361 33.707
29.6207 32.7579
29.8053 32.4561
29.99 32.1891
30.1748 31.923
30.3597 31.8316
30.5447 31.7126
30.7297 31.7558
30.915 31.0768
31.1002 30.7249
31.2855 30.4297
31.4708 30.4477
31.6563 30.0491
31.8418 29.795
32.0275 29.5728
32.2132 28.9881
32.399 28.5432
32.5848 28.194
32.7708 27.7579
32.9569 27.7559
33.143 27.4537
33.3293 27.1151
33.5158 26.7733
33.7022 26.2679
33.8887 26.0689
34.0753 25.7284
34.262 25.3414
34.4488 24.9181
34.6357 24.6603
34.8227 24.2919
35.0098 24.1889
35.1969 23.9264
35.3842 23.7189
35.5716 23.4643
35.759 23.1483
35.9468 22.8128
36.1345 22.5708
36.3222 22.3567
36.5101 22.1391
36.6981 21.815
36.8861 21.5542
37.0743 21.1486
37.2626 20.9872
37.451 20.6679
37.6395 20.549
37.8281 20.2645
38.0168 19.9487
38.2056 19.7003
38.3945 19.4646
38.5837 19.2615
38.7728 18.9375
38.9621 18.7321
39.1514 18.5083
39.3409 18.2405
39.5304 18.0543
39.7201 17.8113
39.9099 17.5924
40.0999 17.3965
40.2899 17.1486
40.48 16.9316
40.6703 16.7204
40.8607 16.5446
41.0512 16.2865
41.242 16.0867
41.4327 15.8836
41.6236 15.6404
41.8146 15.4214
42.0057 15.299
42.1969 15.0488
42.3882 14.8612
42.5797 14.645
42.7713 14.4789
42.963 14.2599
43.1549 14.0978
43.3468 13.8806
43.5389 13.6632
43.7312 13.5244
43.9237 13.3095
44.1162 13.1258
44.3088 12.9369
44.5016 12.7295
44.6945 12.5662
44.8875 12.4128
45.0806 12.2333
45.2739 12.0739
45.4673 11.8983
45.6609 11.6984
45.8546 11.5717
46.0484 11.4094
46.2424 11.2601
46.4365 11.0735
46.631 10.905
46.8254 10.7483
47.0199 10.6039
47.2146 10.4699
47.4095 10.2879
47.6044 10.1003
47.7996 9.96831
47.9948 9.82856
48.1902 9.68616
48.3858 9.58283
48.5815 9.42842
48.7774 9.27681
48.9734 9.13139
49.1696 9.0252
49.3661 8.82106
49.5626 8.71399
49.7592 8.61096
49.956 8.48262
50.153 8.32149
50.3501 8.24072
50.5474 8.09333
50.7448 7.98503
50.9424 7.84276
51.1402 7.73261
51.3381 7.54545
51.5362 7.45545
51.7344 7.31424
51.9328 7.25702
52.1316 7.10297
52.3304 6.98872
52.5293 6.88473
52.7284 6.75888
52.9276 6.62328
53.1271 6.56067
53.3267 6.45308
53.5265 6.29337
53.7264 6.18562
53.9266 6.07673
54.1269 5.99448
54.3274 5.83054
54.528 5.71769
54.7289 5.60146
54.9301 5.38423
55.1314 5.27808
55.3328 5.10355
55.5344 4.94692
55.7361 4.77697