File: XRD/Ni3Fe_FD0862.xy
TT I
1.27165 7.01944
1.45013 6.08686
1.62863 5.43633
1.80712 4.93445
1.98562 4.58044
2.16411 5.43533
2.34263 5.48822
2.52115 7.12979
2.69965 8.4904
2.87818 8.83997
3.05672 10.9694
3.23527 15.3928
3.4138 19.3498
3.59237 24.0656
3.77094 25.9126
3.9495 29.8913
4.12809 34.6963
4.30669 227.367
4.4853 65.9313
4.6639 54.8632
4.84253 66.0063
5.02118 84.9899
5.19981 294.876
5.37848 177.882
5.55716 100.367
5.73586 90.7023
5.91455 91.4513
6.09328 4407.5
6.27201 81.2924
6.45075 66.5428
6.62952 62.1538
6.8083 58.1169
6.98711 55.605
7.16591 55.2881
7.34475 92.5934
7.5236 54.2933
7.70247 55.4543
7.88135 57.0475
8.06026 61.7316
8.23919 68.8429
8.41812 83.7531
8.59709 1135.76
8.77609 97.2912
8.9551 90.8342
9.13412 80.6444
9.31318 81.2252
9.49226 83.5029
9.67134 97.6719
9.85047 98.4573
10.0296 302.087
10.2088 398.709
10.388 102.712
10.5672 517.609
10.7465 85.1067
10.9257 77.4028
11.105 71.1522
11.2844 69.6732
11.4637 64.167
11.6431 62.7886
11.8225 61.5222
12.002 62.4966
12.1814 152.834
12.3609 69.8918
12.5405 63.8184
12.72 69.6879
12.8996 69.9316
13.0792 77.0973
13.2589 229.932
13.4386 121.557
13.6183 245.866
13.7981 95.8667
13.9779 74.6236
14.1577 71.538
14.3376 70.779
14.5175 67.6396
14.6974 69.2424
14.8774 105.409
15.0574 147.221
15.2374 70.2955
15.4175 65.3963
15.5976 64.5537
15.7778 90.6067
15.958 154.427
16.1382 62.0362
16.3185 58.0318
16.4988 54.7384
16.6792 53.9189
16.8596 54.4854
17.04 54.8627
17.2205 65.4688
17.401 70.4538
17.5815 58.4588
17.7622 60.2538
17.9428 71.2451
18.1237 138.422
18.3044 89.5282
18.4852 76.6155
18.666 59.6942
18.8469 57.0672
19.0278 56.2872
19.2088 58.3295
19.3898 76.1122
19.5709 53.4985
19.752 52.4301
19.9332 55.292
20.1144 68.9183
20.2957 63.59
20.477 52.9627
20.6586 48.9764
20.84 48.166
21.0215 47.9137
21.203 50.3087
21.3846 48.4283
21.5662 48.0152
21.7479 51.6575
21.9297 63.5881
22.1115 55.4991
22.2933 49.2071
22.4753 48.3969
22.6572 48.1737
22.8393 51.1444
23.0214 56.6626
23.2037 48.0747
23.3859 48.9892
23.5682 56.4518
23.7505 47.7773
23.9329 44.6957
24.1154 43.5842
24.2979 42.734
24.4805 42.4113
24.6631 42.4204
24.8458 41.7012
25.0286 42.1517
25.2114 44.1108
25.3943 43.9639
25.5773 40.425
25.7605 39.8646
25.9436 40.3002
26.1268 41.2089
26.31 39.6411
26.4933 40.2209
26.6767 41.6801
26.8601 40.0191
27.0437 38.4203
27.2272 37.9731
27.4109 37.9035
27.5946 37.8761
27.7784 37.4179
27.9623 38.0084
28.1462 38.2945
28.3304 36.7274
28.5145 35.5312
28.6987 35.1509
28.8829 34.9974
29.0673 34.1774
29.2517 33.9288
29.4361 33.7785
29.6207 32.7498
29.8053 32.4947
29.99 32.1858
30.1748 32.0295
30.3597 31.8101
30.5447 31.687
30.7297 31.7402
30.915 31.2681
31.1002 30.6856
31.2855 30.5443
31.4708 30.4864
31.6563 29.9646
31.8418 29.8699
32.0275 29.4462
32.2132 29.0415
32.399 28.6125
32.5848 28.1351
32.7708 27.894
32.9569 27.7376
33.143 27.4727
33.3293 27.0619
33.5158 26.6989
33.7022 26.2308
33.8887 26.0526
34.0753 25.6847
34.262 25.3466
34.4488 24.961
34.6357 24.7273
34.8227 24.4323
35.0098 24.1911
35.1969 23.9226
35.3842 23.745
35.5716 23.4935
35.759 23.1799
35.9468 22.8958
36.1345 22.6161
36.3222 22.4192
36.5101 22.0955
36.6981 21.8887
36.8861 21.4931
37.0743 21.2275
37.2626 21.0013
37.451 20.7404
37.6395 20.5643
37.8281 20.1984
38.0168 20.0291
38.2056 19.7118
38.3945 19.4838
38.5837 19.1661
38.7728 18.9737
38.9621 18.7385
39.1514 18.4069
39.3409 18.2571
39.5304 18.0699
39.7201 17.8635
39.9099 17.6203
40.0999 17.4095
40.2899 17.1356
40.48 16.9558
40.6703 16.7119
40.8607 16.5198
41.0512 16.3106
41.242 16.0923
41.4327 15.8991
41.6236 15.6391
41.8146 15.4738
42.0057 15.3054
42.1969 15.0443
42.3882 14.8591
42.5797 14.6506
42.7713 14.4542
42.963 14.2582
43.1549 14.0835
43.3468 13.9289
43.5389 13.6338
43.7312 13.4216
43.9237 13.3236
44.1162 13.1352
44.3088 12.9666
44.5016 12.7612
44.6945 12.5683
44.8875 12.4155
45.0806 12.1961
45.2739 12.0528
45.4673 11.9236
45.6609 11.7514
45.8546 11.6078
46.0484 11.4158
46.2424 11.144
46.4365 11.0931
46.631 10.8567
46.8254 10.7141
47.0199 10.6062
47.2146 10.4576
47.4095 10.2772
47.6044 10.1048
47.7996 9.97861
47.9948 9.85527
48.1902 9.6949
48.3858 9.54874
48.5815 9.41491
48.7774 9.27255
48.9734 9.13948
49.1696 8.99166
49.3661 8.85104
49.5626 8.71652
49.7592 8.58126
49.956 8.45625
50.153 8.35797
50.3501 8.1599
50.5474 8.10417
50.7448 7.96468
50.9424 7.84067
51.1402 7.70246
51.3381 7.57692
51.5362 7.46799
51.7344 7.35212
51.9328 7.20175
52.1316 7.10671
52.3304 6.9898
52.5293 6.8479
52.7284 6.75848
52.9276 6.6384
53.1271 6.54108
53.3267 6.45905
53.5265 6.3311
53.7264 6.18964
53.9266 6.11681
54.1269 5.96218
54.3274 5.89647
54.528 5.73044
54.7289 5.53708
54.9301 5.47147
55.1314 5.31402
55.3328 5.11555
55.5344 4.87826
55.7361 4.75405