File: XRD/Ni3Fe_FD0495.xy
TT I
1.27165 7.40568
1.45013 6.61744
1.62863 4.69002
1.80712 4.99414
1.98562 4.57599
2.16411 5.27284
2.34263 4.57343
2.52115 5.99848
2.69965 7.90754
2.87818 8.89692
3.05672 10.9428
3.23527 14.7518
3.4138 18.9747
3.59237 24.006
3.77094 26.1987
3.9495 30.2623
4.12809 35.4435
4.30669 184.437
4.4853 62.5029
4.6639 56.2402
4.84253 68.01
5.02118 88.7992
5.19981 413.796
5.37848 204.347
5.55716 104.128
5.73586 94.0549
5.91455 96.6544
6.09328 4152.82
6.27201 84.8172
6.45075 68.3503
6.62952 63.5213
6.8083 59.0622
6.98711 56.5859
7.16591 56.2022
7.34475 86.1328
7.5236 55.4138
7.70247 56.8441
7.88135 58.506
8.06026 62.9453
8.23919 70.2415
8.41812 86.6659
8.59709 1207.13
8.77609 102.322
8.9551 91.7687
9.13412 83.2757
9.31318 83.9475
9.49226 85.8679
9.67134 98.801
9.85047 101.214
10.0296 374.165
10.2088 463.663
10.388 106.626
10.5672 497.49
10.7465 88.3306
10.9257 79.4389
11.105 72.9084
11.2844 70.9048
11.4637 65.6918
11.6431 64.4278
11.8225 63.1114
12.002 64.4549
12.1814 155.681
12.3609 71.2946
12.5405 65.5831
12.72 70.3759
12.8996 71.8188
13.0792 80.4563
13.2589 243.238
13.4386 131.484
13.6183 249.267
13.7981 103.565
13.9779 76.8865
14.1577 73.4923
14.3376 72.4494
14.5175 69.7906
14.6974 71.4412
14.8774 114.236
15.0574 157.244
15.2374 71.8174
15.4175 67.6273
15.5976 66.8995
15.7778 98.2041
15.958 159.26
16.1382 63.3825
16.3185 59.3609
16.4988 56.372
16.6792 55.2886
16.8596 56.0063
17.04 56.6852
17.2205 68.0023
17.401 72.9192
17.5815 60.0495
17.7622 62.2573
17.9428 75.68
18.1237 136.369
18.3044 91.7936
18.4852 80.7045
18.666 61.171
18.8469 58.946
19.0278 57.6615
19.2088 60.4589
19.3898 76.2422
19.5709 55.0636
19.752 54.1392
19.9332 57.313
20.1144 69.9072
20.2957 64.1744
20.477 54.7925
20.6586 50.5378
20.84 49.6117
21.0215 49.3637
21.203 51.4542
21.3846 49.8483
21.5662 49.5627
21.7479 53.5449
21.9297 64.7505
22.1115 56.544
22.2933 50.7999
22.4753 49.5463
22.6572 49.6055
22.8393 52.7085
23.0214 57.9474
23.2037 49.4923
23.3859 50.6214
23.5682 56.9509
23.7505 49.2778
23.9329 45.9711
24.1154 44.7625
24.2979 44.2181
24.4805 43.5186
24.6631 43.4052
24.8458 42.9705
25.0286 43.5234
25.2114 45.1776
25.3943 45.0769
25.5773 41.6368
25.7605 40.9616
25.9436 41.3946
26.1268 42.2613
26.31 40.7942
26.4933 41.4012
26.6767 42.6316
26.8601 41.0146
27.0437 39.4673
27.2272 39.0933
27.4109 38.9555
27.5946 38.757
27.7784 38.4888
27.9623 38.9916
28.1462 39.3239
28.3304 37.7874
28.5145 36.4918
28.6987 36.1289
28.8829 35.8562
29.0673 35.1492
29.2517 34.8817
29.4361 34.5714
29.6207 33.6402
29.8053 33.3785
29.99 33.104
30.1748 32.9563
30.3597 32.7626
30.5447 32.6502
30.7297 32.7184
30.915 32.0595
31.1002 31.5555
31.2855 31.3995
31.4708 31.2216
31.6563 30.7964
31.8418 30.5641
32.0275 30.2825
32.2132 29.7533
32.399 29.2907
32.5848 28.8939
32.7708 28.52
32.9569 28.4859
33.143 28.2511
33.3293 27.8125
33.5158 27.44
33.7022 27.0823
33.8887 26.6261
34.0753 26.3893
34.262 26.0249
34.4488 25.6105
34.6357 25.3592
34.8227 25.0958
35.0098 24.8909
35.1969 24.5855
35.3842 24.3367
35.5716 24.1627
35.759 23.8675
35.9468 23.4685
36.1345 23.2518
36.3222 22.9925
36.5101 22.7146
36.6981 22.5062
36.8861 22.0934
37.0743 21.8192
37.2626 21.6286
37.451 21.3185
37.6395 21.1557
37.8281 20.7538
38.0168 20.5042
38.2056 20.2952
38.3945 19.9893
38.5837 19.7356
38.7728 19.5458
38.9621 19.2709
39.1514 19.0322
39.3409 18.7
39.5304 18.5227
39.7201 18.2708
39.9099 18.13
40.0999 17.8062
40.2899 17.6082
40.48 17.3
40.6703 17.1427
40.8607 17.0203
41.0512 16.8327
41.242 16.468
41.4327 16.2707
41.6236 16.0736
41.8146 15.9049
42.0057 15.632
42.1969 15.3616
42.3882 15.3383
42.5797 14.981
42.7713 14.7999
42.963 14.6347
43.1549 14.4079
43.3468 14.2171
43.5389 14.0427
43.7312 13.8401
43.9237 13.6495
44.1162 13.4324
44.3088 13.289
44.5016 13.0916
44.6945 12.8861
44.8875 12.6867
45.0806 12.5737
45.2739 12.3314
45.4673 12.2247
45.6609 11.9964
45.8546 11.8584
46.0484 11.7056
46.2424 11.5625
46.4365 11.3674
46.631 11.192
46.8254 10.9841
47.0199 10.865
47.2146 10.6931
47.4095 10.5427
47.6044 10.3971
47.7996 10.2111
47.9948 10.0887
48.1902 9.91719
48.3858 9.81998
48.5815 9.68767
48.7774 9.52222
48.9734 9.40487
49.1696 9.23505
49.3661 9.08467
49.5626 8.94535
49.7592 8.81435
49.956 8.677
50.153 8.57131
50.3501 8.41475
50.5474 8.29694
50.7448 8.1708
50.9424 8.05158
51.1402 7.92917
51.3381 7.77642
51.5362 7.63262
51.7344 7.5622
51.9328 7.4097
52.1316 7.26661
52.3304 7.17824
52.5293 7.06307
52.7284 6.95133
52.9276 6.83783
53.1271 6.70028
53.3267 6.5895
53.5265 6.41111
53.7264 6.33697
53.9266 6.27153
54.1269 6.17789
54.3274 5.99212
54.528 5.88821
54.7289 5.7434
54.9301 5.56159
55.1314 5.41554
55.3328 5.24171
55.5344 5.02853
55.7361 4.86208