File: XRD/Ni3Fe_FD0351.xy
TT I
1.27165 7.2677
1.45013 6.0115
1.62863 4.98079
1.80712 4.86008
1.98562 4.76815
2.16411 4.94148
2.34263 5.52615
2.52115 5.1612
2.69965 7.35796
2.87818 8.63416
3.05672 11.2186
3.23527 14.8826
3.4138 18.8041
3.59237 23.4648
3.77094 25.8522
3.9495 30.2729
4.12809 35.0394
4.30669 128.461
4.4853 56.6674
4.6639 56.8651
4.84253 69.5846
5.02118 92.2107
5.19981 608.606
5.37848 223.919
5.55716 106.801
5.73586 96.9101
5.91455 101.85
6.09328 4016.92
6.27201 86.1289
6.45075 69.2031
6.62952 64.0302
6.8083 60.1574
6.98711 56.7546
7.16591 56.5828
7.34475 74.3006
7.5236 55.6081
7.70247 57.5703
7.88135 59.275
8.06026 64.2637
8.23919 71.6897
8.41812 88.6869
8.59709 1191.11
8.77609 104.216
8.9551 91.4653
9.13412 84.5055
9.31318 85.6329
9.49226 87.5419
9.67134 97.6766
9.85047 104.156
10.0296 443.229
10.2088 460.579
10.388 110.389
10.5672 485.815
10.7465 89.6951
10.9257 79.6942
11.105 73.4573
11.2844 70.753
11.4637 66.559
11.6431 65.0253
11.8225 64.0201
12.002 66.2449
12.1814 150.757
12.3609 70.1
12.5405 66.3733
12.72 70.5466
12.8996 73.368
13.0792 83.1966
13.2589 247.612
13.4386 132.207
13.6183 245.399
13.7981 102.103
13.9779 78.2206
14.1577 74.0962
14.3376 72.8889
14.5175 70.747
14.6974 73.0042
14.8774 120.277
15.0574 153.593
15.2374 71.8749
15.4175 68.2355
15.5976 68.1526
15.7778 103.387
15.958 161.648
16.1382 63.6584
16.3185 59.7248
16.4988 57.2467
16.6792 56.0121
16.8596 56.6175
17.04 57.805
17.2205 69.1848
17.401 73.3378
17.5815 60.9279
17.7622 63.4326
17.9428 79.0507
18.1237 140.126
18.3044 91.8166
18.4852 79.2924
18.666 62.1202
18.8469 59.6962
19.0278 58.4811
19.2088 61.9988
19.3898 76.7872
19.5709 55.787
19.752 54.9915
19.9332 58.5532
20.1144 71.3433
20.2957 64.2811
20.477 55.1013
20.6586 51.0155
20.84 50.3627
21.0215 50.251
21.203 51.9443
21.3846 50.357
21.5662 50.7326
21.7479 54.7124
21.9297 66.1521
22.1115 57.0878
22.2933 51.1139
22.4753 50.2058
22.6572 50.4839
22.8393 53.7262
23.0214 58.7751
23.2037 50.2679
23.3859 51.4767
23.5682 57.5505
23.7505 49.5814
23.9329 46.5914
24.1154 45.3332
24.2979 44.7699
24.4805 44.0948
24.6631 43.9828
24.8458 43.4661
25.0286 44.2356
25.2114 45.9452
25.3943 45.7677
25.5773 42.1606
25.7605 41.6704
25.9436 42.0877
26.1268 42.827
26.31 41.2406
26.4933 41.9808
26.6767 43.3784
26.8601 41.5453
27.0437 40.0886
27.2272 39.6778
27.4109 39.4648
27.5946 39.554
27.7784 38.9792
27.9623 39.5293
28.1462 39.8099
28.3304 38.1952
28.5145 36.9833
28.6987 36.5268
28.8829 36.3858
29.0673 35.6859
29.2517 35.3347
29.4361 35.0595
29.6207 34.1035
29.8053 33.8756
29.99 33.4359
30.1748 33.2874
30.3597 33.1893
30.5447 33.0216
30.7297 33.049
30.915 32.4492
31.1002 31.9647
31.2855 31.6191
31.4708 31.7262
31.6563 31.1583
31.8418 30.9738
32.0275 30.7032
32.2132 30.2394
32.399 29.706
32.5848 29.2662
32.7708 28.9156
32.9569 28.7294
33.143 28.4928
33.3293 28.1218
33.5158 27.7632
33.7022 27.3341
33.8887 26.987
34.0753 26.7036
34.262 26.3343
34.4488 25.9566
34.6357 25.5816
34.8227 25.4036
35.0098 25.1448
35.1969 24.8409
35.3842 24.6799
35.5716 24.3591
35.759 24.1102
35.9468 23.7362
36.1345 23.5652
36.3222 23.2174
36.5101 22.9852
36.6981 22.7041
36.8861 22.4358
37.0743 22.0949
37.2626 21.8174
37.451 21.5729
37.6395 21.3522
37.8281 21.0188
38.0168 20.7041
38.2056 20.4943
38.3945 20.2709
38.5837 19.9181
38.7728 19.7246
38.9621 19.4534
39.1514 19.1726
39.3409 18.9675
39.5304 18.6734
39.7201 18.5628
39.9099 18.2933
40.0999 18.0811
40.2899 17.8286
40.48 17.5624
40.6703 17.3357
40.8607 17.1994
41.0512 16.9537
41.242 16.6909
41.4327 16.4884
41.6236 16.2606
41.8146 16.0586
42.0057 15.8307
42.1969 15.6188
42.3882 15.4583
42.5797 15.202
42.7713 15.0405
42.963 14.7638
43.1549 14.5417
43.3468 14.3973
43.5389 14.2143
43.7312 13.946
43.9237 13.8151
44.1162 13.6098
44.3088 13.4696
44.5016 13.238
44.6945 13.0809
44.8875 12.8806
45.0806 12.6955
45.2739 12.5051
45.4673 12.3486
45.6609 12.1889
45.8546 11.9717
46.0484 11.8349
46.2424 11.6539
46.4365 11.4882
46.631 11.2867
46.8254 11.1299
47.0199 10.9679
47.2146 10.8388
47.4095 10.6464
47.6044 10.4802
47.7996 10.2853
47.9948 10.1785
48.1902 10.0826
48.3858 9.89384
48.5815 9.74318
48.7774 9.62841
48.9734 9.50818
49.1696 9.30461
49.3661 9.18817
49.5626 9.04955
49.7592 8.94578
49.956 8.80797
50.153 8.654
50.3501 8.50276
50.5474 8.40117
50.7448 8.27022
50.9424 8.1504
51.1402 8.01003
51.3381 7.84081
51.5362 7.74982
51.7344 7.60242
51.9328 7.50385
52.1316 7.32721
52.3304 7.25374
52.5293 7.12991
52.7284 7.01869
52.9276 6.88115
53.1271 6.77383
53.3267 6.66928
53.5265 6.517
53.7264 6.40988
53.9266 6.31963
54.1269 6.21734
54.3274 6.07803
54.528 5.92458
54.7289 5.76782
54.9301 5.58565
55.1314 5.50127
55.3328 5.22543
55.5344 5.07412
55.7361 4.91176