File: XRD/Ni3Fe_FD0411.xy
TT I
1.27165 7.76135
1.45013 6.53564
1.62863 5.45802
1.80712 5.49813
1.98562 4.95823
2.16411 5.14699
2.34263 4.51108
2.52115 6.50565
2.69965 7.76545
2.87818 8.20194
3.05672 11.6939
3.23527 15.1584
3.4138 19.2775
3.59237 25.0094
3.77094 26.8957
3.9495 30.5543
4.12809 36.3025
4.30669 274.595
4.4853 72.499
4.6639 56.0727
4.84253 68.3203
5.02118 88.8673
5.19981 426.725
5.37848 224.064
5.55716 104.697
5.73586 94.3088
5.91455 97.3816
6.09328 3879.25
6.27201 86.9913
6.45075 68.8419
6.62952 64.8593
6.8083 60.085
6.98711 57.108
7.16591 57.2449
7.34475 104.916
7.5236 56.016
7.70247 57.3063
7.88135 58.9445
8.06026 63.5922
8.23919 71.1536
8.41812 88.0576
8.59709 1068.38
8.77609 104.677
8.9551 95.0569
9.13412 83.4337
9.31318 84.2965
9.49226 86.0933
9.67134 103.401
9.85047 102.317
10.0296 361.189
10.2088 507.127
10.388 108.37
10.5672 472.458
10.7465 89.2305
10.9257 80.4588
11.105 73.5517
11.2844 73.1122
11.4637 66.3886
11.6431 64.8917
11.8225 64.0699
12.002 65.2633
12.1814 143.41
12.3609 74.6232
12.5405 66.1212
12.72 72.6547
12.8996 72.6696
13.0792 80.5611
13.2589 225.118
13.4386 138.651
13.6183 228.346
13.7981 106.572
13.9779 77.5806
14.1577 74.6989
14.3376 73.7891
14.5175 70.5401
14.6974 71.9518
14.8774 109.977
15.0574 164.648
15.2374 73.4982
15.4175 67.7722
15.5976 67.3008
15.7778 95.5309
15.958 170.8
16.1382 64.8697
16.3185 60.4412
16.4988 56.9785
16.6792 55.938
16.8596 56.6733
17.04 57.1512
17.2205 67.0508
17.401 74.5562
17.5815 60.7589
17.7622 62.6031
17.9428 75.455
18.1237 137.351
18.3044 89.6399
18.4852 82.5372
18.666 61.9697
18.8469 59.3952
19.0278 58.2874
19.2088 61.0412
19.3898 77.6244
19.5709 55.8723
19.752 54.5315
19.9332 57.4968
20.1144 70.7292
20.2957 63.9576
20.477 55.7788
20.6586 50.8832
20.84 49.8513
21.0215 49.6921
21.203 51.6405
21.3846 50.2334
21.5662 49.9019
21.7479 53.4366
21.9297 65.6959
22.1115 57.1268
22.2933 51.324
22.4753 50.1278
22.6572 50.0253
22.8393 52.6532
23.0214 58.9663
23.2037 50.0722
23.3859 50.8344
23.5682 57.2811
23.7505 50.1013
23.9329 46.2579
24.1154 45.2154
24.2979 44.6087
24.4805 43.8576
24.6631 43.95
24.8458 43.3096
25.0286 43.7893
25.2114 45.68
25.3943 45.7696
25.5773 41.9814
25.7605 41.3953
25.9436 41.733
26.1268 42.6258
26.31 41.1377
26.4933 41.5597
26.6767 43.0717
26.8601 41.5789
27.0437 39.8118
27.2272 39.4299
27.4109 39.2113
27.5946 39.3571
27.7784 38.7592
27.9623 39.1663
28.1462 39.7349
28.3304 38.1124
28.5145 36.956
28.6987 36.5515
28.8829 36.2522
29.0673 35.5501
29.2517 35.1153
29.4361 35.0226
29.6207 33.9431
29.8053 33.6858
29.99 33.3515
30.1748 33.224
30.3597 33.093
30.5447 32.8775
30.7297 32.9029
30.915 32.3873
31.1002 31.8881
31.2855 31.4836
31.4708 31.5196
31.6563 31.0646
31.8418 30.7684
32.0275 30.5566
32.2132 30.0981
32.399 29.6751
32.5848 29.0881
32.7708 28.8037
32.9569 28.6512
33.143 28.4453
33.3293 28.0814
33.5158 27.6976
33.7022 27.2739
33.8887 26.9374
34.0753 26.615
34.262 26.318
34.4488 26.0097
34.6357 25.6328
34.8227 25.2986
35.0098 25.1041
35.1969 24.761
35.3842 24.462
35.5716 24.3678
35.759 24.0066
35.9468 23.6026
36.1345 23.4264
36.3222 23.1659
36.5101 22.9293
36.6981 22.7079
36.8861 22.3222
37.0743 21.9884
37.2626 21.8378
37.451 21.4711
37.6395 21.333
37.8281 20.9969
38.0168 20.6577
38.2056 20.4308
38.3945 20.1456
38.5837 19.8853
38.7728 19.6841
38.9621 19.3792
39.1514 19.1298
39.3409 18.9087
39.5304 18.6984
39.7201 18.3914
39.9099 18.3205
40.0999 18.0673
40.2899 17.8003
40.48 17.5093
40.6703 17.3032
40.8607 17.1427
41.0512 16.9096
41.242 16.6186
41.4327 16.4633
41.6236 16.2243
41.8146 15.9906
42.0057 15.781
42.1969 15.5596
42.3882 15.3686
42.5797 15.1315
42.7713 14.932
42.963 14.8436
43.1549 14.5348
43.3468 14.3749
43.5389 14.1674
43.7312 13.9417
43.9237 13.8128
44.1162 13.596
44.3088 13.405
44.5016 13.1776
44.6945 13.0705
44.8875 12.8407
45.0806 12.7056
45.2739 12.5134
45.4673 12.3157
45.6609 12.1371
45.8546 11.9723
46.0484 11.8199
46.2424 11.636
46.4365 11.4466
46.631 11.3047
46.8254 11.1067
47.0199 10.9147
47.2146 10.7984
47.4095 10.6615
47.6044 10.4561
47.7996 10.3115
47.9948 10.166
48.1902 10.0123
48.3858 9.89197
48.5815 9.77115
48.7774 9.61351
48.9734 9.46579
49.1696 9.29697
49.3661 9.19071
49.5626 9.02655
49.7592 8.91531
49.956 8.78144
50.153 8.64635
50.3501 8.47763
50.5474 8.37916
50.7448 8.25662
50.9424 8.11291
51.1402 8.03869
51.3381 7.8449
51.5362 7.73093
51.7344 7.5867
51.9328 7.48938
52.1316 7.34192
52.3304 7.24183
52.5293 7.06921
52.7284 6.98953
52.9276 6.89912
53.1271 6.78863
53.3267 6.67113
53.5265 6.49935
53.7264 6.46735
53.9266 6.26291
54.1269 6.21827
54.3274 6.07545
54.528 5.94747
54.7289 5.80189
54.9301 5.59126
55.1314 5.51424
55.3328 5.28231
55.5344 5.09514
55.7361 4.90521