File: XRD/Ni3Fe_FD0878.xy
TT I
1.27165 7.22487
1.45013 6.32757
1.62863 5.06452
1.80712 5.0507
1.98562 5.24633
2.16411 5.06012
2.34263 5.37785
2.52115 7.71823
2.69965 8.6725
2.87818 9.2477
3.05672 11.1007
3.23527 15.1487
3.4138 19.1391
3.59237 24.0665
3.77094 26.1024
3.9495 29.5425
4.12809 35.1908
4.30669 260.971
4.4853 69.448
4.6639 54.8787
4.84253 66.1247
5.02118 84.5284
5.19981 289.308
5.37848 179.999
5.55716 99.8627
5.73586 90.1404
5.91455 90.723
6.09328 4343.47
6.27201 81.6237
6.45075 66.5177
6.62952 62.2059
6.8083 58.1781
6.98711 55.2151
7.16591 54.9004
7.34475 99.8189
7.5236 54.4937
7.70247 55.5086
7.88135 57.2764
8.06026 61.4887
8.23919 68.4893
8.41812 83.5301
8.59709 1091.35
8.77609 97.6838
8.9551 91.5342
9.13412 80.7159
9.31318 81.3543
9.49226 83.0321
9.67134 98.8066
9.85047 98.0504
10.0296 293.11
10.2088 409.334
10.388 102.95
10.5672 516.633
10.7465 85.304
10.9257 77.4943
11.105 70.7503
11.2844 70.1535
11.4637 64.2471
11.6431 62.8882
11.8225 61.6029
12.002 62.293
12.1814 148.443
12.3609 71.3109
12.5405 63.6161
12.72 69.9908
12.8996 69.6779
13.0792 76.9883
13.2589 223.112
13.4386 124.041
13.6183 238.339
13.7981 96.1242
13.9779 74.7492
14.1577 71.5995
14.3376 71.1629
14.5175 67.8196
14.6974 69.2525
14.8774 104.295
15.0574 147.879
15.2374 70.5607
15.4175 65.255
15.5976 64.7581
15.7778 89.8404
15.958 156.439
16.1382 62.3013
16.3185 58.0931
16.4988 54.7846
16.6792 53.7127
16.8596 54.7215
17.04 54.9456
17.2205 64.8258
17.401 70.0928
17.5815 58.2448
17.7622 60.1933
17.9428 70.5551
18.1237 138.462
18.3044 88.5575
18.4852 76.6626
18.666 59.3704
18.8469 57.2284
19.0278 55.9928
19.2088 58.166
19.3898 76.4041
19.5709 53.565
19.752 52.4662
19.9332 55.102
20.1144 69.476
20.2957 63.3741
20.477 53.2013
20.6586 48.8525
20.84 48.3549
21.0215 47.8812
21.203 50.2684
21.3846 48.3045
21.5662 47.8955
21.7479 51.3099
21.9297 63.9827
22.1115 55.6085
22.2933 49.2523
22.4753 48.177
22.6572 47.9988
22.8393 50.9477
23.0214 56.9617
23.2037 48.1387
23.3859 48.7425
23.5682 56.3701
23.7505 47.868
23.9329 44.7109
24.1154 43.5251
24.2979 42.9512
24.4805 42.4791
24.6631 42.3578
24.8458 41.5153
25.0286 42.216
25.2114 44.0669
25.3943 44.0565
25.5773 40.4185
25.7605 39.9585
25.9436 40.2618
26.1268 41.1352
26.31 39.6347
26.4933 40.0639
26.6767 41.6864
26.8601 39.936
27.0437 38.2798
27.2272 38.023
27.4109 37.9231
27.5946 37.7941
27.7784 37.3577
27.9623 37.8859
28.1462 38.2956
28.3304 36.7746
28.5145 35.5473
28.6987 35.212
28.8829 34.9303
29.0673 34.1457
29.2517 33.9454
29.4361 33.7595
29.6207 32.7436
29.8053 32.5336
29.99 32.1165
30.1748 32.0894
30.3597 31.867
30.5447 31.7462
30.7297 31.8207
30.915 31.1972
31.1002 30.6929
31.2855 30.4809
31.4708 30.4139
31.6563 30.052
31.8418 29.7804
32.0275 29.5257
32.2132 29.0056
32.399 28.5227
32.5848 28.1623
32.7708 27.7867
32.9569 27.6889
33.143 27.4389
33.3293 27.0621
33.5158 26.6945
33.7022 26.246
33.8887 26.0619
34.0753 25.6309
34.262 25.2429
34.4488 24.9662
34.6357 24.6235
34.8227 24.345
35.0098 24.1822
35.1969 23.9481
35.3842 23.7272
35.5716 23.5202
35.759 23.1862
35.9468 22.8169
36.1345 22.6758
36.3222 22.4177
36.5101 22.0977
36.6981 21.872
36.8861 21.5401
37.0743 21.2173
37.2626 21.0223
37.451 20.7017
37.6395 20.5744
37.8281 20.2536
38.0168 20.0182
38.2056 19.6952
38.3945 19.3792
38.5837 19.1588
38.7728 18.956
38.9621 18.7405
39.1514 18.4037
39.3409 18.248
39.5304 18.0434
39.7201 17.8121
39.9099 17.6272
40.0999 17.4134
40.2899 17.2128
40.48 16.9034
40.6703 16.734
40.8607 16.5219
41.0512 16.3211
41.242 16.0899
41.4327 15.9078
41.6236 15.6549
41.8146 15.4804
42.0057 15.2315
42.1969 15.0214
42.3882 14.8688
42.5797 14.6395
42.7713 14.4708
42.963 14.2616
43.1549 14.0533
43.3468 13.8516
43.5389 13.6763
43.7312 13.5188
43.9237 13.3282
44.1162 13.0844
44.3088 12.9692
44.5016 12.7101
44.6945 12.5983
44.8875 12.3771
45.0806 12.2265
45.2739 12.0505
45.4673 11.8981
45.6609 11.7203
45.8546 11.5823
46.0484 11.374
46.2424 11.229
46.4365 11.0665
46.631 10.9049
46.8254 10.7247
47.0199 10.5967
47.2146 10.4572
47.4095 10.2571
47.6044 10.1239
47.7996 10.0021
47.9948 9.82379
48.1902 9.68707
48.3858 9.53412
48.5815 9.43421
48.7774 9.28622
48.9734 9.13527
49.1696 9.00956
49.3661 8.86371
49.5626 8.73542
49.7592 8.58772
49.956 8.48361
50.153 8.32435
50.3501 8.18175
50.5474 8.07988
50.7448 7.9665
50.9424 7.88849
51.1402 7.73007
51.3381 7.56774
51.5362 7.45923
51.7344 7.3425
51.9328 7.21049
52.1316 7.10806
52.3304 6.99446
52.5293 6.88285
52.7284 6.75906
52.9276 6.639
53.1271 6.58089
53.3267 6.38695
53.5265 6.28963
53.7264 6.21783
53.9266 6.0936
54.1269 5.96704
54.3274 5.86429
54.528 5.79
54.7289 5.57179
54.9301 5.43885
55.1314 5.2769
55.3328 5.13049
55.5344 4.86482
55.7361 4.75311