File: XRD/Ni3Fe_FD0827.xy
TT I
1.27165 7.42592
1.45013 6.09733
1.62863 4.94539
1.80712 4.94947
1.98562 5.03835
2.16411 4.88985
2.34263 5.7854
2.52115 6.81268
2.69965 8.60859
2.87818 8.52464
3.05672 10.4581
3.23527 15.1681
3.4138 18.5693
3.59237 23.2365
3.77094 25.5421
3.9495 29.1706
4.12809 33.9663
4.30669 96.1393
4.4853 52.8037
4.6639 55.2611
4.84253 68.3524
5.02118 86.5988
5.19981 404.303
5.37848 195.02
5.55716 101.503
5.73586 92.468
5.91455 95.1069
6.09328 4587.65
6.27201 79.0361
6.45075 69.9821
6.62952 62.7761
6.8083 59.5233
6.98711 54.9614
7.16591 55.8659
7.34475 64.3339
7.5236 53.6022
7.70247 56.3849
7.88135 57.2574
8.06026 62.1062
8.23919 69.0078
8.41812 82.8477
8.59709 1218.16
8.77609 97.0144
8.9551 89.1661
9.13412 82.8625
9.31318 84.7554
9.49226 84.1423
9.67134 94.9363
9.85047 101.215
10.0296 342.886
10.2088 351.474
10.388 104.578
10.5672 537.13
10.7465 85.4557
10.9257 77.2971
11.105 70.6985
11.2844 67.5874
11.4637 64.0981
11.6431 62.7384
11.8225 62.3695
12.002 63.9118
12.1814 161.483
12.3609 65.6326
12.5405 64.4796
12.72 67.4271
12.8996 70.7085
13.0792 79.9779
13.2589 249.527
13.4386 117.811
13.6183 258.73
13.7981 93.2503
13.9779 74.8392
14.1577 71.2151
14.3376 69.6355
14.5175 68.0879
14.6974 69.9381
14.8774 112.052
15.0574 140.34
15.2374 68.6992
15.4175 65.5762
15.5976 65.3374
15.7778 95.627
15.958 146.478
16.1382 60.6181
16.3185 57.2699
16.4988 54.9165
16.6792 53.9411
16.8596 54.2897
17.04 55.5727
17.2205 66.721
17.401 68.3096
17.5815 58.5136
17.7622 60.7849
17.9428 73.2076
18.1237 141.012
18.3044 91.3705
18.4852 73.8354
18.666 59.6533
18.8469 57.5083
19.0278 56.0181
19.2088 58.7702
19.3898 75.6061
19.5709 53.4751
19.752 52.6835
19.9332 55.8132
20.1144 69.6175
20.2957 64.0799
20.477 52.2529
20.6586 49.1122
20.84 48.3401
21.0215 48.133
21.203 50.5694
21.3846 48.3122
21.5662 48.4389
21.7479 52.2977
21.9297 64.1787
22.1115 55.8696
22.2933 49.1289
22.4753 48.2805
22.6572 48.3819
22.8393 51.6573
23.0214 56.4084
23.2037 48.3299
23.3859 49.3661
23.5682 56.997
23.7505 47.2278
23.9329 44.6748
24.1154 43.8144
24.2979 43.021
24.4805 42.3885
24.6631 42.4058
24.8458 41.7013
25.0286 42.3807
25.2114 44.191
25.3943 44.0996
25.5773 40.439
25.7605 39.928
25.9436 40.4644
26.1268 41.3404
26.31 39.6309
26.4933 40.3112
26.6767 41.8483
26.8601 39.8829
27.0437 38.4438
27.2272 38.07
27.4109 38.0678
27.5946 37.9229
27.7784 37.5726
27.9623 38.1558
28.1462 38.3817
28.3304 36.698
28.5145 35.5423
28.6987 35.2713
28.8829 34.9536
29.0673 34.2704
29.2517 33.9183
29.4361 33.8169
29.6207 32.7698
29.8053 32.457
29.99 32.1527
30.1748 32.1463
30.3597 31.9342
30.5447 31.8597
30.7297 31.8811
30.915 31.2795
31.1002 30.7663
31.2855 30.5299
31.4708 30.4814
31.6563 29.9967
31.8418 29.8181
32.0275 29.5905
32.2132 29.0918
32.399 28.5322
32.5848 28.1413
32.7708 27.8847
32.9569 27.7021
33.143 27.5669
33.3293 27.0967
33.5158 26.7167
33.7022 26.3294
33.8887 26.0581
34.0753 25.7245
34.262 25.3432
34.4488 25.0126
34.6357 24.625
34.8227 24.3783
35.0098 24.2272
35.1969 23.9239
35.3842 23.7322
35.5716 23.4852
35.759 23.2146
35.9468 22.8181
36.1345 22.6727
36.3222 22.3739
36.5101 22.1513
36.6981 21.8609
36.8861 21.528
37.0743 21.1953
37.2626 21.0323
37.451 20.7257
37.6395 20.5689
37.8281 20.2482
38.0168 19.9411
38.2056 19.7673
38.3945 19.4462
38.5837 19.2489
38.7728 19.0018
38.9621 18.7542
39.1514 18.5673
39.3409 18.1984
39.5304 18.0546
39.7201 17.8302
39.9099 17.6489
40.0999 17.3757
40.2899 17.1972
40.48 16.9444
40.6703 16.7555
40.8607 16.5614
41.0512 16.3251
41.242 16.0591
41.4327 15.8835
41.6236 15.6525
41.8146 15.4691
42.0057 15.2198
42.1969 15.0334
42.3882 14.8417
42.5797 14.639
42.7713 14.4371
42.963 14.2528
43.1549 14.0218
43.3468 13.8227
43.5389 13.6897
43.7312 13.4661
43.9237 13.2904
44.1162 13.1161
44.3088 12.9503
44.5016 12.7509
44.6945 12.5246
44.8875 12.4499
45.0806 12.1988
45.2739 12.0878
45.4673 11.8928
45.6609 11.679
45.8546 11.555
46.0484 11.4327
46.2424 11.2629
46.4365 11.1068
46.631 10.8894
46.8254 10.7273
47.0199 10.5798
47.2146 10.4033
47.4095 10.2696
47.6044 10.1182
47.7996 9.94841
47.9948 9.80288
48.1902 9.70875
48.3858 9.5496
48.5815 9.42406
48.7774 9.26439
48.9734 9.13195
49.1696 9.00932
49.3661 8.85515
49.5626 8.70969
49.7592 8.61771
49.956 8.50277
50.153 8.31276
50.3501 8.17695
50.5474 8.07589
50.7448 7.94695
50.9424 7.84506
51.1402 7.74407
51.3381 7.55781
51.5362 7.43819
51.7344 7.36877
51.9328 7.24005
52.1316 7.09158
52.3304 6.98523
52.5293 6.89857
52.7284 6.77205
52.9276 6.68095
53.1271 6.5718
53.3267 6.42509
53.5265 6.30906
53.7264 6.1799
53.9266 6.08014
54.1269 5.9526
54.3274 5.87245
54.528 5.73413
54.7289 5.57824
54.9301 5.43765
55.1314 5.30916
55.3328 5.07263
55.5344 4.9595
55.7361 4.77718