File: XRD/Ni3Fe_FD0199.xy
TT I
1.27165 7.54263
1.45013 6.31057
1.62863 6.37763
1.80712 5.60287
1.98562 5.07171
2.16411 5.21134
2.34263 3.83638
2.52115 5.08665
2.69965 5.91864
2.87818 8.16454
3.05672 10.7534
3.23527 15.2041
3.4138 19.1573
3.59237 22.2491
3.77094 25.817
3.9495 30.25
4.12809 35.0858
4.30669 40.8068
4.4853 48.6433
4.6639 58.3419
4.84253 71.5668
5.02118 97.5816
5.19981 874.659
5.37848 302.135
5.55716 113.098
5.73586 101.724
5.91455 112.116
6.09328 3486.15
6.27201 90.6654
6.45075 70.9601
6.62952 64.4026
6.8083 59.9799
6.98711 57.6611
7.16591 56.4128
7.34475 56.1449
7.5236 58.3226
7.70247 58.2683
7.88135 60.4215
8.06026 65.4666
8.23919 73.3515
8.41812 90.9825
8.59709 1014.78
8.77609 113.041
8.9551 90.9715
9.13412 87.2432
9.31318 89.6654
9.49226 89.6402
9.67134 95.5498
9.85047 106.968
10.0296 536.801
10.2088 640.786
10.388 114.081
10.5672 421.712
10.7465 93.8
10.9257 81.1438
11.105 75.216
11.2844 70.9516
11.4637 68.2408
11.6431 66.6995
11.8225 65.7156
12.002 69.0961
12.1814 135.047
12.3609 71.7362
12.5405 67.6496
12.72 69.9902
12.8996 75.0336
13.0792 86.0257
13.2589 222.252
13.4386 157.433
13.6183 218.304
13.7981 117.205
13.9779 80.4224
14.1577 76.7853
14.3376 73.6167
14.5175 72.8665
14.6974 74.7659
14.8774 119.254
15.0574 180.372
15.2374 73.0546
15.4175 70.1125
15.5976 70.1707
15.7778 103.802
15.958 178.59
16.1382 64.4066
16.3185 60.4643
16.4988 58.1717
16.6792 57.3182
16.8596 57.6218
17.04 59.1836
17.2205 68.8368
17.401 79.0507
17.5815 62.483
17.7622 65.1129
17.9428 84.023
18.1237 135.033
18.3044 89.9021
18.4852 86.4378
18.666 63.9745
18.8469 61.2103
19.0278 59.8083
19.2088 63.2051
19.3898 75.4671
19.5709 57.387
19.752 56.2626
19.9332 59.8597
20.1144 72.1559
20.2957 64.1428
20.477 57.4612
20.6586 52.3262
20.84 51.4711
21.0215 51.507
21.203 52.6716
21.3846 51.8024
21.5662 51.7871
21.7479 55.6701
21.9297 66.2547
22.1115 57.8502
22.2933 52.8565
22.4753 51.009
22.6572 52.135
22.8393 54.2284
23.0214 59.9103
23.2037 51.5656
23.3859 52.8781
23.5682 57.1269
23.7505 51.8182
23.9329 47.6196
24.1154 46.3696
24.2979 45.6223
24.4805 45.1625
24.6631 45.001
24.8458 44.5572
25.0286 45.2525
25.2114 46.7014
25.3943 46.7525
25.5773 43.1604
25.7605 42.551
25.9436 42.7476
26.1268 43.5857
26.31 42.388
26.4933 42.7317
26.6767 44.0665
26.8601 42.4494
27.0437 40.9226
27.2272 40.5264
27.4109 40.359
27.5946 40.4368
27.7784 40.0189
27.9623 40.0401
28.1462 40.5605
28.3304 39.1793
28.5145 37.7778
28.6987 37.3537
28.8829 37.1096
29.0673 36.4555
29.2517 35.92
29.4361 35.7349
29.6207 34.7837
29.8053 34.4952
29.99 34.1766
30.1748 33.9105
30.3597 33.8751
30.5447 33.6373
30.7297 33.6714
30.915 33.1238
31.1002 32.8533
31.2855 32.4133
31.4708 32.2183
31.6563 31.9054
31.8418 31.5537
32.0275 31.4228
32.2132 30.8475
32.399 30.331
32.5848 29.882
32.7708 29.579
32.9569 29.37
33.143 29.1431
33.3293 28.7522
33.5158 28.4112
33.7022 27.8846
33.8887 27.6655
34.0753 27.3283
34.262 26.9351
34.4488 26.5188
34.6357 26.1869
34.8227 25.8363
35.0098 25.6674
35.1969 25.3251
35.3842 25.1051
35.5716 24.9746
35.759 24.5797
35.9468 24.2089
36.1345 24.0005
36.3222 23.7941
36.5101 23.5046
36.6981 23.2578
36.8861 22.8303
37.0743 22.5662
37.2626 22.2579
37.451 22.004
37.6395 21.7845
37.8281 21.484
38.0168 21.1557
38.2056 20.8922
38.3945 20.6405
38.5837 20.4287
38.7728 20.1158
38.9621 19.8433
39.1514 19.596
39.3409 19.3582
39.5304 19.1833
39.7201 18.9255
39.9099 18.7324
40.0999 18.4562
40.2899 18.2174
40.48 17.9499
40.6703 17.7701
40.8607 17.5253
41.0512 17.2998
41.242 17.037
41.4327 16.7953
41.6236 16.5198
41.8146 16.3387
42.0057 16.1535
42.1969 15.9016
42.3882 15.6984
42.5797 15.531
42.7713 15.3378
42.963 15.104
43.1549 14.8478
43.3468 14.6612
43.5389 14.4817
43.7312 14.2404
43.9237 14.0959
44.1162 13.9094
44.3088 13.7051
44.5016 13.4757
44.6945 13.3053
44.8875 13.162
45.0806 12.9027
45.2739 12.7909
45.4673 12.6131
45.6609 12.4238
45.8546 12.2352
46.0484 12.0722
46.2424 11.8924
46.4365 11.7213
46.631 11.5255
46.8254 11.3377
47.0199 11.2216
47.2146 11.0338
47.4095 10.8577
47.6044 10.7328
47.7996 10.5492
47.9948 10.3825
48.1902 10.2781
48.3858 10.141
48.5815 9.97041
48.7774 9.81807
48.9734 9.68751
49.1696 9.51981
49.3661 9.37577
49.5626 9.24154
49.7592 9.08746
49.956 8.99381
50.153 8.82291
50.3501 8.69883
50.5474 8.54037
50.7448 8.423
50.9424 8.31605
51.1402 8.14078
51.3381 8.01477
51.5362 7.88045
51.7344 7.7671
51.9328 7.61471
52.1316 7.51378
52.3304 7.37593
52.5293 7.28719
52.7284 7.1522
52.9276 7.00153
53.1271 6.94955
53.3267 6.81553
53.5265 6.66118
53.7264 6.61403
53.9266 6.43553
54.1269 6.30571
54.3274 6.15234
54.528 6.03594
54.7289 5.85739
54.9301 5.68533
55.1314 5.55624
55.3328 5.25604
55.5344 5.0981
55.7361 4.96396