File: XRD/Ni3Fe_FD0036.xy
TT I
1.27165 32.6483
1.45013 27.7589
1.62863 23.8712
1.80712 22.1951
1.98562 22.2128
2.16411 23.6544
2.34263 23.4209
2.52115 22.8048
2.69965 26.5789
2.87818 36.3785
3.05672 63.8586
3.23527 71.5209
3.4138 37.6854
3.59237 33.5191
3.77094 31.9705
3.9495 30.3436
4.12809 37.4686
4.30669 67.6909
4.4853 47.7389
4.6639 42.541
4.84253 51.8747
5.02118 88.2472
5.19981 297.496
5.37848 3520.48
5.55716 154.498
5.73586 101.259
5.91455 114.371
6.09328 513.084
6.27201 267.674
6.45075 68.0303
6.62952 51.8327
6.8083 48.3689
6.98711 40.8181
7.16591 42.518
7.34475 61.7365
7.5236 52.885
7.70247 43.787
7.88135 37.296
8.06026 39.2743
8.23919 44.7728
8.41812 57.3043
8.59709 177.544
8.77609 526.206
8.9551 76.2782
9.13412 61.0572
9.31318 292.014
9.49226 55.1411
9.67134 55.1274
9.85047 61.5878
10.0296 108.817
10.2088 591.49
10.388 115.383
10.5672 95.2521
10.7465 235.596
10.9257 49.659
11.105 43.4135
11.2844 41.5549
11.4637 38.5074
11.6431 38.0023
11.8225 37.82
12.002 89.3663
12.1814 48.4849
12.3609 94.3687
12.5405 43.218
12.72 40.8837
12.8996 40.0222
13.0792 44.2176
13.2589 67.9152
13.4386 173.359
13.6183 86.8768
13.7981 179.969
13.9779 57.5805
14.1577 52.3562
14.3376 46.5439
14.5175 39.5717
14.6974 39.8608
14.8774 45.9395
15.0574 66.783
15.2374 74.0938
15.4175 41.5385
15.5976 39.42
15.7778 43.2771
15.958 58.1972
16.1382 97.3444
16.3185 39.0061
16.4988 34.1996
16.6792 32.4159
16.8596 32.6486
17.04 41.825
17.2205 34.4857
17.401 38.1978
17.5815 42.8653
17.7622 36.2946
17.9428 40.3961
18.1237 44.4093
18.3044 92.8765
18.4852 55.1586
18.666 55.567
18.8469 36.5312
19.0278 34.6529
19.2088 34.6492
19.3898 42.9003
19.5709 46.8674
19.752 34.6721
19.9332 32.7563
20.1144 33.2781
20.2957 44.1408
20.477 38.7938
20.6586 35.3758
20.84 33.0781
21.0215 29.876
21.203 29.3782
21.3846 30.1024
21.5662 31.6031
21.7479 30.5529
21.9297 31.7275
22.1115 42.2184
22.2933 39.7877
22.4753 33.1463
22.6572 30.3752
22.8393 31.3129
23.0214 31.5873
23.2037 39.5811
23.3859 32.3383
23.5682 34.2344
23.7505 35.0997
23.9329 35.5818
24.1154 29.3012
24.2979 27.7842
24.4805 27.0461
24.6631 27.1147
24.8458 27.7278
25.0286 26.4826
25.2114 26.7617
25.3943 28.991
25.5773 30.0303
25.7605 27.2197
25.9436 26.8946
26.1268 25.7428
26.31 26.9571
26.4933 26.7308
26.6767 26.03
26.8601 27.5766
27.0437 28.7913
27.2272 25.902
27.4109 24.9028
27.5946 24.8526
27.7784 25.1742
27.9623 24.9729
28.1462 25.6663
28.3304 26.8865
28.5145 25.8644
28.6987 24.3678
28.8829 23.093
29.0673 22.789
29.2517 23.1177
29.4361 22.1698
29.6207 22.1213
29.8053 22.1123
29.99 21.2696
30.1748 21.4094
30.3597 21.0983
30.5447 21.3328
30.7297 20.9498
30.915 21.2158
31.1002 21.9982
31.2855 20.9838
31.4708 20.4952
31.6563 20.5048
31.8418 20.9621
32.0275 20.104
32.2132 20.3864
32.399 20.0927
32.5848 19.3398
32.7708 18.8879
32.9569 18.8026
33.143 18.7032
33.3293 18.3675
33.5158 18.6096
33.7022 18.4211
33.8887 17.7407
34.0753 17.7062
34.262 17.5402
34.4488 17.1215
34.6357 16.9871
34.8227 16.7387
35.0098 16.5502
35.1969 16.3485
35.3842 16.2166
35.5716 16.1432
35.759 16.2644
35.9468 16.1332
36.1345 15.6852
36.3222 15.5088
36.5101 15.475
36.6981 15.2235
36.8861 15.0817
37.0743 14.9373
37.2626 14.5908
37.451 14.4718
37.6395 14.3639
37.8281 14.0572
38.0168 13.9527
38.2056 13.8161
38.3945 13.5952
38.5837 13.3575
38.7728 13.2707
38.9621 13.1335
39.1514 12.9261
39.3409 12.7354
39.5304 12.6126
39.7201 12.4394
39.9099 12.3332
40.0999 12.1906
40.2899 12.1089
40.48 11.871
40.6703 11.7969
40.8607 11.6746
41.0512 11.5383
41.242 11.3946
41.4327 11.2477
41.6236 11.0136
41.8146 10.9347
42.0057 10.8305
42.1969 10.7442
42.3882 10.4848
42.5797 10.3378
42.7713 10.2595
42.963 10.0929
43.1549 9.96098
43.3468 9.8092
43.5389 9.69267
43.7312 9.52302
43.9237 9.45421
44.1162 9.35156
44.3088 9.22973
44.5016 9.08369
44.6945 8.99357
44.8875 8.89278
45.0806 8.73951
45.2739 8.64865
45.4673 8.52496
45.6609 8.38385
45.8546 8.27515
46.0484 8.16168
46.2424 8.04744
46.4365 7.96066
46.631 7.83178
46.8254 7.7052
47.0199 7.60342
47.2146 7.49633
47.4095 7.36439
47.6044 7.26759
47.7996 7.18369
47.9948 7.06638
48.1902 6.97739
48.3858 6.86409
48.5815 6.80457
48.7774 6.70772
48.9734 6.60252
49.1696 6.51306
49.3661 6.39858
49.5626 6.31791
49.7592 6.20155
49.956 6.14194
50.153 6.01494
50.3501 5.93698
50.5474 5.87523
50.7448 5.81009
50.9424 5.70387
51.1402 5.65342
51.3381 5.48616
51.5362 5.48928
51.7344 5.36539
51.9328 5.27797
52.1316 5.16067
52.3304 5.1271
52.5293 5.06341
52.7284 4.96307
52.9276 4.89255
53.1271 4.81881
53.3267 4.73571
53.5265 4.62174
53.7264 4.57466
53.9266 4.4527
54.1269 4.36906
54.3274 4.31003
54.528 4.17062
54.7289 4.03957
54.9301 3.91261
55.1314 3.78783
55.3328 3.67864
55.5344 3.50232
55.7361 3.4621