File: XRD/Ni3Fe_FD0837.xy
TT I
1.27165 7.22226
1.45013 6.50924
1.62863 5.27489
1.80712 4.72734
1.98562 4.58214
2.16411 4.54996
2.34263 5.2942
2.52115 7.19368
2.69965 7.86788
2.87818 8.2945
3.05672 10.9744
3.23527 15.4383
3.4138 18.5499
3.59237 23.5852
3.77094 25.9511
3.9495 29.5992
4.12809 34.6212
4.30669 153.154
4.4853 58.6912
4.6639 55.1693
4.84253 67.1959
5.02118 86.2055
5.19981 329.076
5.37848 182.873
5.55716 101.141
5.73586 91.8398
5.91455 93.5261
6.09328 4394.4
6.27201 80.5247
6.45075 67.3792
6.62952 62.2085
6.8083 58.3893
6.98711 55.1803
7.16591 55.0432
7.34475 76.5592
7.5236 54.1731
7.70247 55.8309
7.88135 57.1452
8.06026 61.9508
8.23919 69.1011
8.41812 83.5438
8.59709 1190.69
8.77609 97.1254
8.9551 89.6481
9.13412 81.261
9.31318 82.7822
9.49226 83.9626
9.67134 95.1337
9.85047 99.5395
10.0296 331.369
10.2088 396.002
10.388 102.954
10.5672 525.41
10.7465 85.5746
10.9257 77.7371
11.105 71.2418
11.2844 68.847
11.4637 64.1454
11.6431 63.0671
11.8225 61.9904
12.002 63.2939
12.1814 155.985
12.3609 67.8278
12.5405 64.0894
12.72 68.0452
12.8996 70.3808
13.0792 78.4308
13.2589 245.474
13.4386 122.417
13.6183 252.574
13.7981 96.0965
13.9779 75.258
14.1577 71.2229
14.3376 70.196
14.5175 68.3075
14.6974 69.6177
14.8774 110.68
15.0574 144.252
15.2374 69.4365
15.4175 65.7485
15.5976 65.0351
15.7778 94.859
15.958 149.732
16.1382 61.2798
16.3185 57.8096
16.4988 54.8456
16.6792 53.9238
16.8596 54.5828
17.04 55.3526
17.2205 66.6978
17.401 69.6349
17.5815 58.4686
17.7622 60.5972
17.9428 72.5061
18.1237 137.648
18.3044 91.2337
18.4852 75.7387
18.666 59.9916
18.8469 57.3926
19.0278 56.2269
19.2088 58.786
19.3898 74.6309
19.5709 53.5746
19.752 52.9801
19.9332 55.3906
20.1144 69.0607
20.2957 63.7304
20.477 52.89
20.6586 49.2494
20.84 48.3351
21.0215 48.2339
21.203 50.2881
21.3846 48.2445
21.5662 48.2849
21.7479 52.1217
21.9297 63.6124
22.1115 55.3718
22.2933 49.2106
22.4753 48.4342
22.6572 48.2759
22.8393 51.5835
23.0214 56.3396
23.2037 48.3182
23.3859 49.4039
23.5682 56.4648
23.7505 47.7773
23.9329 44.8572
24.1154 43.6454
24.2979 42.8966
24.4805 42.5603
24.6631 42.4608
24.8458 41.7178
25.0286 42.4391
25.2114 44.1038
25.3943 44.0725
25.5773 40.4607
25.7605 39.8813
25.9436 40.4126
26.1268 41.326
26.31 39.6187
26.4933 40.3403
26.6767 41.7009
26.8601 39.9981
27.0437 38.4827
27.2272 38.0724
27.4109 37.9475
27.5946 37.9706
27.7784 37.4159
27.9623 38.1344
28.1462 38.4526
28.3304 36.6747
28.5145 35.6184
28.6987 35.1991
28.8829 35.0235
29.0673 34.2427
29.2517 33.9283
29.4361 33.7091
29.6207 32.8519
29.8053 32.4198
29.99 32.3195
30.1748 32.0435
30.3597 32.0073
30.5447 31.7694
30.7297 31.8505
30.915 31.3245
31.1002 30.8157
31.2855 30.4913
31.4708 30.5838
31.6563 30.0601
31.8418 29.8279
32.0275 29.5945
32.2132 28.9686
32.399 28.5992
32.5848 28.1339
32.7708 27.8158
32.9569 27.7578
33.143 27.5165
33.3293 27.1994
33.5158 26.7773
33.7022 26.3043
33.8887 25.9854
34.0753 25.6415
34.262 25.35
34.4488 24.9935
34.6357 24.6965
34.8227 24.4474
35.0098 24.2436
35.1969 24.0621
35.3842 23.7714
35.5716 23.5208
35.759 23.2357
35.9468 22.8866
36.1345 22.6142
36.3222 22.4794
36.5101 22.1702
36.6981 21.911
36.8861 21.6412
37.0743 21.2463
37.2626 21.0394
37.451 20.7429
37.6395 20.6243
37.8281 20.2679
38.0168 19.9011
38.2056 19.7549
38.3945 19.5308
38.5837 19.3127
38.7728 18.9772
38.9621 18.7594
39.1514 18.5313
39.3409 18.2373
39.5304 18.0552
39.7201 17.8885
39.9099 17.664
40.0999 17.3778
40.2899 17.162
40.48 16.9236
40.6703 16.746
40.8607 16.5234
41.0512 16.3023
41.242 16.1367
41.4327 15.8704
41.6236 15.7167
41.8146 15.4817
42.0057 15.2729
42.1969 15.0708
42.3882 14.8475
42.5797 14.6442
42.7713 14.4576
42.963 14.2168
43.1549 14.0983
43.3468 13.8767
43.5389 13.653
43.7312 13.4654
43.9237 13.3226
44.1162 13.1006
44.3088 12.98
44.5016 12.7728
44.6945 12.5819
44.8875 12.4224
45.0806 12.2228
45.2739 12.0662
45.4673 11.9009
45.6609 11.7142
45.8546 11.5533
46.0484 11.3675
46.2424 11.2172
46.4365 11.1054
46.631 10.9268
46.8254 10.7722
47.0199 10.5747
47.2146 10.4671
47.4095 10.2582
47.6044 10.1263
47.7996 9.9667
47.9948 9.84258
48.1902 9.66868
48.3858 9.58342
48.5815 9.43862
48.7774 9.32136
48.9734 9.13753
49.1696 9.01813
49.3661 8.86995
49.5626 8.70583
49.7592 8.59067
49.956 8.51442
50.153 8.3391
50.3501 8.1994
50.5474 8.08179
50.7448 7.97235
50.9424 7.85419
51.1402 7.70148
51.3381 7.55798
51.5362 7.49096
51.7344 7.37749
51.9328 7.23445
52.1316 7.08746
52.3304 7.01653
52.5293 6.86065
52.7284 6.7199
52.9276 6.66206
53.1271 6.57803
53.3267 6.43911
53.5265 6.33131
53.7264 6.20538
53.9266 6.11091
54.1269 5.99343
54.3274 5.84262
54.528 5.73285
54.7289 5.58366
54.9301 5.45904
55.1314 5.32142
55.3328 5.09278
55.5344 4.92169
55.7361 4.78065