File: XRD/Ni3Fe_FD0522.xy
TT I
1.27165 7.55561
1.45013 5.90375
1.62863 5.51667
1.80712 4.99306
1.98562 5.28682
2.16411 4.68431
2.34263 5.62629
2.52115 6.79177
2.69965 8.09499
2.87818 8.10482
3.05672 10.6381
3.23527 14.7851
3.4138 19.115
3.59237 24.7571
3.77094 26.6446
3.9495 30.113
4.12809 35.7693
4.30669 253.647
4.4853 69.9858
4.6639 56.1394
4.84253 67.5504
5.02118 87.9035
5.19981 379.109
5.37848 205.982
5.55716 103.036
5.73586 93.0184
5.91455 95.2856
6.09328 4134.44
6.27201 84.9042
6.45075 68.4907
6.62952 64.0415
6.8083 59.6278
6.98711 56.6519
7.16591 56.3056
7.34475 101.497
7.5236 55.5639
7.70247 56.9039
7.88135 58.2175
8.06026 62.9755
8.23919 70.0216
8.41812 86.7149
8.59709 1122.66
8.77609 102.316
8.9551 93.4713
9.13412 82.5162
9.31318 83.2118
9.49226 85.1353
9.67134 101.655
9.85047 100.34
10.0296 340.738
10.2088 456.721
10.388 106.161
10.5672 495.861
10.7465 87.7489
10.9257 79.7898
11.105 72.9123
11.2844 71.5394
11.4637 65.5393
11.6431 64.4912
11.8225 63.2273
12.002 64.4362
12.1814 148.886
12.3609 73.1189
12.5405 65.1865
12.72 71.4231
12.8996 71.6442
13.0792 79.2724
13.2589 229.787
13.4386 132.327
13.6183 236.491
13.7981 103.647
13.9779 76.7136
14.1577 73.4374
14.3376 72.8031
14.5175 69.4146
14.6974 70.972
14.8774 109.506
15.0574 157.672
15.2374 72.2475
15.4175 67.0539
15.5976 66.4643
15.7778 94.1623
15.958 163.98
16.1382 64.3625
16.3185 59.5063
16.4988 56.3171
16.6792 55.1324
16.8596 56.0581
17.04 56.392
17.2205 66.7523
17.401 72.7688
17.5815 59.8924
17.7622 61.9844
17.9428 74.306
18.1237 137.712
18.3044 89.8338
18.4852 80.7198
18.666 61.2106
18.8469 58.7934
19.0278 57.6462
19.2088 60.2886
19.3898 77.0267
19.5709 55.0116
19.752 53.971
19.9332 56.7478
20.1144 70.4366
20.2957 63.8561
20.477 54.8695
20.6586 50.4628
20.84 49.3204
21.0215 49.0119
21.203 51.3496
21.3846 49.7771
21.5662 49.2808
21.7479 53.0374
21.9297 65.0056
22.1115 56.6461
22.2933 50.7572
22.4753 49.638
22.6572 49.346
22.8393 52.2984
23.0214 58.1147
23.2037 49.4586
23.3859 50.3202
23.5682 56.7981
23.7505 49.2671
23.9329 45.6675
24.1154 44.621
24.2979 43.9036
24.4805 43.3807
24.6631 43.3948
24.8458 42.6654
25.0286 43.3629
25.2114 45.2186
25.3943 45.1913
25.5773 41.4766
25.7605 40.8452
25.9436 41.3145
26.1268 42.22
26.31 40.6725
26.4933 41.231
26.6767 42.5718
26.8601 40.8557
27.0437 39.3033
27.2272 39.0265
27.4109 38.8849
27.5946 38.8402
27.7784 38.3076
27.9623 38.7404
28.1462 39.3084
28.3304 37.7681
28.5145 36.5201
28.6987 36.0023
28.8829 35.8772
29.0673 35.2279
29.2517 34.7882
29.4361 34.6654
29.6207 33.5797
29.8053 33.2673
29.99 33.0503
30.1748 32.7723
30.3597 32.6175
30.5447 32.5301
30.7297 32.614
30.915 32.0438
31.1002 31.4492
31.2855 31.2529
31.4708 31.1453
31.6563 30.689
31.8418 30.5047
32.0275 30.3292
32.2132 29.7632
32.399 29.3337
32.5848 28.8218
32.7708 28.4573
32.9569 28.2928
33.143 28.1345
33.3293 27.7401
33.5158 27.3978
33.7022 26.935
33.8887 26.6078
34.0753 26.3211
34.262 25.9038
34.4488 25.6345
34.6357 25.2931
34.8227 25.0437
35.0098 24.8324
35.1969 24.5281
35.3842 24.242
35.5716 24.1393
35.759 23.7474
35.9468 23.4846
36.1345 23.2088
36.3222 22.9318
36.5101 22.6465
36.6981 22.4597
36.8861 22.0131
37.0743 21.6884
37.2626 21.5479
37.451 21.1771
37.6395 20.9842
37.8281 20.7092
38.0168 20.5008
38.2056 20.1638
38.3945 19.918
38.5837 19.6434
38.7728 19.4273
38.9621 19.2068
39.1514 18.8994
39.3409 18.6538
39.5304 18.4706
39.7201 18.2874
39.9099 18.0648
40.0999 17.8235
40.2899 17.535
40.48 17.3383
40.6703 17.1421
40.8607 16.9021
41.0512 16.739
41.242 16.4614
41.4327 16.2908
41.6236 16.0329
41.8146 15.8479
42.0057 15.6018
42.1969 15.3896
42.3882 15.2728
42.5797 15.0319
42.7713 14.8175
42.963 14.6265
43.1549 14.4158
43.3468 14.1668
43.5389 14.032
43.7312 13.782
43.9237 13.6391
44.1162 13.4659
44.3088 13.2907
44.5016 13.0335
44.6945 12.8679
44.8875 12.7212
45.0806 12.5359
45.2739 12.339
45.4673 12.2081
45.6609 12.021
45.8546 11.839
46.0484 11.7006
46.2424 11.5024
46.4365 11.3286
46.631 11.1451
46.8254 11.0334
47.0199 10.8648
47.2146 10.6997
47.4095 10.5061
47.6044 10.3759
47.7996 10.1969
47.9948 10.0564
48.1902 9.93739
48.3858 9.7998
48.5815 9.64639
48.7774 9.50423
48.9734 9.38239
49.1696 9.20727
49.3661 9.07473
49.5626 8.92215
49.7592 8.84664
49.956 8.6684
50.153 8.54273
50.3501 8.41394
50.5474 8.25873
50.7448 8.18085
50.9424 8.02793
51.1402 7.92522
51.3381 7.75826
51.5362 7.65321
51.7344 7.52276
51.9328 7.3801
52.1316 7.24125
52.3304 7.15688
52.5293 7.03761
52.7284 6.91953
52.9276 6.82943
53.1271 6.7304
53.3267 6.56323
53.5265 6.45618
53.7264 6.34567
53.9266 6.27454
54.1269 6.14331
54.3274 6.06721
54.528 5.89066
54.7289 5.69046
54.9301 5.56062
55.1314 5.37898
55.3328 5.19515
55.5344 5.00048
55.7361 4.89714