File: XRD/Ni3Fe_FD1011.xy
TT I
1.27165 6.95256
1.45013 5.64505
1.62863 5.13203
1.80712 4.37208
1.98562 4.58845
2.16411 4.48123
2.34263 6.375
2.52115 6.8567
2.69965 9.15035
2.87818 9.32284
3.05672 11.2708
3.23527 15.063
3.4138 18.0687
3.59237 21.2838
3.77094 24.4755
3.9495 28.2451
4.12809 32.3186
4.30669 80.51
4.4853 48.2261
4.6639 51.884
4.84253 63.0356
5.02118 81.1647
5.19981 219.707
5.37848 258.127
5.55716 95.9298
5.73586 85.6405
5.91455 86.0812
6.09328 4307.06
6.27201 75.5218
6.45075 62.4926
6.62952 57.1505
6.8083 54.1714
6.98711 52.1044
7.16591 51.3972
7.34475 61.692
7.5236 64.2186
7.70247 52.6276
7.88135 53.9036
8.06026 57.8927
8.23919 64.4592
8.41812 76.2169
8.59709 1005.82
8.77609 93.9312
8.9551 81.8357
9.13412 78.185
9.31318 99.8522
9.49226 79.7145
9.67134 85.9379
9.85047 91.4711
10.0296 276.961
10.2088 471.329
10.388 95.9987
10.5672 502.241
10.7465 88.5963
10.9257 72.3428
11.105 67.0745
11.2844 63.9532
11.4637 60.8184
11.6431 59.6295
11.8225 58.9469
12.002 70.9668
12.1814 138.944
12.3609 64.3408
12.5405 60.3802
12.72 63.3938
12.8996 66.2129
13.0792 75.3947
13.2589 208.326
13.4386 127.64
13.6183 222.038
13.7981 100.268
13.9779 72.3035
14.1577 79.5444
14.3376 66.5318
14.5175 64.9786
14.6974 66.177
14.8774 99.7821
15.0574 161.985
15.2374 65.7296
15.4175 62.8739
15.5976 61.9465
15.7778 85.9105
15.958 172.392
16.1382 60.2764
16.3185 54.8469
16.4988 52.2151
16.6792 51.3814
16.8596 52.0991
17.04 52.9406
17.2205 62.3213
17.401 70.75
17.5815 56.2031
17.7622 59.2456
17.9428 68.7882
18.1237 140.619
18.3044 86.1305
18.4852 78.3688
18.666 58.1529
18.8469 55.3333
19.0278 54.0456
19.2088 56.1045
19.3898 76.0409
19.5709 52.1127
19.752 50.7097
19.9332 53.1684
20.1144 68.9122
20.2957 62.0867
20.477 52.1451
20.6586 47.5341
20.84 47.3724
21.0215 46.4037
21.203 48.5659
21.3846 47.037
21.5662 46.5473
21.7479 50.0324
21.9297 64.3219
22.1115 55.2403
22.2933 48.2197
22.4753 46.4947
22.6572 46.6053
22.8393 49.9126
23.0214 56.8034
23.2037 46.8558
23.3859 48.0947
23.5682 56.1926
23.7505 47.6074
23.9329 43.547
24.1154 42.4961
24.2979 41.7182
24.4805 41.1167
24.6631 41.4956
24.8458 40.5305
25.0286 41.2463
25.2114 43.3409
25.3943 43.6791
25.5773 39.4846
25.7605 38.8825
25.9436 39.1626
26.1268 40.5094
26.31 38.4843
26.4933 39.2099
26.6767 41.3098
26.8601 39.4733
27.0437 37.6638
27.2272 37.2376
27.4109 37.1603
27.5946 37.2407
27.7784 36.6362
27.9623 37.2732
28.1462 38.1188
28.3304 36.2705
28.5145 34.7724
28.6987 34.4958
28.8829 34.3104
29.0673 33.4335
29.2517 33.1891
29.4361 33.0599
29.6207 32.0627
29.8053 31.673
29.99 31.3484
30.1748 31.3163
30.3597 31.1511
30.5447 31.0543
30.7297 31.1489
30.915 30.6266
31.1002 30.1793
31.2855 29.8617
31.4708 29.9358
31.6563 29.4473
31.8418 29.1592
32.0275 29.0201
32.2132 28.4612
32.399 27.9577
32.5848 27.5201
32.7708 27.2026
32.9569 27.0969
33.143 26.8657
33.3293 26.5904
33.5158 26.2236
33.7022 25.7329
33.8887 25.4292
34.0753 25.204
34.262 24.8617
34.4488 24.4646
34.6357 24.1363
34.8227 23.8901
35.0098 23.694
35.1969 23.4969
35.3842 23.2498
35.5716 23.108
35.759 22.7949
35.9468 22.3519
36.1345 22.2729
36.3222 22.031
36.5101 21.6826
36.6981 21.4753
36.8861 21.1764
37.0743 20.8005
37.2626 20.591
37.451 20.3339
37.6395 20.1647
37.8281 19.8434
38.0168 19.569
38.2056 19.3749
38.3945 19.0815
38.5837 18.8623
38.7728 18.595
38.9621 18.3438
39.1514 18.0956
39.3409 17.8828
39.5304 17.6899
39.7201 17.4203
39.9099 17.2816
40.0999 17.0528
40.2899 16.7971
40.48 16.5873
40.6703 16.3425
40.8607 16.1748
41.0512 15.9517
41.242 15.6918
41.4327 15.5557
41.6236 15.3721
41.8146 15.1642
42.0057 14.9313
42.1969 14.7591
42.3882 14.6128
42.5797 14.3976
42.7713 14.1587
42.963 13.9662
43.1549 13.8046
43.3468 13.5581
43.5389 13.3746
43.7312 13.2019
43.9237 13.0499
44.1162 12.8322
44.3088 12.6525
44.5016 12.4925
44.6945 12.3499
44.8875 12.1738
45.0806 11.9768
45.2739 11.83
45.4673 11.6591
45.6609 11.4787
45.8546 11.4091
46.0484 11.1342
46.2424 11.004
46.4365 10.8805
46.631 10.6801
46.8254 10.5388
47.0199 10.3609
47.2146 10.1903
47.4095 10.0651
47.6044 9.89626
47.7996 9.77261
47.9948 9.60079
48.1902 9.48152
48.3858 9.34449
48.5815 9.24315
48.7774 9.08776
48.9734 8.95016
49.1696 8.8151
49.3661 8.67361
49.5626 8.56125
49.7592 8.40947
49.956 8.32448
50.153 8.17354
50.3501 8.05618
50.5474 7.92627
50.7448 7.80067
50.9424 7.67449
51.1402 7.52665
51.3381 7.44376
51.5362 7.31036
51.7344 7.17651
51.9328 7.05861
52.1316 6.97048
52.3304 6.84041
52.5293 6.70769
52.7284 6.66342
52.9276 6.51626
53.1271 6.41205
53.3267 6.30845
53.5265 6.14902
53.7264 6.11674
53.9266 6.01331
54.1269 5.83385
54.3274 5.7641
54.528 5.58811
54.7289 5.4431
54.9301 5.31729
55.1314 5.15956
55.3328 4.97723
55.5344 4.84248
55.7361 4.6589