File: XRD/Ni3Fe_FD0278.xy
TT I
1.27165 8.27713
1.45013 6.48277
1.62863 5.29062
1.80712 5.56285
1.98562 5.15502
2.16411 4.86721
2.34263 5.51983
2.52115 5.98693
2.69965 6.58097
2.87818 7.85808
3.05672 11.0899
3.23527 14.9762
3.4138 19.0408
3.59237 24.4178
3.77094 26.5284
3.9495 30.43
4.12809 35.649
4.30669 231.308
4.4853 67.6485
4.6639 57.8509
4.84253 69.9412
5.02118 92.0166
5.19981 517.823
5.37848 269.187
5.55716 108.527
5.73586 96.9418
5.91455 102.16
6.09328 3675.45
6.27201 89.865
6.45075 70.4493
6.62952 65.1853
6.8083 61.1821
6.98711 57.7538
7.16591 57.6564
7.34475 97.6417
7.5236 56.3862
7.70247 58.3514
7.88135 60.2564
8.06026 65.3981
8.23919 72.4695
8.41812 89.8285
8.59709 1056.68
8.77609 109.397
8.9551 96.0067
9.13412 85.6386
9.31318 86.0706
9.49226 87.8993
9.67134 102.831
9.85047 104.284
10.0296 410.548
10.2088 595.551
10.388 110.591
10.5672 454.796
10.7465 91.4835
10.9257 81.4039
11.105 75.0335
11.2844 73.2666
11.4637 67.4417
11.6431 66.2213
11.8225 64.9547
12.002 66.5637
12.1814 140.524
12.3609 75.9149
12.5405 67.077
12.72 72.9772
12.8996 73.8092
13.0792 82.2565
13.2589 220.811
13.4386 152.021
13.6183 222.553
13.7981 114.632
13.9779 79.008
14.1577 75.492
14.3376 74.5227
14.5175 71.558
14.6974 73.0873
14.8774 113.005
15.0574 174.605
15.2374 74.1319
15.4175 69.0639
15.5976 68.5188
15.7778 98.1644
15.958 177.889
16.1382 65.8021
16.3185 61.1306
16.4988 57.7438
16.6792 56.7517
16.8596 57.4726
17.04 58.1526
17.2205 67.7546
17.401 77.9648
17.5815 61.8509
17.7622 63.8376
17.9428 78.8417
18.1237 136.717
18.3044 90.0011
18.4852 86.3482
18.666 63.3172
18.8469 60.292
19.0278 59.4237
19.2088 62.3309
19.3898 77.6487
19.5709 56.9214
19.752 55.5004
19.9332 58.786
20.1144 71.4784
20.2957 64.8825
20.477 57.4246
20.6586 51.9122
20.84 50.8396
21.0215 50.8254
21.203 52.5262
21.3846 51.3932
21.5662 50.7813
21.7479 54.5657
21.9297 66.3858
22.1115 57.6798
22.2933 52.3791
22.4753 50.9338
22.6572 50.8993
22.8393 53.6056
23.0214 60.0699
23.2037 50.879
23.3859 51.8945
23.5682 57.91
23.7505 51.3513
23.9329 47.1843
24.1154 46.0102
24.2979 45.2868
24.4805 44.4387
24.6631 44.5218
24.8458 44.0709
25.0286 44.4629
25.2114 46.1215
25.3943 46.6023
25.5773 42.6209
25.7605 42.0997
25.9436 42.3961
26.1268 43.3347
26.31 41.8499
26.4933 42.4294
26.6767 43.7507
26.8601 42.1578
27.0437 40.5384
27.2272 40.194
27.4109 39.8859
27.5946 39.8763
27.7784 39.5304
27.9623 39.765
28.1462 40.4231
28.3304 38.8547
28.5145 37.4143
28.6987 37.1711
28.8829 36.7322
29.0673 36.0336
29.2517 35.7174
29.4361 35.5102
29.6207 34.5934
29.8053 34.2408
29.99 33.949
30.1748 33.7004
30.3597 33.5394
30.5447 33.4603
30.7297 33.4085
30.915 33.0211
31.1002 32.4771
31.2855 32.1706
31.4708 32.0926
31.6563 31.6942
31.8418 31.3789
32.0275 31.1437
32.2132 30.6509
32.399 30.2352
32.5848 29.683
32.7708 29.3235
32.9569 29.1648
33.143 28.8823
33.3293 28.5476
33.5158 28.0986
33.7022 27.7739
33.8887 27.4467
34.0753 27.0929
34.262 26.727
34.4488 26.3165
34.6357 25.9764
34.8227 25.7482
35.0098 25.4876
35.1969 25.1825
35.3842 24.9642
35.5716 24.7619
35.759 24.3953
35.9468 24.105
36.1345 23.8045
36.3222 23.6308
36.5101 23.3389
36.6981 23.0733
36.8861 22.7433
37.0743 22.3781
37.2626 22.1689
37.451 21.8544
37.6395 21.6439
37.8281 21.3407
38.0168 21.0462
38.2056 20.7836
38.3945 20.4832
38.5837 20.2607
38.7728 20.0375
38.9621 19.7119
39.1514 19.503
39.3409 19.2117
39.5304 19.0359
39.7201 18.8065
39.9099 18.6243
40.0999 18.2845
40.2899 18.0793
40.48 17.7863
40.6703 17.5966
40.8607 17.4284
41.0512 17.1745
41.242 16.9822
41.4327 16.7601
41.6236 16.5149
41.8146 16.3259
42.0057 16.0478
42.1969 15.8945
42.3882 15.6762
42.5797 15.4321
42.7713 15.2726
42.963 15.02
43.1549 14.8301
43.3468 14.5787
43.5389 14.4355
43.7312 14.1305
43.9237 14.0305
44.1162 13.7403
44.3088 13.599
44.5016 13.4047
44.6945 13.2504
44.8875 13.0779
45.0806 12.8079
45.2739 12.6625
45.4673 12.5044
45.6609 12.3019
45.8546 12.2003
46.0484 11.9728
46.2424 11.8306
46.4365 11.6627
46.631 11.4329
46.8254 11.2807
47.0199 11.1643
47.2146 10.9985
47.4095 10.8005
47.6044 10.6392
47.7996 10.4571
47.9948 10.3452
48.1902 10.1858
48.3858 10.0342
48.5815 9.89269
48.7774 9.7633
48.9734 9.60093
49.1696 9.43653
49.3661 9.35084
49.5626 9.189
49.7592 9.07805
49.956 8.90679
50.153 8.76482
50.3501 8.63033
50.5474 8.53235
50.7448 8.36205
50.9424 8.27344
51.1402 8.12914
51.3381 7.96898
51.5362 7.85726
51.7344 7.70939
51.9328 7.5956
52.1316 7.47362
52.3304 7.37394
52.5293 7.23502
52.7284 7.11551
52.9276 6.96599
53.1271 6.88502
53.3267 6.75615
53.5265 6.63615
53.7264 6.49622
53.9266 6.41582
54.1269 6.30637
54.3274 6.20048
54.528 6.02412
54.7289 5.86672
54.9301 5.70851
55.1314 5.58498
55.3328 5.28908
55.5344 5.14498
55.7361 5.01309