File: XRD/Ni3Fe_FD0539.xy
TT I
1.27165 7.28968
1.45013 6.59328
1.62863 5.19934
1.80712 4.93413
1.98562 5.47101
2.16411 5.12619
2.34263 5.50381
2.52115 6.72992
2.69965 8.00874
2.87818 8.90759
3.05672 11.1262
3.23527 15.3342
3.4138 19.5472
3.59237 24.5289
3.77094 26.9122
3.9495 29.9932
4.12809 35.9777
4.30669 294.422
4.4853 73.8105
4.6639 56.04
4.84253 67.1462
5.02118 87.2541
5.19981 370.184
5.37848 208.187
5.55716 103.563
5.73586 93.0891
5.91455 94.665
6.09328 4065.83
6.27201 85.8234
6.45075 68.1155
6.62952 64.1667
6.8083 59.6982
6.98711 56.9475
7.16591 56.3975
7.34475 108.039
7.5236 56.1752
7.70247 57.0541
7.88135 58.4183
8.06026 63.3686
8.23919 70.2078
8.41812 86.3889
8.59709 1085.51
8.77609 102.223
8.9551 95.1188
9.13412 82.7459
9.31318 83.1133
9.49226 85.2024
9.67134 103.257
9.85047 100.575
10.0296 328.851
10.2088 470.112
10.388 106.593
10.5672 496.269
10.7465 88.058
10.9257 79.8355
11.105 72.9651
11.2844 72.6835
11.4637 65.9031
11.6431 64.3048
11.8225 63.1861
12.002 64.276
12.1814 146.703
12.3609 73.9995
12.5405 65.5147
12.72 72.0631
12.8996 71.8725
13.0792 79.5219
13.2589 224.225
13.4386 133.299
13.6183 230.182
13.7981 103.987
13.9779 76.6779
14.1577 73.339
14.3376 73.2223
14.5175 69.6794
14.6974 71.3446
14.8774 107.806
15.0574 162.61
15.2374 72.8662
15.4175 67.0319
15.5976 66.3234
15.7778 93.3843
15.958 166.901
16.1382 64.3854
16.3185 59.8012
16.4988 56.447
16.6792 55.2674
16.8596 56.0629
17.04 56.3256
17.2205 66.3443
17.401 74.1039
17.5815 59.8536
17.7622 62.0383
17.9428 73.8615
18.1237 137.636
18.3044 89.2958
18.4852 81.4642
18.666 61.2788
18.8469 58.8306
19.0278 57.8064
19.2088 60.2133
19.3898 77.2485
19.5709 54.8414
19.752 53.9662
19.9332 56.7627
20.1144 70.2593
20.2957 63.5462
20.477 55.099
20.6586 50.2838
20.84 49.3335
21.0215 49.06
21.203 51.2278
21.3846 49.6424
21.5662 49.0929
21.7479 52.7958
21.9297 65.178
22.1115 56.5805
22.2933 50.7282
22.4753 49.5635
22.6572 49.2178
22.8393 52.2445
23.0214 58.417
23.2037 49.277
23.3859 50.1318
23.5682 56.6617
23.7505 49.1512
23.9329 45.9009
24.1154 44.5607
24.2979 44.0532
24.4805 43.3646
24.6631 43.3877
24.8458 42.6781
25.0286 43.1601
25.2114 45.0022
25.3943 45.2649
25.5773 41.3044
25.7605 40.8774
25.9436 41.1268
26.1268 42.1701
26.31 40.5941
26.4933 41.1681
26.6767 42.5821
26.8601 41.1011
27.0437 39.2886
27.2272 38.973
27.4109 38.808
27.5946 38.8919
27.7784 38.3344
27.9623 38.7265
28.1462 39.2425
28.3304 37.7207
28.5145 36.3522
28.6987 36.0397
28.8829 35.7859
29.0673 35.081
29.2517 34.7484
29.4361 34.5953
29.6207 33.5504
29.8053 33.3285
29.99 32.936
30.1748 32.8794
30.3597 32.5964
30.5447 32.5838
30.7297 32.5809
30.915 31.99
31.1002 31.5357
31.2855 31.2959
31.4708 31.2194
31.6563 30.7641
31.8418 30.4129
32.0275 30.2589
32.2132 29.7092
32.399 29.3045
32.5848 28.7897
32.7708 28.4704
32.9569 28.3576
33.143 28.1172
33.3293 27.7241
33.5158 27.4052
33.7022 26.9173
33.8887 26.6635
34.0753 26.3417
34.262 25.988
34.4488 25.5757
34.6357 25.3199
34.8227 25.0819
35.0098 24.7704
35.1969 24.5586
35.3842 24.3636
35.5716 24.1385
35.759 23.7338
35.9468 23.4133
36.1345 23.1776
36.3222 23.0537
36.5101 22.7404
36.6981 22.409
36.8861 22.1116
37.0743 21.7709
37.2626 21.4928
37.451 21.1934
37.6395 20.9903
37.8281 20.7446
38.0168 20.4525
38.2056 20.2076
38.3945 19.9601
38.5837 19.6819
38.7728 19.5143
38.9621 19.2605
39.1514 18.9539
39.3409 18.7593
39.5304 18.4535
39.7201 18.3528
39.9099 18.0834
40.0999 17.8506
40.2899 17.6115
40.48 17.3429
40.6703 17.1922
40.8607 16.9235
41.0512 16.7539
41.242 16.4653
41.4327 16.2631
41.6236 16.0363
41.8146 15.8578
42.0057 15.6295
42.1969 15.4488
42.3882 15.2145
42.5797 15.0284
42.7713 14.8111
42.963 14.6212
43.1549 14.4155
43.3468 14.1876
43.5389 14.0134
43.7312 13.8481
43.9237 13.627
44.1162 13.4009
44.3088 13.2983
44.5016 13.029
44.6945 12.9078
44.8875 12.7557
45.0806 12.5599
45.2739 12.3488
45.4673 12.2104
45.6609 12.0532
45.8546 11.862
46.0484 11.6764
46.2424 11.4845
46.4365 11.3511
46.631 11.1783
46.8254 10.9666
47.0199 10.8702
47.2146 10.7209
47.4095 10.5712
47.6044 10.4039
47.7996 10.2503
47.9948 10.0906
48.1902 9.8958
48.3858 9.77697
48.5815 9.67333
48.7774 9.52974
48.9734 9.37834
49.1696 9.23853
49.3661 9.10555
49.5626 8.9709
49.7592 8.80619
49.956 8.69113
50.153 8.57257
50.3501 8.44932
50.5474 8.30939
50.7448 8.17749
50.9424 8.05149
51.1402 7.90891
51.3381 7.78096
51.5362 7.67478
51.7344 7.51769
51.9328 7.39576
52.1316 7.24757
52.3304 7.20103
52.5293 7.0365
52.7284 6.95702
52.9276 6.80866
53.1271 6.70656
53.3267 6.58233
53.5265 6.46587
53.7264 6.37452
53.9266 6.23798
54.1269 6.10668
54.3274 6.01863
54.528 5.89272
54.7289 5.71602
54.9301 5.5852
55.1314 5.45971
55.3328 5.21898
55.5344 5.03003
55.7361 4.87993