File: XRD/Ni3Fe_FD0589.xy
TT I
1.27165 7.87568
1.45013 6.75729
1.62863 5.88362
1.80712 4.99223
1.98562 4.52235
2.16411 4.73075
2.34263 4.56083
2.52115 7.14607
2.69965 7.88484
2.87818 8.35668
3.05672 10.9829
3.23527 14.6558
3.4138 18.5208
3.59237 22.9803
3.77094 25.985
3.9495 29.927
4.12809 34.8482
4.30669 112.482
4.4853 55.6998
4.6639 55.8419
4.84253 68.8883
5.02118 88.4933
5.19981 481.497
5.37848 202.677
5.55716 103.413
5.73586 94.1484
5.91455 97.8563
6.09328 4389.95
6.27201 82.2335
6.45075 69.5163
6.62952 62.8613
6.8083 59.5608
6.98711 55.7979
7.16591 56.3729
7.34475 70.2638
7.5236 54.8522
7.70247 56.8064
7.88135 57.9307
8.06026 62.8711
8.23919 70.1676
8.41812 85.1293
8.59709 1261.83
8.77609 99.9249
8.9551 89.9586
9.13412 83.4806
9.31318 84.9438
9.49226 85.7328
9.67134 95.7206
9.85047 102.004
10.0296 382.983
10.2088 369.22
10.388 107.218
10.5672 517.215
10.7465 86.6437
10.9257 78.451
11.105 72.0977
11.2844 69.1049
11.4637 64.9964
11.6431 63.8882
11.8225 63.1891
12.002 65.3912
12.1814 156.666
12.3609 67.5486
12.5405 65.1174
12.72 68.5444
12.8996 71.9789
13.0792 81.6859
13.2589 253.805
13.4386 121.569
13.6183 255.459
13.7981 96.6105
13.9779 76.5112
14.1577 72.58
14.3376 70.8458
14.5175 69.5148
14.6974 71.5597
14.8774 116.601
15.0574 143.299
15.2374 70.0381
15.4175 67.0049
15.5976 66.8912
15.7778 99.2863
15.958 149.298
16.1382 61.8645
16.3185 58.2329
16.4988 55.8094
16.6792 54.8875
16.8596 55.221
17.04 56.7077
17.2205 67.9692
17.401 70.9188
17.5815 59.7231
17.7622 62.1489
17.9428 75.8782
18.1237 141.681
18.3044 92.4253
18.4852 76.667
18.666 60.8777
18.8469 58.5736
19.0278 57.3871
19.2088 60.0956
19.3898 75.9521
19.5709 54.6279
19.752 53.763
19.9332 57.0098
20.1144 70.2263
20.2957 64.3329
20.477 53.4168
20.6586 49.9971
20.84 49.1234
21.0215 48.9327
21.203 51.1904
21.3846 49.1264
21.5662 49.3774
21.7479 53.4422
21.9297 65.088
22.1115 56.3826
22.2933 50.1082
22.4753 49.0721
22.6572 49.3285
22.8393 52.6234
23.0214 57.3413
23.2037 49.0959
23.3859 50.2077
23.5682 57.2818
23.7505 48.3079
23.9329 45.5706
24.1154 44.4534
24.2979 43.7825
24.4805 43.0376
24.6631 43.1881
24.8458 42.5691
25.0286 43.1795
25.2114 45.1561
25.3943 44.6893
25.5773 41.1364
25.7605 40.7447
25.9436 41.2137
26.1268 41.9377
26.31 40.4979
26.4933 41.1089
26.6767 42.4759
26.8601 40.6228
27.0437 39.1053
27.2272 38.8311
27.4109 38.6318
27.5946 38.6019
27.7784 38.1365
27.9623 38.7657
28.1462 38.95
28.3304 37.2866
28.5145 36.2239
28.6987 35.8965
28.8829 35.6267
29.0673 34.8399
29.2517 34.5648
29.4361 34.3567
29.6207 33.3538
29.8053 33.1206
29.99 32.8322
30.1748 32.6694
30.3597 32.3957
30.5447 32.3491
30.7297 32.3888
30.915 31.8023
31.1002 31.3229
31.2855 30.9921
31.4708 31.0178
31.6563 30.5067
31.8418 30.3713
32.0275 30.1063
32.2132 29.5859
32.399 29.1143
32.5848 28.6976
32.7708 28.2862
32.9569 28.1569
33.143 27.988
33.3293 27.6404
33.5158 27.2085
33.7022 26.6987
33.8887 26.4208
34.0753 26.1357
34.262 25.8015
34.4488 25.4206
34.6357 25.1025
34.8227 24.8528
35.0098 24.616
35.1969 24.3186
35.3842 24.1447
35.5716 23.8574
35.759 23.6341
35.9468 23.3144
36.1345 22.9795
36.3222 22.8019
36.5101 22.5585
36.6981 22.2269
36.8861 21.963
37.0743 21.5858
37.2626 21.3705
37.451 21.0985
37.6395 20.9874
37.8281 20.5951
38.0168 20.3564
38.2056 20.0663
38.3945 19.7552
38.5837 19.5842
38.7728 19.3628
38.9621 19.0371
39.1514 18.8176
39.3409 18.5673
39.5304 18.3352
39.7201 18.1703
39.9099 17.9329
40.0999 17.684
40.2899 17.4642
40.48 17.2014
40.6703 16.9943
40.8607 16.8941
41.0512 16.5742
41.242 16.3728
41.4327 16.1645
41.6236 15.9146
41.8146 15.7403
42.0057 15.4991
42.1969 15.3107
42.3882 15.1776
42.5797 14.8691
42.7713 14.6958
42.963 14.485
43.1549 14.3085
43.3468 14.0515
43.5389 13.9221
43.7312 13.7292
43.9237 13.54
44.1162 13.2976
44.3088 13.1676
44.5016 12.9758
44.6945 12.822
44.8875 12.5913
45.0806 12.4573
45.2739 12.2528
45.4673 12.1224
45.6609 11.9039
45.8546 11.7418
46.0484 11.5967
46.2424 11.4328
46.4365 11.2843
46.631 11.0638
46.8254 10.9129
47.0199 10.754
47.2146 10.611
47.4095 10.4529
47.6044 10.2743
47.7996 10.1547
47.9948 9.9747
48.1902 9.87806
48.3858 9.7155
48.5815 9.58072
48.7774 9.44863
48.9734 9.33931
49.1696 9.13226
49.3661 9.00908
49.5626 8.87398
49.7592 8.75543
49.956 8.58826
50.153 8.49877
50.3501 8.33358
50.5474 8.21363
50.7448 8.09052
50.9424 7.94735
51.1402 7.86896
51.3381 7.6831
51.5362 7.57723
51.7344 7.46839
51.9328 7.33484
52.1316 7.21199
52.3304 7.11059
52.5293 6.94527
52.7284 6.86877
52.9276 6.78118
53.1271 6.69146
53.3267 6.56961
53.5265 6.42442
53.7264 6.30907
53.9266 6.21761
54.1269 6.10501
54.3274 5.99041
54.528 5.86128
54.7289 5.67251
54.9301 5.54245
55.1314 5.38917
55.3328 5.15617
55.5344 4.94895
55.7361 4.84805