File: XRD/Ni3Fe_FD0680.xy
TT I
1.27165 7.34075
1.45013 5.90053
1.62863 5.32556
1.80712 4.5613
1.98562 4.56022
2.16411 5.10579
2.34263 5.09788
2.52115 6.60388
2.69965 8.21365
2.87818 8.47423
3.05672 11.3383
3.23527 14.8351
3.4138 18.9101
3.59237 23.0582
3.77094 25.8662
3.9495 30.0305
4.12809 34.2533
4.30669 143.555
4.4853 57.6978
4.6639 55.2986
4.84253 67.8702
5.02118 87.8187
5.19981 406.993
5.37848 185.723
5.55716 102.021
5.73586 92.4228
5.91455 95.1548
6.09328 4513.21
6.27201 81.6241
6.45075 67.458
6.62952 62.5569
6.8083 58.4852
6.98711 55.6604
7.16591 55.4128
7.34475 76.5673
7.5236 54.507
7.70247 56.149
7.88135 57.7846
8.06026 62.0572
8.23919 69.2914
8.41812 84.5263
8.59709 1222.45
8.77609 98.469
8.9551 89.761
9.13412 82.0694
9.31318 83.3094
9.49226 84.6731
9.67134 96.3121
9.85047 100.369
10.0296 366.592
10.2088 361.36
10.388 104.813
10.5672 511.134
10.7465 86.2067
10.9257 77.7093
11.105 71.3206
11.2844 69.3998
11.4637 64.8315
11.6431 63.3414
11.8225 62.5778
12.002 63.8759
12.1814 155.688
12.3609 68.0611
12.5405 64.4128
12.72 68.6466
12.8996 71.1761
13.0792 79.8869
13.2589 249.632
13.4386 120.246
13.6183 254.937
13.7981 93.4105
13.9779 75.4421
14.1577 71.9593
14.3376 70.7258
14.5175 69.1056
14.6974 70.2681
14.8774 113.187
15.0574 140.494
15.2374 70.0152
15.4175 66.3087
15.5976 65.8616
15.7778 96.5518
15.958 150.122
16.1382 61.8913
16.3185 57.9779
16.4988 55.3192
16.6792 54.4466
16.8596 55.0272
17.04 55.9739
17.2205 67.295
17.401 69.756
17.5815 59.0753
17.7622 61.1764
17.9428 74.4939
18.1237 142.723
18.3044 91.3457
18.4852 75.4184
18.666 60.288
18.8469 57.7805
19.0278 56.4488
19.2088 59.3201
19.3898 76.248
19.5709 54.1096
19.752 53.2922
19.9332 56.3798
20.1144 69.9218
20.2957 64.3792
20.477 52.9863
20.6586 49.3587
20.84 48.7205
21.0215 48.625
21.203 50.8791
21.3846 48.897
21.5662 48.8777
21.7479 52.8001
21.9297 64.6908
22.1115 56.1725
22.2933 49.5491
22.4753 48.7848
22.6572 49.0528
22.8393 52.2986
23.0214 57.2236
23.2037 48.61
23.3859 49.7036
23.5682 57.409
23.7505 47.8255
23.9329 45.1907
24.1154 44.1403
24.2979 43.1722
24.4805 42.8615
24.6631 42.6792
24.8458 42.2236
25.0286 42.9711
25.2114 44.6515
25.3943 44.5026
25.5773 40.8475
25.7605 40.4604
25.9436 40.8762
26.1268 41.6475
26.31 39.9106
26.4933 40.7857
26.6767 42.1412
26.8601 40.3596
27.0437 38.6997
27.2272 38.4357
27.4109 38.408
27.5946 38.2506
27.7784 37.8187
27.9623 38.4013
28.1462 38.7464
28.3304 37.0877
28.5145 35.8753
28.6987 35.5674
28.8829 35.3463
29.0673 34.6034
29.2517 34.3669
29.4361 34.0773
29.6207 33.1276
29.8053 32.8088
29.99 32.5979
30.1748 32.4338
30.3597 32.26
30.5447 32.1479
30.7297 32.1067
30.915 31.5906
31.1002 31.0972
31.2855 30.795
31.4708 30.7755
31.6563 30.3104
31.8418 30.1872
32.0275 29.8357
32.2132 29.2238
32.399 28.9244
32.5848 28.5064
32.7708 28.11
32.9569 28.0
33.143 27.7594
33.3293 27.3708
33.5158 26.8902
33.7022 26.5479
33.8887 26.2885
34.0753 25.9248
34.262 25.5625
34.4488 25.2564
34.6357 24.9253
34.8227 24.6743
35.0098 24.4182
35.1969 24.2567
35.3842 23.9562
35.5716 23.7541
35.759 23.4282
35.9468 23.0983
36.1345 22.8615
36.3222 22.6341
36.5101 22.4215
36.6981 22.0553
36.8861 21.7795
37.0743 21.4673
37.2626 21.2873
37.451 20.9506
37.6395 20.8067
37.8281 20.4822
38.0168 20.1745
38.2056 19.9427
38.3945 19.5831
38.5837 19.3788
38.7728 19.2634
38.9621 18.9108
39.1514 18.724
39.3409 18.4371
39.5304 18.2062
39.7201 18.0495
39.9099 17.8491
40.0999 17.5862
40.2899 17.3659
40.48 17.0864
40.6703 16.9095
40.8607 16.718
41.0512 16.477
41.242 16.2219
41.4327 15.9817
41.6236 15.8116
41.8146 15.6374
42.0057 15.3787
42.1969 15.22
42.3882 15.0583
42.5797 14.8087
42.7713 14.5829
42.963 14.4153
43.1549 14.2181
43.3468 13.9956
43.5389 13.7714
43.7312 13.6329
43.9237 13.4385
44.1162 13.2673
44.3088 13.0323
44.5016 12.8616
44.6945 12.7303
44.8875 12.535
45.0806 12.351
45.2739 12.1855
45.4673 12.0388
45.6609 11.7968
45.8546 11.6917
46.0484 11.5242
46.2424 11.3599
46.4365 11.1668
46.631 11.017
46.8254 10.8247
47.0199 10.6497
47.2146 10.5039
47.4095 10.3412
47.6044 10.235
47.7996 10.0674
47.9948 9.94525
48.1902 9.75528
48.3858 9.65968
48.5815 9.50799
48.7774 9.37058
48.9734 9.26862
49.1696 9.09115
49.3661 8.95185
49.5626 8.79763
49.7592 8.68261
49.956 8.57498
50.153 8.4211
50.3501 8.28908
50.5474 8.17013
50.7448 8.0247
50.9424 7.91987
51.1402 7.79582
51.3381 7.65923
51.5362 7.52773
51.7344 7.40992
51.9328 7.27787
52.1316 7.16602
52.3304 7.07176
52.5293 6.93276
52.7284 6.83193
52.9276 6.68025
53.1271 6.62421
53.3267 6.47433
53.5265 6.38166
53.7264 6.28269
53.9266 6.18484
54.1269 6.03182
54.3274 5.93249
54.528 5.77185
54.7289 5.6594
54.9301 5.47576
55.1314 5.31955
55.3328 5.11266
55.5344 4.97513
55.7361 4.84374