File: XRD/Ni3Fe_FD0217.xy
TT I
1.27165 7.77492
1.45013 6.48014
1.62863 5.81716
1.80712 5.63639
1.98562 5.33706
2.16411 4.46606
2.34263 4.39189
2.52115 4.96311
2.69965 6.28127
2.87818 7.84639
3.05672 10.8117
3.23527 15.2812
3.4138 19.0995
3.59237 22.2215
3.77094 25.9299
3.9495 30.3206
4.12809 35.0711
4.30669 40.9362
4.4853 48.8148
4.6639 58.6852
4.84253 72.0054
5.02118 97.3484
5.19981 900.117
5.37848 278.144
5.55716 112.993
5.73586 101.779
5.91455 111.293
6.09328 3591.37
6.27201 89.9204
6.45075 71.2046
6.62952 64.5482
6.8083 60.0865
6.98711 57.706
7.16591 56.6633
7.34475 56.1006
7.5236 56.768
7.70247 58.3788
7.88135 60.7385
8.06026 65.6638
8.23919 73.1416
8.41812 91.0132
8.59709 1059.55
8.77609 111.694
8.9551 91.0328
9.13412 87.3149
9.31318 88.3162
9.49226 89.953
9.67134 95.9918
9.85047 107.26
10.0296 524.961
10.2088 564.47
10.388 115.148
10.5672 436.894
10.7465 92.7965
10.9257 81.0612
11.105 75.2598
11.2844 71.1987
11.4637 67.9668
11.6431 66.7975
11.8225 65.7302
12.002 68.8303
12.1814 139.567
12.3609 70.648
12.5405 67.5216
12.72 70.0409
12.8996 75.3392
13.0792 86.5879
13.2589 227.462
13.4386 151.653
13.6183 223.889
13.7981 113.438
13.9779 80.2833
14.1577 75.5894
14.3376 73.2731
14.5175 72.8268
14.6974 74.9034
14.8774 119.584
15.0574 173.262
15.2374 72.8273
15.4175 70.2132
15.5976 69.8389
15.7778 103.695
15.958 178.141
16.1382 64.1559
16.3185 60.4463
16.4988 58.4055
16.6792 57.0535
16.8596 57.4305
17.04 59.3672
17.2205 68.8801
17.401 77.6858
17.5815 62.3968
17.7622 64.8046
17.9428 83.0559
18.1237 138.092
18.3044 90.1461
18.4852 84.5409
18.666 63.5872
18.8469 61.0683
19.0278 59.9475
19.2088 63.1443
19.3898 76.3779
19.5709 57.3784
19.752 56.0875
19.9332 59.8881
20.1144 72.5074
20.2957 64.5312
20.477 56.7841
20.6586 52.1657
20.84 51.4321
21.0215 51.235
21.203 52.6737
21.3846 51.7805
21.5662 51.805
21.7479 55.6262
21.9297 66.5861
22.1115 57.7774
22.2933 52.7701
22.4753 51.1467
22.6572 51.9679
22.8393 54.4472
23.0214 60.1193
23.2037 51.4356
23.3859 52.8081
23.5682 57.5495
23.7505 51.4095
23.9329 47.4971
24.1154 46.1145
24.2979 45.6704
24.4805 45.197
24.6631 44.8658
24.8458 44.6042
25.0286 45.2185
25.2114 46.6743
25.3943 46.8053
25.5773 43.1646
25.7605 42.5775
25.9436 42.7166
26.1268 43.553
26.31 42.2218
26.4933 42.6322
26.6767 43.978
26.8601 42.4489
27.0437 41.0158
27.2272 40.4293
27.4109 40.3069
27.5946 40.3361
27.7784 39.902
27.9623 40.0393
28.1462 40.5487
28.3304 39.1687
28.5145 37.6972
28.6987 37.2409
28.8829 36.9212
29.0673 36.3403
29.2517 36.0102
29.4361 35.7229
29.6207 34.8307
29.8053 34.5719
29.99 34.1177
30.1748 33.955
30.3597 33.8094
30.5447 33.6819
30.7297 33.7701
30.915 33.181
31.1002 32.682
31.2855 32.4612
31.4708 32.2787
31.6563 31.9032
31.8418 31.4699
32.0275 31.3401
32.2132 30.8534
32.399 30.3727
32.5848 29.932
32.7708 29.4964
32.9569 29.4385
33.143 29.0895
33.3293 28.624
33.5158 28.3322
33.7022 27.8876
33.8887 27.5285
34.0753 27.2888
34.262 26.8505
34.4488 26.503
34.6357 26.1715
34.8227 25.836
35.0098 25.7276
35.1969 25.3673
35.3842 25.0827
35.5716 24.9221
35.759 24.5697
35.9468 24.2284
36.1345 23.999
36.3222 23.8139
36.5101 23.5152
36.6981 23.132
36.8861 22.8448
37.0743 22.5446
37.2626 22.3069
37.451 22.0369
37.6395 21.8118
37.8281 21.4804
38.0168 21.1611
38.2056 20.9085
38.3945 20.6147
38.5837 20.4146
38.7728 20.144
38.9621 19.8932
39.1514 19.5997
39.3409 19.3474
39.5304 19.0504
39.7201 18.9387
39.9099 18.6292
40.0999 18.4677
40.2899 18.1538
40.48 17.8983
40.6703 17.7111
40.8607 17.5368
41.0512 17.2638
41.242 17.0524
41.4327 16.7978
41.6236 16.5772
41.8146 16.3818
42.0057 16.2082
42.1969 15.9206
42.3882 15.7819
42.5797 15.4769
42.7713 15.3429
42.963 15.0832
43.1549 14.9671
43.3468 14.6752
43.5389 14.4703
43.7312 14.2455
43.9237 14.1178
44.1162 13.9087
44.3088 13.735
44.5016 13.5049
44.6945 13.3336
44.8875 13.1101
45.0806 12.9409
45.2739 12.7893
45.4673 12.5768
45.6609 12.3931
45.8546 12.2418
46.0484 12.0591
46.2424 11.9097
46.4365 11.7439
46.631 11.5397
46.8254 11.3339
47.0199 11.2128
47.2146 11.0714
47.4095 10.8575
47.6044 10.6655
47.7996 10.5291
47.9948 10.4121
48.1902 10.254
48.3858 10.0867
48.5815 9.9184
48.7774 9.80088
48.9734 9.6509
49.1696 9.52937
49.3661 9.3716
49.5626 9.22172
49.7592 9.09116
49.956 8.94816
50.153 8.80737
50.3501 8.68177
50.5474 8.5371
50.7448 8.43361
50.9424 8.2847
51.1402 8.20911
51.3381 8.04071
51.5362 7.89206
51.7344 7.73892
51.9328 7.62858
52.1316 7.488
52.3304 7.35506
52.5293 7.2666
52.7284 7.16899
52.9276 7.0253
53.1271 6.94558
53.3267 6.77759
53.5265 6.68785
53.7264 6.60601
53.9266 6.44198
54.1269 6.30885
54.3274 6.22337
54.528 5.99689
54.7289 5.86588
54.9301 5.66923
55.1314 5.55042
55.3328 5.3131
55.5344 5.14355
55.7361 4.97981