File: XRD/Ni3Fe_FD1004.xy
TT I
1.27165 6.77352
1.45013 6.09475
1.62863 4.81302
1.80712 4.60163
1.98562 4.44744
2.16411 4.87855
2.34263 5.31575
2.52115 8.03476
2.69965 9.12361
2.87818 9.13694
3.05672 10.6403
3.23527 14.8958
3.4138 18.6536
3.59237 24.0133
3.77094 25.8221
3.9495 29.7891
4.12809 34.3418
4.30669 276.646
4.4853 70.2252
4.6639 53.9347
4.84253 65.0034
5.02118 83.0049
5.19981 262.646
5.37848 173.233
5.55716 98.7572
5.73586 88.695
5.91455 89.0083
6.09328 4506.25
6.27201 80.8845
6.45075 65.7578
6.62952 61.2316
6.8083 58.0311
6.98711 54.6048
7.16591 54.4651
7.34475 105.534
7.5236 53.8538
7.70247 54.978
7.88135 56.6262
8.06026 60.3869
8.23919 67.5517
8.41812 82.273
8.59709 1040.09
8.77609 96.0234
8.9551 91.1222
9.13412 79.3426
9.31318 79.9629
9.49226 82.0358
9.67134 98.3294
9.85047 95.8898
10.0296 270.521
10.2088 387.035
10.388 102.06
10.5672 514.468
10.7465 83.7385
10.9257 76.7705
11.105 70.0249
11.2844 69.7053
11.4637 63.3686
11.6431 62.3222
11.8225 60.686
12.002 61.5962
12.1814 146.341
12.3609 70.5879
12.5405 63.0214
12.72 69.6976
12.8996 68.7669
13.0792 76.0148
13.2589 216.875
13.4386 122.044
13.6183 231.73
13.7981 95.7808
13.9779 73.6191
14.1577 70.9001
14.3376 70.4659
14.5175 66.8859
14.6974 68.4195
14.8774 101.056
15.0574 153.182
15.2374 69.7785
15.4175 64.752
15.5976 63.9265
15.7778 87.0233
15.958 159.643
16.1382 61.7934
16.3185 57.5597
16.4988 54.2479
16.6792 53.158
16.8596 54.0237
17.04 54.2619
17.2205 63.8373
17.401 69.6966
17.5815 57.6249
17.7622 59.6402
17.9428 69.3583
18.1237 139.651
18.3044 87.0228
18.4852 76.6045
18.666 58.9369
18.8469 56.5806
19.0278 55.4633
19.2088 57.564
19.3898 75.9738
19.5709 52.8914
19.752 51.889
19.9332 54.3295
20.1144 69.0626
20.2957 62.8782
20.477 52.6431
20.6586 48.4831
20.84 47.7217
21.0215 47.3942
21.203 49.758
21.3846 47.73
21.5662 47.4784
21.7479 50.7749
21.9297 63.8319
22.1115 55.0947
22.2933 48.7788
22.4753 47.8639
22.6572 47.4767
22.8393 50.1918
23.0214 56.7456
23.2037 47.6437
23.3859 48.3112
23.5682 56.0601
23.7505 47.5059
23.9329 44.134
24.1154 43.0696
24.2979 42.4893
24.4805 41.9045
24.6631 41.9167
24.8458 41.1337
25.0286 41.7988
25.2114 43.755
25.3943 43.7298
25.5773 39.9136
25.7605 39.4696
25.9436 39.7998
26.1268 40.9576
26.31 39.1728
26.4933 39.8699
26.6767 41.4274
26.8601 39.6561
27.0437 38.1449
27.2272 37.6632
27.4109 37.5212
27.5946 37.5833
27.7784 36.9045
27.9623 37.5807
28.1462 38.1606
28.3304 36.4062
28.5145 35.112
28.6987 34.9201
28.8829 34.6575
29.0673 33.9011
29.2517 33.6322
29.4361 33.4512
29.6207 32.4763
29.8053 32.1807
29.99 31.7582
30.1748 31.8343
30.3597 31.6191
30.5447 31.5096
30.7297 31.5824
30.915 31.0712
31.1002 30.3831
31.2855 30.1912
31.4708 30.2092
31.6563 29.7278
31.8418 29.5093
32.0275 29.3183
32.2132 28.738
32.399 28.3134
32.5848 27.866
32.7708 27.5248
32.9569 27.492
33.143 27.3451
33.3293 26.8402
33.5158 26.4197
33.7022 26.0972
33.8887 25.7706
34.0753 25.4304
34.262 25.223
34.4488 24.7629
34.6357 24.4118
34.8227 24.1969
35.0098 24.0091
35.1969 23.6688
35.3842 23.4826
35.5716 23.3245
35.759 22.9046
35.9468 22.6538
36.1345 22.4264
36.3222 22.1708
36.5101 21.9511
36.6981 21.6491
36.8861 21.3998
37.0743 21.0691
37.2626 20.8354
37.451 20.5363
37.6395 20.4157
37.8281 20.0472
38.0168 19.7865
38.2056 19.6062
38.3945 19.3259
38.5837 19.0482
38.7728 18.8311
38.9621 18.6143
39.1514 18.3211
39.3409 18.1148
39.5304 17.8705
39.7201 17.7055
39.9099 17.4752
40.0999 17.2309
40.2899 17.0162
40.48 16.7855
40.6703 16.5712
40.8607 16.383
41.0512 16.1695
41.242 15.9385
41.4327 15.7688
41.6236 15.4886
41.8146 15.3467
42.0057 15.1196
42.1969 14.9143
42.3882 14.7269
42.5797 14.5275
42.7713 14.361
42.963 14.1607
43.1549 13.9914
43.3468 13.7451
43.5389 13.5418
43.7312 13.3562
43.9237 13.2097
44.1162 12.9981
44.3088 12.8982
44.5016 12.613
44.6945 12.4796
44.8875 12.2779
45.0806 12.1423
45.2739 11.9874
45.4673 11.8033
45.6609 11.6026
45.8546 11.4677
46.0484 11.318
46.2424 11.1516
46.4365 10.9815
46.631 10.8434
46.8254 10.6788
47.0199 10.5203
47.2146 10.3501
47.4095 10.1879
47.6044 10.0452
47.7996 9.87095
47.9948 9.75578
48.1902 9.64757
48.3858 9.4749
48.5815 9.36086
48.7774 9.20637
48.9734 9.08261
49.1696 8.89037
49.3661 8.80699
49.5626 8.6189
49.7592 8.52516
49.956 8.4101
50.153 8.28603
50.3501 8.15115
50.5474 8.04249
50.7448 7.93148
50.9424 7.8038
51.1402 7.66967
51.3381 7.52292
51.5362 7.393
51.7344 7.28942
51.9328 7.16172
52.1316 7.05742
52.3304 6.95213
52.5293 6.82264
52.7284 6.72861
52.9276 6.60597
53.1271 6.54012
53.3267 6.3836
53.5265 6.26689
53.7264 6.19891
53.9266 6.05981
54.1269 5.89367
54.3274 5.85446
54.528 5.70437
54.7289 5.5337
54.9301 5.37821
55.1314 5.20615
55.3328 5.06181
55.5344 4.8637
55.7361 4.69298