File: XRD/Ni3Fe_FD0439.xy
TT I
1.27165 7.27345
1.45013 6.14836
1.62863 5.40059
1.80712 5.21834
1.98562 4.19739
2.16411 4.02275
2.34263 5.33231
2.52115 6.3899
2.69965 7.42063
2.87818 8.9169
3.05672 10.9908
3.23527 15.0261
3.4138 18.6624
3.59237 23.9701
3.77094 26.4443
3.9495 29.9246
4.12809 34.9622
4.30669 176.79
4.4853 62.2284
4.6639 56.5604
4.84253 68.6266
5.02118 89.4533
5.19981 463.502
5.37848 205.362
5.55716 104.58
5.73586 94.4637
5.91455 98.8978
6.09328 4343.39
6.27201 84.5494
6.45075 68.323
6.62952 63.4477
6.8083 59.3791
6.98711 56.6925
7.16591 56.0811
7.34475 84.1014
7.5236 55.1382
7.70247 56.8002
7.88135 58.7581
8.06026 63.3715
8.23919 70.6394
8.41812 87.2464
8.59709 1225.17
8.77609 102.187
8.9551 91.9176
9.13412 83.3136
9.31318 84.0395
9.49226 85.9439
9.67134 98.353
9.85047 101.943
10.0296 393.108
10.2088 429.082
10.388 107.503
10.5672 504.454
10.7465 87.9462
10.9257 79.3811
11.105 72.8568
11.2844 70.8672
11.4637 65.9512
11.6431 64.6578
11.8225 63.6283
12.002 64.9328
12.1814 154.279
12.3609 70.8103
12.5405 65.4047
12.72 70.4276
12.8996 72.4431
13.0792 81.1448
13.2589 245.338
13.4386 127.523
13.6183 248.938
13.7981 98.7109
13.9779 77.239
14.1577 73.4508
14.3376 72.5994
14.5175 70.2315
14.6974 71.8392
14.8774 116.29
15.0574 153.189
15.2374 71.7523
15.4175 67.6949
15.5976 67.251
15.7778 100.048
15.958 158.749
16.1382 63.6318
16.3185 59.2292
16.4988 56.5401
16.6792 55.3151
16.8596 56.1591
17.04 56.9165
17.2205 68.0559
17.401 72.4679
17.5815 60.3009
17.7622 62.6301
17.9428 76.6307
18.1237 139.186
18.3044 91.6969
18.4852 78.6694
18.666 61.4137
18.8469 59.0095
19.0278 57.8125
19.2088 60.8982
19.3898 77.3015
19.5709 55.3153
19.752 54.1084
19.9332 57.5799
20.1144 70.8706
20.2957 64.5256
20.477 54.5097
20.6586 50.6017
20.84 49.6327
21.0215 49.4537
21.203 51.6349
21.3846 49.9281
21.5662 49.8675
21.7479 53.9549
21.9297 65.433
22.1115 56.6336
22.2933 50.8101
22.4753 49.6746
22.6572 49.8269
22.8393 53.0944
23.0214 58.1963
23.2037 49.7217
23.3859 50.7388
23.5682 57.4924
23.7505 49.3212
23.9329 46.0974
24.1154 44.9056
24.2979 44.2707
24.4805 43.6858
24.6631 43.543
24.8458 42.8366
25.0286 43.5214
25.2114 45.5555
25.3943 45.4272
25.5773 41.653
25.7605 41.2985
25.9436 41.5763
26.1268 42.3773
26.31 40.7692
26.4933 41.4759
26.6767 42.884
26.8601 41.1134
27.0437 39.4292
27.2272 39.3313
27.4109 39.0358
27.5946 39.0944
27.7784 38.5307
27.9623 39.0454
28.1462 39.5022
28.3304 37.8704
28.5145 36.6337
28.6987 36.2624
28.8829 35.9724
29.0673 35.1808
29.2517 34.9192
29.4361 34.8402
29.6207 33.6904
29.8053 33.393
29.99 33.1109
30.1748 32.9813
30.3597 32.8321
30.5447 32.7601
30.7297 32.7863
30.915 32.0853
31.1002 31.6614
31.2855 31.439
31.4708 31.326
31.6563 30.9804
31.8418 30.7618
32.0275 30.3917
32.2132 29.9289
32.399 29.3937
32.5848 28.9062
32.7708 28.628
32.9569 28.5033
33.143 28.2571
33.3293 27.8996
33.5158 27.5647
33.7022 27.0677
33.8887 26.6796
34.0753 26.4547
34.262 26.0303
34.4488 25.7913
34.6357 25.4256
34.8227 25.1239
35.0098 24.8728
35.1969 24.539
35.3842 24.3212
35.5716 24.1991
35.759 23.8817
35.9468 23.4682
36.1345 23.2352
36.3222 23.0576
36.5101 22.8712
36.6981 22.3752
36.8861 22.211
37.0743 21.8114
37.2626 21.6723
37.451 21.2947
37.6395 21.1721
37.8281 20.7634
38.0168 20.5486
38.2056 20.3318
38.3945 20.0337
38.5837 19.831
38.7728 19.4706
38.9621 19.2712
39.1514 19.0063
39.3409 18.7897
39.5304 18.5417
39.7201 18.3582
39.9099 18.1583
40.0999 17.9049
40.2899 17.6533
40.48 17.3961
40.6703 17.1885
40.8607 17.0447
41.0512 16.7475
41.242 16.5036
41.4327 16.3544
41.6236 16.1388
41.8146 15.9335
42.0057 15.6473
42.1969 15.4633
42.3882 15.2791
42.5797 15.0918
42.7713 14.8863
42.963 14.6507
43.1549 14.4954
43.3468 14.2206
43.5389 14.1046
43.7312 13.8805
43.9237 13.6306
44.1162 13.4839
44.3088 13.3145
44.5016 13.1248
44.6945 12.9716
44.8875 12.7463
45.0806 12.5319
45.2739 12.4201
45.4673 12.1946
45.6609 12.0599
45.8546 11.8463
46.0484 11.7264
46.2424 11.5691
46.4365 11.3971
46.631 11.2341
46.8254 11.0162
47.0199 10.9165
47.2146 10.7392
47.4095 10.5921
47.6044 10.3913
47.7996 10.239
47.9948 10.1214
48.1902 9.97762
48.3858 9.83731
48.5815 9.6752
48.7774 9.54723
48.9734 9.38726
49.1696 9.26207
49.3661 9.12139
49.5626 8.99363
49.7592 8.81349
49.956 8.70925
50.153 8.54808
50.3501 8.43225
50.5474 8.30442
50.7448 8.20545
50.9424 8.05059
51.1402 7.91898
51.3381 7.78969
51.5362 7.69266
51.7344 7.55986
51.9328 7.42729
52.1316 7.27544
52.3304 7.16705
52.5293 7.06402
52.7284 6.93686
52.9276 6.80266
53.1271 6.72784
53.3267 6.58814
53.5265 6.48265
53.7264 6.38555
53.9266 6.26526
54.1269 6.12195
54.3274 6.07585
54.528 5.88157
54.7289 5.7454
54.9301 5.57942
55.1314 5.43746
55.3328 5.24083
55.5344 5.08238
55.7361 4.9069