File: XRD/Ni3Fe_FD0675.xy
TT I
1.27165 7.4615
1.45013 6.57074
1.62863 4.89174
1.80712 4.54976
1.98562 5.06083
2.16411 5.23849
2.34263 5.73778
2.52115 6.71923
2.69965 8.51835
2.87818 8.50082
3.05672 10.7772
3.23527 14.9364
3.4138 19.0074
3.59237 23.4438
3.77094 26.2298
3.9495 29.6532
4.12809 33.9146
4.30669 155.303
4.4853 58.7936
4.6639 55.5525
4.84253 68.0335
5.02118 87.7418
5.19981 391.819
5.37848 182.95
5.55716 101.728
5.73586 92.6594
5.91455 95.5909
6.09328 4548.32
6.27201 81.7499
6.45075 67.3655
6.62952 62.0708
6.8083 58.1948
6.98711 55.4718
7.16591 55.0212
7.34475 78.7747
7.5236 54.3508
7.70247 55.9524
7.88135 57.592
8.06026 62.1873
8.23919 69.3873
8.41812 84.7759
8.59709 1227.35
8.77609 98.6089
8.9551 89.5834
9.13412 81.9356
9.31318 82.8474
9.49226 84.7723
9.67134 95.4456
9.85047 100.391
10.0296 362.07
10.2088 370.825
10.388 104.649
10.5672 514.092
10.7465 86.2442
10.9257 77.6678
11.105 71.2139
11.2844 69.2128
11.4637 64.8507
11.6431 63.2778
11.8225 62.4443
12.002 63.7547
12.1814 153.885
12.3609 68.5581
12.5405 64.366
12.72 68.8365
12.8996 71.1104
13.0792 79.5168
13.2589 247.234
13.4386 120.466
13.6183 255.11
13.7981 93.4856
13.9779 75.6157
14.1577 72.0004
14.3376 70.6631
14.5175 68.5692
14.6974 70.379
14.8774 112.578
15.0574 141.028
15.2374 69.7812
15.4175 66.403
15.5976 65.7753
15.7778 96.3243
15.958 151.585
16.1382 61.9534
16.3185 57.985
16.4988 55.3868
16.6792 54.4266
16.8596 54.99
17.04 55.7855
17.2205 67.0649
17.401 69.8771
17.5815 59.0155
17.7622 61.126
17.9428 74.2667
18.1237 142.447
18.3044 91.1063
18.4852 75.529
18.666 60.2239
18.8469 57.857
19.0278 56.5451
19.2088 59.4533
19.3898 76.4463
19.5709 54.0114
19.752 53.1926
19.9332 56.2506
20.1144 69.8249
20.2957 64.257
20.477 52.9132
20.6586 49.6097
20.84 48.7376
21.0215 48.5353
21.203 50.907
21.3846 48.5757
21.5662 48.8379
21.7479 52.8365
21.9297 64.9057
22.1115 56.14
22.2933 49.5894
22.4753 48.5712
22.6572 48.9004
22.8393 52.258
23.0214 57.1923
23.2037 48.5846
23.3859 49.6903
23.5682 57.2056
23.7505 47.9223
23.9329 44.9896
24.1154 44.0977
24.2979 43.3201
24.4805 42.9468
24.6631 42.6411
24.8458 42.2142
25.0286 42.8963
25.2114 44.628
25.3943 44.4957
25.5773 40.8076
25.7605 40.3746
25.9436 40.715
26.1268 41.6182
26.31 39.9723
26.4933 40.5692
26.6767 42.0667
26.8601 40.3713
27.0437 38.7987
27.2272 38.4873
27.4109 38.3956
27.5946 38.2726
27.7784 37.7681
27.9623 38.487
28.1462 38.6937
28.3304 36.9173
28.5145 35.9017
28.6987 35.5957
28.8829 35.2705
29.0673 34.5652
29.2517 34.2258
29.4361 34.0974
29.6207 33.1349
29.8053 32.7998
29.99 32.5116
30.1748 32.4816
30.3597 32.1816
30.5447 32.1437
30.7297 32.1602
30.915 31.5918
31.1002 31.1058
31.2855 30.7906
31.4708 30.7966
31.6563 30.3453
31.8418 30.1251
32.0275 29.8504
32.2132 29.3063
32.399 28.8743
32.5848 28.4178
32.7708 28.093
32.9569 27.9407
33.143 27.8862
33.3293 27.3845
33.5158 26.9249
33.7022 26.5282
33.8887 26.3041
34.0753 25.9581
34.262 25.5858
34.4488 25.3125
34.6357 24.959
34.8227 24.6997
35.0098 24.3951
35.1969 24.2167
35.3842 23.8837
35.5716 23.6934
35.759 23.3923
35.9468 23.1094
36.1345 22.8235
36.3222 22.6461
36.5101 22.3347
36.6981 22.0962
36.8861 21.7707
37.0743 21.4996
37.2626 21.2213
37.451 20.9588
37.6395 20.8111
37.8281 20.4911
38.0168 20.1415
38.2056 19.9409
38.3945 19.6182
38.5837 19.4828
38.7728 19.1847
38.9621 18.8599
39.1514 18.6634
39.3409 18.414
39.5304 18.1831
39.7201 18.0325
39.9099 17.8583
40.0999 17.5981
40.2899 17.3382
40.48 17.0333
40.6703 16.9546
40.8607 16.7168
41.0512 16.4971
41.242 16.2033
41.4327 16.039
41.6236 15.7977
41.8146 15.5751
42.0057 15.3822
42.1969 15.1776
42.3882 15.0319
42.5797 14.8104
42.7713 14.6197
42.963 14.3921
43.1549 14.2001
43.3468 13.9745
43.5389 13.8705
43.7312 13.6267
43.9237 13.4599
44.1162 13.2726
44.3088 13.0874
44.5016 12.8344
44.6945 12.6799
44.8875 12.5279
45.0806 12.3363
45.2739 12.1414
45.4673 12.0187
45.6609 11.8278
45.8546 11.6396
46.0484 11.4941
46.2424 11.332
46.4365 11.1844
46.631 11.0002
46.8254 10.8716
47.0199 10.6664
47.2146 10.5572
47.4095 10.3873
47.6044 10.2128
47.7996 10.0651
47.9948 9.9263
48.1902 9.74673
48.3858 9.66665
48.5815 9.48309
48.7774 9.35671
48.9734 9.21205
49.1696 9.07372
49.3661 8.96095
49.5626 8.77542
49.7592 8.68392
49.956 8.53503
50.153 8.43244
50.3501 8.32097
50.5474 8.15618
50.7448 8.0158
50.9424 7.89825
51.1402 7.76281
51.3381 7.63495
51.5362 7.50731
51.7344 7.38961
51.9328 7.30932
52.1316 7.17523
52.3304 7.03271
52.5293 6.92301
52.7284 6.79588
52.9276 6.71068
53.1271 6.66356
53.3267 6.44991
53.5265 6.41863
53.7264 6.27783
53.9266 6.12041
54.1269 6.0591
54.3274 5.96456
54.528 5.8169
54.7289 5.60865
54.9301 5.44054
55.1314 5.34933
55.3328 5.13187
55.5344 4.93645
55.7361 4.83023