File: XRD/Ni3Fe_FD0572.xy
TT I
1.27165 7.54873
1.45013 5.83588
1.62863 5.38128
1.80712 4.54565
1.98562 4.73573
2.16411 4.34602
2.34263 5.40569
2.52115 6.61555
2.69965 7.92455
2.87818 8.41432
3.05672 11.0284
3.23527 15.0628
3.4138 18.5495
3.59237 23.1198
3.77094 26.2415
3.9495 29.5177
4.12809 34.4988
4.30669 133.505
4.4853 57.6432
4.6639 56.3688
4.84253 68.2478
5.02118 88.8487
5.19981 458.407
5.37848 196.625
5.55716 103.652
5.73586 93.2609
5.91455 97.1021
6.09328 4500.2
6.27201 82.339
6.45075 67.8418
6.62952 62.767
6.8083 58.6347
6.98711 55.8769
7.16591 55.4262
7.34475 75.1658
7.5236 54.7493
7.70247 56.5509
7.88135 58.4032
8.06026 62.873
8.23919 70.0393
8.41812 86.1609
8.59709 1234.09
8.77609 100.045
8.9551 89.8318
9.13412 82.9262
9.31318 83.9978
9.49226 85.384
9.67134 96.2216
9.85047 101.586
10.0296 381.737
10.2088 368.876
10.388 106.31
10.5672 523.754
10.7465 87.2268
10.9257 78.4132
11.105 72.1174
11.2844 69.5319
11.4637 65.3528
11.6431 63.9173
11.8225 62.7418
12.002 64.7706
12.1814 156.256
12.3609 68.2965
12.5405 64.8951
12.72 69.0586
12.8996 71.7993
13.0792 80.9447
13.2589 251.295
13.4386 121.78
13.6183 257.233
13.7981 96.5757
13.9779 76.3567
14.1577 72.5954
14.3376 71.3234
14.5175 69.4875
14.6974 70.9815
14.8774 116.182
15.0574 144.076
15.2374 70.5158
15.4175 66.9365
15.5976 66.6787
15.7778 98.9492
15.958 150.778
16.1382 62.4518
16.3185 58.3847
16.4988 55.9883
16.6792 54.8669
16.8596 55.4885
17.04 56.584
17.2205 67.8948
17.401 70.7537
17.5815 59.7983
17.7622 61.9063
17.9428 75.6179
18.1237 141.665
18.3044 92.2471
18.4852 76.6988
18.666 60.814
18.8469 58.4646
19.0278 57.409
19.2088 60.1905
19.3898 76.2103
19.5709 54.6405
19.752 53.7855
19.9332 56.8522
20.1144 70.288
20.2957 64.1655
20.477 53.5861
20.6586 49.9959
20.84 49.113
21.0215 48.971
21.203 51.0879
21.3846 49.3062
21.5662 49.4222
21.7479 53.4003
21.9297 65.221
22.1115 56.221
22.2933 50.1271
22.4753 49.1021
22.6572 49.3966
22.8393 52.7416
23.0214 57.4311
23.2037 49.2196
23.3859 50.2835
23.5682 57.3921
23.7505 48.2883
23.9329 45.4904
24.1154 44.3339
24.2979 43.6557
24.4805 43.1851
24.6631 42.9998
24.8458 42.5477
25.0286 43.2795
25.2114 45.0954
25.3943 44.964
25.5773 41.1239
25.7605 40.8087
25.9436 41.2143
26.1268 41.9507
26.31 40.4011
26.4933 41.0347
26.6767 42.5709
26.8601 40.6608
27.0437 39.1333
27.2272 38.748
27.4109 38.6357
27.5946 38.6716
27.7784 38.1581
27.9623 38.5452
28.1462 39.0613
28.3304 37.3285
28.5145 36.228
28.6987 35.9197
28.8829 35.6096
29.0673 34.9222
29.2517 34.4469
29.4361 34.3069
29.6207 33.31
29.8053 33.1155
29.99 32.7068
30.1748 32.63
30.3597 32.4009
30.5447 32.3588
30.7297 32.4691
30.915 31.807
31.1002 31.3129
31.2855 31.1195
31.4708 30.9647
31.6563 30.5246
31.8418 30.3518
32.0275 30.2648
32.2132 29.6357
32.399 29.0294
32.5848 28.605
32.7708 28.289
32.9569 28.1496
33.143 27.9868
33.3293 27.6061
33.5158 27.2195
33.7022 26.7925
33.8887 26.3706
34.0753 26.1379
34.262 25.7923
34.4488 25.4955
34.6357 25.1581
34.8227 24.8326
35.0098 24.6068
35.1969 24.3289
35.3842 24.0501
35.5716 23.9036
35.759 23.6488
35.9468 23.2324
36.1345 22.9442
36.3222 22.7449
36.5101 22.5627
36.6981 22.2524
36.8861 21.9327
37.0743 21.6119
37.2626 21.3814
37.451 21.0348
37.6395 20.9402
37.8281 20.5929
38.0168 20.3849
38.2056 20.0721
38.3945 19.81
38.5837 19.5692
38.7728 19.3033
38.9621 19.0592
39.1514 18.7472
39.3409 18.5622
39.5304 18.3801
39.7201 18.1381
39.9099 18.0258
40.0999 17.6509
40.2899 17.5156
40.48 17.1987
40.6703 17.0759
40.8607 16.8084
41.0512 16.5982
41.242 16.298
41.4327 16.1591
41.6236 15.918
41.8146 15.7968
42.0057 15.5069
42.1969 15.3129
42.3882 15.151
42.5797 14.9043
42.7713 14.7079
42.963 14.4805
43.1549 14.3068
43.3468 14.0951
43.5389 13.9195
43.7312 13.6834
43.9237 13.5366
44.1162 13.3558
44.3088 13.1405
44.5016 12.9787
44.6945 12.8604
44.8875 12.6404
45.0806 12.4364
45.2739 12.2498
45.4673 12.0983
45.6609 11.9415
45.8546 11.7562
46.0484 11.5889
46.2424 11.4096
46.4365 11.2667
46.631 11.0999
46.8254 10.9353
47.0199 10.7703
47.2146 10.5925
47.4095 10.4307
47.6044 10.2918
47.7996 10.1608
47.9948 10.0085
48.1902 9.84949
48.3858 9.68769
48.5815 9.58174
48.7774 9.44186
48.9734 9.33717
49.1696 9.17615
49.3661 9.04953
49.5626 8.87136
49.7592 8.74116
49.956 8.593
50.153 8.47074
50.3501 8.32605
50.5474 8.2463
50.7448 8.09162
50.9424 7.98088
51.1402 7.85023
51.3381 7.71264
51.5362 7.58349
51.7344 7.46342
51.9328 7.32626
52.1316 7.19526
52.3304 7.09901
52.5293 6.96841
52.7284 6.86293
52.9276 6.72479
53.1271 6.67261
53.3267 6.4771
53.5265 6.40836
53.7264 6.29044
53.9266 6.18082
54.1269 6.07237
54.3274 5.98962
54.528 5.84249
54.7289 5.64765
54.9301 5.52674
55.1314 5.37272
55.3328 5.20677
55.5344 5.04688
55.7361 4.85322