File: XRD/Ni3Fe_FD0889.xy
TT I
1.27165 7.2675
1.45013 5.96037
1.62863 5.59911
1.80712 4.70814
1.98562 4.63538
2.16411 4.92345
2.34263 5.59155
2.52115 7.58621
2.69965 7.92366
2.87818 8.68684
3.05672 11.1338
3.23527 14.7677
3.4138 19.0881
3.59237 24.1511
3.77094 26.1631
3.9495 29.7677
4.12809 34.7271
4.30669 255.11
4.4853 68.872
4.6639 54.1953
4.84253 65.6286
5.02118 84.9137
5.19981 283.403
5.37848 176.848
5.55716 99.4851
5.73586 89.9737
5.91455 90.4061
6.09328 4353.24
6.27201 81.1464
6.45075 66.5522
6.62952 62.2823
6.8083 57.6397
6.98711 55.2457
7.16591 54.6428
7.34475 98.3536
7.5236 54.3748
7.70247 55.8115
7.88135 56.8133
8.06026 61.1708
8.23919 67.9554
8.41812 83.5222
8.59709 1103.57
8.77609 96.8678
8.9551 91.0347
9.13412 80.3005
9.31318 81.0343
9.49226 82.9092
9.67134 98.3412
9.85047 97.79
10.0296 290.497
10.2088 395.906
10.388 102.336
10.5672 521.178
10.7465 84.8366
10.9257 77.5606
11.105 70.6574
11.2844 70.0251
11.4637 64.221
11.6431 62.5109
11.8225 61.3745
12.002 62.1218
12.1814 153.059
12.3609 70.2279
12.5405 63.4782
12.72 69.7168
12.8996 69.4751
13.0792 77.0001
13.2589 222.279
13.4386 121.895
13.6183 239.646
13.7981 94.3637
13.9779 74.4493
14.1577 71.2815
14.3376 70.8594
14.5175 67.461
14.6974 68.9117
14.8774 103.838
15.0574 146.322
15.2374 70.2189
15.4175 65.0968
15.5976 64.5266
15.7778 89.5074
15.958 156.455
16.1382 62.0764
16.3185 57.8281
16.4988 54.5611
16.6792 53.6274
16.8596 54.439
17.04 54.6631
17.2205 64.5779
17.401 68.9758
17.5815 58.1136
17.7622 60.0591
17.9428 70.2411
18.1237 140.443
18.3044 88.527
18.4852 75.6714
18.666 59.4556
18.8469 57.1053
19.0278 56.0144
19.2088 58.2847
19.3898 76.8349
19.5709 53.2976
19.752 52.2927
19.9332 54.8342
20.1144 69.2092
20.2957 63.509
20.477 52.8803
20.6586 48.9006
20.84 47.9186
21.0215 47.6015
21.203 50.2622
21.3846 48.0029
21.5662 47.8567
21.7479 51.137
21.9297 64.4119
22.1115 55.4218
22.2933 48.9911
22.4753 48.1441
22.6572 47.8843
22.8393 50.8862
23.0214 56.7514
23.2037 47.874
23.3859 48.7841
23.5682 56.7737
23.7505 47.6563
23.9329 44.6668
24.1154 43.5914
24.2979 42.8527
24.4805 42.3659
24.6631 42.2347
24.8458 41.5146
25.0286 42.1375
25.2114 44.0593
25.3943 43.9394
25.5773 40.1785
25.7605 39.6647
25.9436 40.0892
26.1268 41.1985
26.31 39.4404
26.4933 40.1033
26.6767 41.5253
26.8601 39.9123
27.0437 38.0688
27.2272 37.9791
27.4109 37.79
27.5946 37.8144
27.7784 37.3445
27.9623 37.815
28.1462 38.0934
28.3304 36.5418
28.5145 35.3455
28.6987 35.1833
28.8829 34.9497
29.0673 34.1977
29.2517 33.7987
29.4361 33.6977
29.6207 32.6679
29.8053 32.4458
29.99 32.0931
30.1748 31.9485
30.3597 31.7555
30.5447 31.7118
30.7297 31.7654
30.915 31.1167
31.1002 30.728
31.2855 30.3299
31.4708 30.3842
31.6563 29.8911
31.8418 29.7301
32.0275 29.4723
32.2132 28.8648
32.399 28.54
32.5848 28.1072
32.7708 27.6453
32.9569 27.6368
33.143 27.4429
33.3293 26.9683
33.5158 26.6108
33.7022 26.1478
33.8887 25.9411
34.0753 25.6727
34.262 25.2813
34.4488 24.8562
34.6357 24.5526
34.8227 24.2976
35.0098 24.1233
35.1969 23.7924
35.3842 23.6207
35.5716 23.4333
35.759 23.1
35.9468 22.7492
36.1345 22.6039
36.3222 22.2734
36.5101 22.0889
36.6981 21.7583
36.8861 21.4333
37.0743 21.2115
37.2626 20.9777
37.451 20.6544
37.6395 20.5455
37.8281 20.2105
38.0168 19.9243
38.2056 19.6655
38.3945 19.3459
38.5837 19.1419
38.7728 18.9549
38.9621 18.72
39.1514 18.4284
39.3409 18.196
39.5304 18.0026
39.7201 17.7872
39.9099 17.5481
40.0999 17.3367
40.2899 17.1027
40.48 16.8655
40.6703 16.6401
40.8607 16.4903
41.0512 16.2636
41.242 16.0692
41.4327 15.8418
41.6236 15.6863
41.8146 15.4594
42.0057 15.1877
42.1969 15.0221
42.3882 14.8499
42.5797 14.565
42.7713 14.4154
42.963 14.2233
43.1549 14.0385
43.3468 13.8188
43.5389 13.6485
43.7312 13.4809
43.9237 13.2801
44.1162 13.0939
44.3088 12.9246
44.5016 12.6641
44.6945 12.5365
44.8875 12.3697
45.0806 12.221
45.2739 12.0346
45.4673 11.8828
45.6609 11.7117
45.8546 11.5897
46.0484 11.3456
46.2424 11.2329
46.4365 11.0494
46.631 10.8614
46.8254 10.7168
47.0199 10.5567
47.2146 10.435
47.4095 10.2207
47.6044 10.096
47.7996 9.97235
47.9948 9.8314
48.1902 9.68722
48.3858 9.54037
48.5815 9.42461
48.7774 9.2552
48.9734 9.11863
49.1696 8.99558
49.3661 8.84869
49.5626 8.66749
49.7592 8.57145
49.956 8.46386
50.153 8.32784
50.3501 8.1755
50.5474 8.05628
50.7448 7.96311
50.9424 7.80965
51.1402 7.72691
51.3381 7.56304
51.5362 7.4584
51.7344 7.36346
51.9328 7.19046
52.1316 7.06105
52.3304 6.99128
52.5293 6.84403
52.7284 6.72907
52.9276 6.62592
53.1271 6.54434
53.3267 6.39334
53.5265 6.32143
53.7264 6.19921
53.9266 6.08497
54.1269 5.97007
54.3274 5.87953
54.528 5.77032
54.7289 5.54155
54.9301 5.37839
55.1314 5.26236
55.3328 5.07764
55.5344 4.89351
55.7361 4.76281