File: XRD/Ni3Fe_FD0927.xy
TT I
1.27165 7.37913
1.45013 5.84901
1.62863 5.58916
1.80712 4.72885
1.98562 4.90929
2.16411 4.4355
2.34263 5.06549
2.52115 7.94647
2.69965 9.00108
2.87818 9.03623
3.05672 10.936
3.23527 14.8111
3.4138 18.4248
3.59237 23.0551
3.77094 25.4462
3.9495 29.3515
4.12809 33.9142
4.30669 99.789
4.4853 53.2742
4.6639 55.0817
4.84253 68.0173
5.02118 86.0804
5.19981 369.61
5.37848 193.317
5.55716 101.199
5.73586 91.6705
5.91455 93.5978
6.09328 4656.06
6.27201 78.6157
6.45075 69.8237
6.62952 62.1103
6.8083 59.175
6.98711 54.7721
7.16591 55.7158
7.34475 66.6747
7.5236 53.3235
7.70247 56.4113
7.88135 56.9949
8.06026 61.7458
8.23919 68.3946
8.41812 81.9192
8.59709 1204.52
8.77609 95.7028
8.9551 88.7538
9.13412 82.2731
9.31318 83.9643
9.49226 83.2976
9.67134 94.6159
9.85047 100.169
10.0296 328.477
10.2088 324.592
10.388 103.241
10.5672 541.171
10.7465 84.7667
10.9257 76.866
11.105 70.1255
11.2844 67.3539
11.4637 63.7634
11.6431 62.3711
11.8225 61.6879
12.002 63.3306
12.1814 159.735
12.3609 65.4366
12.5405 63.8905
12.72 67.2529
12.8996 70.2943
13.0792 79.3583
13.2589 244.956
13.4386 114.33
13.6183 258.543
13.7981 91.6624
13.9779 74.6297
14.1577 70.6825
14.3376 69.1107
14.5175 67.8068
14.6974 69.5045
14.8774 110.323
15.0574 137.424
15.2374 68.4124
15.4175 65.1614
15.5976 64.8758
15.7778 93.5081
15.958 145.627
16.1382 60.2874
16.3185 56.732
16.4988 54.5328
16.6792 53.3235
16.8596 53.8062
17.04 54.9206
17.2205 66.1417
17.401 67.5144
17.5815 58.1735
17.7622 60.2811
17.9428 72.0853
18.1237 140.458
18.3044 90.6497
18.4852 72.8248
18.666 59.146
18.8469 56.9727
19.0278 55.6377
19.2088 58.0629
19.3898 74.7324
19.5709 53.0628
19.752 52.4382
19.9332 55.2329
20.1144 69.3282
20.2957 63.9745
20.477 51.722
20.6586 48.7778
20.84 47.9521
21.0215 47.7927
21.203 50.1056
21.3846 47.845
21.5662 48.1008
21.7479 51.8804
21.9297 64.182
22.1115 55.49
22.2933 48.6321
22.4753 47.9072
22.6572 48.0602
22.8393 51.2822
23.0214 56.1338
23.2037 47.9222
23.3859 48.8904
23.5682 56.9364
23.7505 46.7762
23.9329 44.5096
24.1154 43.2234
24.2979 42.6068
24.4805 42.2656
24.6631 42.1592
24.8458 41.6019
25.0286 42.2177
25.2114 43.9971
25.3943 43.7997
25.5773 40.1896
25.7605 39.7408
25.9436 40.1389
26.1268 41.1398
26.31 39.3598
26.4933 40.0327
26.6767 41.4153
26.8601 39.7485
27.0437 38.2376
27.2272 37.9118
27.4109 37.8133
27.5946 37.7212
27.7784 37.1924
27.9623 37.8126
28.1462 38.1608
28.3304 36.4029
28.5145 35.32
28.6987 34.9831
28.8829 34.8616
29.0673 33.9601
29.2517 33.7394
29.4361 33.4672
29.6207 32.5266
29.8053 32.3472
29.99 32.0163
30.1748 31.8227
30.3597 31.7539
30.5447 31.5763
30.7297 31.6096
30.915 31.0896
31.1002 30.6564
31.2855 30.384
31.4708 30.3627
31.6563 29.7784
31.8418 29.679
32.0275 29.3801
32.2132 28.8542
32.399 28.3893
32.5848 27.9684
32.7708 27.7138
32.9569 27.3883
33.143 27.3676
33.3293 26.864
33.5158 26.5714
33.7022 26.2095
33.8887 25.8439
34.0753 25.4587
34.262 25.2384
34.4488 24.8962
34.6357 24.467
34.8227 24.3064
35.0098 24.027
35.1969 23.8102
35.3842 23.5966
35.5716 23.383
35.759 23.0804
35.9468 22.7057
36.1345 22.4754
36.3222 22.2712
36.5101 22.1007
36.6981 21.7771
36.8861 21.4429
37.0743 21.1327
37.2626 20.8946
37.451 20.5953
37.6395 20.4822
37.8281 20.1619
38.0168 19.8855
38.2056 19.608
38.3945 19.4034
38.5837 19.0663
38.7728 18.8714
38.9621 18.5755
39.1514 18.3829
39.3409 18.0929
39.5304 17.9349
39.7201 17.6852
39.9099 17.476
40.0999 17.3157
40.2899 17.0716
40.48 16.7901
40.6703 16.7036
40.8607 16.4735
41.0512 16.2326
41.242 15.9583
41.4327 15.7771
41.6236 15.5899
41.8146 15.3382
42.0057 15.2117
42.1969 14.9744
42.3882 14.7609
42.5797 14.5726
42.7713 14.3573
42.963 14.162
43.1549 13.9898
43.3468 13.7225
43.5389 13.6658
43.7312 13.3936
43.9237 13.1792
44.1162 13.0317
44.3088 12.8558
44.5016 12.6603
44.6945 12.5016
44.8875 12.3195
45.0806 12.148
45.2739 11.9914
45.4673 11.8359
45.6609 11.6458
45.8546 11.493
46.0484 11.3399
46.2424 11.1747
46.4365 11.0446
46.631 10.848
46.8254 10.6557
47.0199 10.4837
47.2146 10.3732
47.4095 10.1949
47.6044 10.0434
47.7996 9.91539
47.9948 9.74548
48.1902 9.62391
48.3858 9.50324
48.5815 9.33677
48.7774 9.23947
48.9734 9.06787
49.1696 8.92747
49.3661 8.83019
49.5626 8.61886
49.7592 8.52765
49.956 8.40933
50.153 8.29815
50.3501 8.18171
50.5474 8.02593
50.7448 7.89202
50.9424 7.75596
51.1402 7.65336
51.3381 7.5378
51.5362 7.4493
51.7344 7.3104
51.9328 7.16183
52.1316 7.03897
52.3304 6.9517
52.5293 6.82922
52.7284 6.72201
52.9276 6.6019
53.1271 6.50727
53.3267 6.37363
53.5265 6.29063
53.7264 6.17821
53.9266 6.06441
54.1269 5.94469
54.3274 5.83613
54.528 5.71445
54.7289 5.55909
54.9301 5.39353
55.1314 5.21553
55.3328 5.05147
55.5344 4.82206
55.7361 4.77434