File: XRD/Ni3Fe_FD0002.xy
TT I
1.27165 35.1738
1.45013 31.888
1.62863 27.7744
1.80712 25.9541
1.98562 25.3414
2.16411 25.6393
2.34263 26.0416
2.52115 26.4317
2.69965 30.4032
2.87818 39.8394
3.05672 65.1229
3.23527 82.206
3.4138 46.6392
3.59237 39.8216
3.77094 42.0261
3.9495 43.706
4.12809 54.1292
4.30669 77.5191
4.4853 68.8873
4.6639 55.0653
4.84253 59.7577
5.02118 89.7665
5.19981 243.583
5.37848 4201.73
5.55716 165.838
5.73586 99.0097
5.91455 104.525
6.09328 385.719
6.27201 400.886
6.45075 73.9396
6.62952 54.0379
6.8083 50.8515
6.98711 47.7173
7.16591 51.3481
7.34475 68.7727
7.5236 63.1667
7.70247 54.1938
7.88135 38.4784
8.06026 38.9656
8.23919 42.7668
8.41812 52.8373
8.59709 134.115
8.77609 803.868
8.9551 82.3671
9.13412 57.5881
9.31318 223.056
9.49226 50.3212
9.67134 47.7006
9.85047 53.1626
10.0296 82.8841
10.2088 337.411
10.388 173.001
10.5672 86.3131
10.7465 307.389
10.9257 48.6731
11.105 40.2453
11.2844 38.6882
11.4637 37.5862
11.6431 36.3558
11.8225 35.9555
12.002 57.8301
12.1814 44.9302
12.3609 81.4484
12.5405 46.9492
12.72 38.036
12.8996 38.121
13.0792 39.3919
13.2589 60.8872
13.4386 109.09
13.6183 112.532
13.7981 117.188
13.9779 78.3335
14.1577 42.6316
14.3376 58.9046
14.5175 34.8714
14.6974 34.4665
14.8774 38.457
15.0574 52.3223
15.2374 128.836
15.4175 40.8413
15.5976 35.9904
15.7778 37.7392
15.958 49.0253
16.1382 141.952
16.3185 41.9936
16.4988 31.9728
16.6792 29.9436
16.8596 29.6644
17.04 36.5464
17.2205 31.4479
17.401 33.256
17.5815 53.6357
17.7622 33.2045
17.9428 41.5264
18.1237 41.0865
18.3044 71.5712
18.4852 66.5366
18.666 81.6545
18.8469 36.06
19.0278 31.4968
19.2088 31.0127
19.3898 35.5596
19.5709 46.0624
19.752 40.3454
19.9332 30.3477
20.1144 30.9029
20.2957 37.6643
20.477 42.6515
20.6586 46.3893
20.84 30.1982
21.0215 30.3224
21.203 26.9885
21.3846 27.0451
21.5662 32.2715
21.7479 28.2024
21.9297 29.7938
22.1115 36.5717
22.2933 51.8952
22.4753 40.2956
22.6572 29.2443
22.8393 28.6235
23.0214 31.2128
23.2037 34.9266
23.3859 39.9703
23.5682 34.036
23.7505 32.5231
23.9329 49.7343
24.1154 30.0565
24.2979 26.9344
24.4805 24.9852
24.6631 25.0223
24.8458 27.5403
25.0286 25.3035
25.2114 24.996
25.3943 27.3478
25.5773 31.3067
25.7605 33.4428
25.9436 26.1212
26.1268 25.075
26.31 25.1757
26.4933 29.8581
26.6767 25.5298
26.8601 26.2993
27.0437 33.2873
27.2272 29.3342
27.4109 24.1622
27.5946 23.612
27.7784 23.9927
27.9623 25.8662
28.1462 25.0913
28.3304 26.5475
28.5145 30.649
28.6987 27.2726
28.8829 22.789
29.0673 21.8573
29.2517 22.8864
29.4361 22.2419
29.6207 21.3014
29.8053 23.0827
29.99 21.223
30.1748 20.6906
30.3597 21.0645
30.5447 20.7113
30.7297 21.3089
30.915 20.7124
31.1002 23.2915
31.2855 23.4941
31.4708 20.5606
31.6563 20.0683
31.8418 21.2828
32.0275 21.5928
32.2132 20.4913
32.399 21.8381
32.5848 20.4496
32.7708 18.8622
32.9569 18.3176
33.143 18.7006
33.3293 18.1972
33.5158 18.5353
33.7022 19.7297
33.8887 18.7158
34.0753 17.6483
34.262 17.4221
34.4488 17.5458
34.6357 16.8597
34.8227 17.159
35.0098 16.5314
35.1969 16.1241
35.3842 16.1672
35.5716 16.1503
35.759 16.4562
35.9468 17.5015
36.1345 16.7864
36.3222 15.7869
36.5101 15.524
36.6981 15.9871
36.8861 15.222
37.0743 15.5313
37.2626 15.2372
37.451 14.5726
37.6395 14.421
37.8281 14.2415
38.0168 14.0675
38.2056 14.2027
38.3945 13.7855
38.5837 13.4389
38.7728 13.5277
38.9621 13.3418
39.1514 13.278
39.3409 13.1479
39.5304 12.7423
39.7201 12.5405
39.9099 12.4946
40.0999 12.2901
40.2899 12.3927
40.48 12.3271
40.6703 12.0748
40.8607 11.9051
41.0512 11.7586
41.242 11.7211
41.4327 11.6916
41.6236 11.2875
41.8146 11.1595
42.0057 11.0258
42.1969 10.9752
42.3882 11.0137
42.5797 10.6326
42.7713 10.4023
42.963 10.2965
43.1549 10.1
43.3468 9.97341
43.5389 9.7819
43.7312 9.67586
43.9237 9.59642
44.1162 9.51066
44.3088 9.45101
44.5016 9.25965
44.6945 9.14194
44.8875 9.11375
45.0806 9.01166
45.2739 8.87126
45.4673 8.69194
45.6609 8.55004
45.8546 8.47017
46.0484 8.39338
46.2424 8.30843
46.4365 8.1339
46.631 8.0206
46.8254 7.90403
47.0199 7.8396
47.2146 7.67244
47.4095 7.56126
47.6044 7.43998
47.7996 7.3048
47.9948 7.29541
48.1902 7.13968
48.3858 7.04658
48.5815 6.93478
48.7774 6.81794
48.9734 6.75967
49.1696 6.63005
49.3661 6.5487
49.5626 6.47168
49.7592 6.38602
49.956 6.31117
50.153 6.21957
50.3501 6.1387
50.5474 6.06028
50.7448 5.95551
50.9424 5.85544
51.1402 5.78269
51.3381 5.68013
51.5362 5.62619
51.7344 5.50284
51.9328 5.41207
52.1316 5.294
52.3304 5.26161
52.5293 5.15224
52.7284 5.10865
52.9276 4.98063
53.1271 4.94956
53.3267 4.88247
53.5265 4.76069
53.7264 4.68237
53.9266 4.59026
54.1269 4.4829
54.3274 4.40857
54.528 4.26429
54.7289 4.11004
54.9301 4.01004
55.1314 3.92028
55.3328 3.74268
55.5344 3.60957
55.7361 3.58963