File: XRD/Ni3Fe_FD0695.xy
TT I
1.27165 7.31939
1.45013 6.05812
1.62863 4.97189
1.80712 4.97054
1.98562 4.34303
2.16411 4.71113
2.34263 5.19868
2.52115 6.58338
2.69965 8.29096
2.87818 9.16071
3.05672 11.1643
3.23527 15.4855
3.4138 18.8237
3.59237 23.367
3.77094 26.1437
3.9495 29.4958
4.12809 34.1398
4.30669 118.246
4.4853 55.7686
4.6639 55.6469
4.84253 68.1118
5.02118 87.7277
5.19981 430.235
5.37848 193.156
5.55716 102.137
5.73586 93.3634
5.91455 96.2244
6.09328 4620.58
6.27201 80.8082
6.45075 69.1204
6.62952 62.949
6.8083 58.856
6.98711 55.4311
7.16591 55.9366
7.34475 70.9536
7.5236 54.3511
7.70247 56.8203
7.88135 57.7635
8.06026 62.284
8.23919 69.3436
8.41812 84.5042
8.59709 1241.23
8.77609 98.4259
8.9551 89.5953
9.13412 82.7633
9.31318 84.176
9.49226 84.9231
9.67134 95.7487
9.85047 101.009
10.0296 366.32
10.2088 358.105
10.388 105.512
10.5672 515.363
10.7465 86.3412
10.9257 77.7358
11.105 71.625
11.2844 68.5534
11.4637 64.5364
11.6431 63.3762
11.8225 62.4586
12.002 64.4885
12.1814 156.173
12.3609 67.2102
12.5405 64.8062
12.72 68.3717
12.8996 71.344
13.0792 80.2234
13.2589 249.586
13.4386 120.527
13.6183 257.277
13.7981 93.5567
13.9779 76.0475
14.1577 71.9266
14.3376 70.4444
14.5175 69.1318
14.6974 70.6453
14.8774 114.356
15.0574 139.881
15.2374 69.8219
15.4175 66.3452
15.5976 65.8813
15.7778 97.0735
15.958 149.707
16.1382 61.525
16.3185 57.8376
16.4988 55.2731
16.6792 54.4357
16.8596 54.8699
17.04 55.8954
17.2205 67.0987
17.401 69.9424
17.5815 59.2237
17.7622 61.294
17.9428 74.3513
18.1237 142.103
18.3044 91.3173
18.4852 75.3063
18.666 60.2583
18.8469 57.8163
19.0278 56.8323
19.2088 59.3493
19.3898 76.1626
19.5709 54.0127
19.752 53.2457
19.9332 56.3639
20.1144 69.8365
20.2957 64.1435
20.477 52.8909
20.6586 49.4061
20.84 48.6676
21.0215 48.4711
21.203 50.8297
21.3846 48.6927
21.5662 48.874
21.7479 52.9224
21.9297 64.8073
22.1115 55.7755
22.2933 49.5481
22.4753 48.7027
22.6572 48.8498
22.8393 52.207
23.0214 57.0971
23.2037 48.6167
23.3859 49.9698
23.5682 57.306
23.7505 47.687
23.9329 45.162
24.1154 44.0666
24.2979 43.2927
24.4805 42.8748
24.6631 42.6511
24.8458 42.2087
25.0286 42.7564
25.2114 44.6509
25.3943 44.4455
25.5773 40.6942
25.7605 40.3968
25.9436 40.6899
26.1268 41.614
26.31 40.1437
26.4933 40.7409
26.6767 42.2705
26.8601 40.354
27.0437 38.7064
27.2272 38.477
27.4109 38.3263
27.5946 38.2683
27.7784 37.7556
27.9623 38.4089
28.1462 38.6275
28.3304 37.0009
28.5145 35.8926
28.6987 35.6287
28.8829 35.3051
29.0673 34.5285
29.2517 34.2405
29.4361 34.1235
29.6207 33.1472
29.8053 32.835
29.99 32.5575
30.1748 32.4573
30.3597 32.1601
30.5447 32.1159
30.7297 32.1313
30.915 31.6448
31.1002 31.0943
31.2855 30.8817
31.4708 30.8258
31.6563 30.2739
31.8418 30.1046
32.0275 29.7944
32.2132 29.2678
32.399 28.8482
32.5848 28.3859
32.7708 28.0683
32.9569 27.9603
33.143 27.6939
33.3293 27.2747
33.5158 26.9727
33.7022 26.5146
33.8887 26.316
34.0753 25.8605
34.262 25.5153
34.4488 25.2521
34.6357 24.9482
34.8227 24.6153
35.0098 24.4242
35.1969 24.1255
35.3842 23.9909
35.5716 23.7606
35.759 23.3997
35.9468 23.0953
36.1345 22.8463
36.3222 22.5768
36.5101 22.3686
36.6981 22.0746
36.8861 21.8922
37.0743 21.4209
37.2626 21.2503
37.451 20.9667
37.6395 20.817
37.8281 20.4149
38.0168 20.1888
38.2056 19.8986
38.3945 19.6729
38.5837 19.3659
38.7728 19.1789
38.9621 18.97
39.1514 18.6814
39.3409 18.4158
39.5304 18.1719
39.7201 17.9677
39.9099 17.8304
40.0999 17.5028
40.2899 17.2838
40.48 17.1315
40.6703 16.8752
40.8607 16.723
41.0512 16.4921
41.242 16.2263
41.4327 16.0424
41.6236 15.7925
41.8146 15.595
42.0057 15.3813
42.1969 15.1596
42.3882 15.0527
42.5797 14.7126
42.7713 14.6313
42.963 14.4129
43.1549 14.2191
43.3468 14.0448
43.5389 13.8306
43.7312 13.6
43.9237 13.4001
44.1162 13.2817
44.3088 13.0067
44.5016 12.9153
44.6945 12.6811
44.8875 12.5416
45.0806 12.3707
45.2739 12.2157
45.4673 12.0217
45.6609 11.8342
45.8546 11.6817
46.0484 11.4766
46.2424 11.3611
46.4365 11.1997
46.631 10.9943
46.8254 10.8304
47.0199 10.6582
47.2146 10.5428
47.4095 10.386
47.6044 10.2169
47.7996 10.0613
47.9948 9.91934
48.1902 9.79428
48.3858 9.67527
48.5815 9.51413
48.7774 9.36893
48.9734 9.24193
49.1696 9.09444
49.3661 8.91025
49.5626 8.76425
49.7592 8.68648
49.956 8.53985
50.153 8.43162
50.3501 8.29675
50.5474 8.18867
50.7448 8.02536
50.9424 7.89315
51.1402 7.79383
51.3381 7.64062
51.5362 7.55523
51.7344 7.45208
51.9328 7.29191
52.1316 7.14123
52.3304 7.04058
52.5293 6.93671
52.7284 6.83262
52.9276 6.70253
53.1271 6.57132
53.3267 6.4823
53.5265 6.35642
53.7264 6.26642
53.9266 6.2019
54.1269 6.02687
54.3274 5.93922
54.528 5.79614
54.7289 5.61591
54.9301 5.48847
55.1314 5.34862
55.3328 5.13573
55.5344 4.93415
55.7361 4.81831