File: XRD/Ni3Fe_FD0747.xy
TT I
1.27165 7.33241
1.45013 5.90624
1.62863 5.4079
1.80712 4.58056
1.98562 5.247
2.16411 5.44864
2.34263 6.00712
2.52115 7.38975
2.69965 8.32287
2.87818 9.0756
3.05672 11.3514
3.23527 15.4396
3.4138 18.4583
3.59237 24.2874
3.77094 26.082
3.9495 29.8563
4.12809 35.0649
4.30669 236.492
4.4853 67.221
4.6639 55.096
4.84253 66.6759
5.02118 85.3308
5.19981 314.007
5.37848 185.909
5.55716 101.244
5.73586 91.2513
5.91455 92.4457
6.09328 4431.67
6.27201 82.646
6.45075 66.941
6.62952 62.3483
6.8083 58.3592
6.98711 55.3837
7.16591 55.3071
7.34475 94.7893
7.5236 54.4745
7.70247 55.9286
7.88135 57.4581
8.06026 61.878
8.23919 69.2999
8.41812 84.5509
8.59709 1139.86
8.77609 98.6113
8.9551 91.6292
9.13412 81.381
9.31318 81.7103
9.49226 83.9163
9.67134 98.3594
9.85047 98.6729
10.0296 315.184
10.2088 408.286
10.388 103.663
10.5672 507.6
10.7465 86.0513
10.9257 77.7865
11.105 71.3909
11.2844 70.3016
11.4637 64.3279
11.6431 63.3559
11.8225 62.0245
12.002 63.1844
12.1814 150.822
12.3609 70.885
12.5405 63.9442
12.72 70.0633
12.8996 70.3565
13.0792 78.0391
13.2589 231.037
13.4386 126.452
13.6183 244.445
13.7981 98.2353
13.9779 75.348
14.1577 72.0986
14.3376 71.1835
14.5175 68.5135
14.6974 69.8011
14.8774 107.381
15.0574 153.053
15.2374 70.7266
15.4175 66.1569
15.5976 65.3049
15.7778 92.2737
15.958 158.347
16.1382 62.6345
16.3185 58.2894
16.4988 55.2041
16.6792 54.0179
16.8596 54.9239
17.04 55.4849
17.2205 65.9907
17.401 71.1272
17.5815 58.984
17.7622 60.8566
17.9428 72.1487
18.1237 139.345
18.3044 89.4471
18.4852 77.65
18.666 59.8823
18.8469 57.7423
19.0278 56.5586
19.2088 59.1109
19.3898 76.3234
19.5709 53.7944
19.752 52.8044
19.9332 55.6624
20.1144 69.5529
20.2957 63.599
20.477 53.555
20.6586 49.3622
20.84 48.6048
21.0215 48.4079
21.203 50.4125
21.3846 48.858
21.5662 48.2336
21.7479 52.1821
21.9297 64.1009
22.1115 55.8787
22.2933 49.6564
22.4753 48.8103
22.6572 48.4734
22.8393 51.4898
23.0214 57.158
23.2037 48.5531
23.3859 49.3479
23.5682 56.7296
23.7505 48.2008
23.9329 44.9623
24.1154 43.9219
24.2979 43.0946
24.4805 42.7122
24.6631 42.579
24.8458 41.8677
25.0286 42.5371
25.2114 44.4185
25.3943 44.4274
25.5773 40.6678
25.7605 40.2678
25.9436 40.5968
26.1268 41.4444
26.31 39.8694
26.4933 40.4645
26.6767 41.9499
26.8601 40.2353
27.0437 38.665
27.2272 38.3737
27.4109 38.0497
27.5946 38.1314
27.7784 37.6534
27.9623 38.1405
28.1462 38.6743
28.3304 37.0112
28.5145 35.6351
28.6987 35.5302
28.8829 35.2383
29.0673 34.5179
29.2517 34.1996
29.4361 34.0354
29.6207 32.9205
29.8053 32.685
29.99 32.4599
30.1748 32.2843
30.3597 32.002
30.5447 31.971
30.7297 32.0912
30.915 31.4368
31.1002 31.0693
31.2855 30.7293
31.4708 30.5438
31.6563 30.1554
31.8418 30.0445
32.0275 29.7848
32.2132 29.3113
32.399 28.8022
32.5848 28.4366
32.7708 27.9651
32.9569 27.8319
33.143 27.7575
33.3293 27.1852
33.5158 26.9516
33.7022 26.4341
33.8887 26.1371
34.0753 25.8495
34.262 25.4879
34.4488 25.1588
34.6357 24.892
34.8227 24.6022
35.0098 24.3344
35.1969 24.0701
35.3842 23.8619
35.5716 23.7276
35.759 23.4013
35.9468 23.0364
36.1345 22.7922
36.3222 22.5766
36.5101 22.2859
36.6981 21.9628
36.8861 21.7268
37.0743 21.3928
37.2626 21.1436
37.451 20.9147
37.6395 20.7919
37.8281 20.3225
38.0168 20.1777
38.2056 19.9614
38.3945 19.6109
38.5837 19.3819
38.7728 19.0477
38.9621 18.8565
39.1514 18.6093
39.3409 18.3842
39.5304 18.1392
39.7201 17.9418
39.9099 17.7902
40.0999 17.4733
40.2899 17.3181
40.48 17.0657
40.6703 16.9068
40.8607 16.6767
41.0512 16.3964
41.242 16.2011
41.4327 15.9965
41.6236 15.7851
41.8146 15.5845
42.0057 15.2922
42.1969 15.0816
42.3882 14.9646
42.5797 14.7594
42.7713 14.5547
42.963 14.4022
43.1549 14.1766
43.3468 13.9643
43.5389 13.8366
43.7312 13.557
43.9237 13.4103
44.1162 13.221
44.3088 13.0702
44.5016 12.8511
44.6945 12.6877
44.8875 12.4811
45.0806 12.3269
45.2739 12.1466
45.4673 11.9785
45.6609 11.8134
45.8546 11.643
46.0484 11.4584
46.2424 11.3192
46.4365 11.1502
46.631 10.9907
46.8254 10.8265
47.0199 10.6523
47.2146 10.529
47.4095 10.3931
47.6044 10.1561
47.7996 10.0763
47.9948 9.89469
48.1902 9.79696
48.3858 9.62933
48.5815 9.48998
48.7774 9.35903
48.9734 9.23487
49.1696 9.07348
49.3661 8.949
49.5626 8.77188
49.7592 8.66489
49.956 8.52018
50.153 8.37576
50.3501 8.2451
50.5474 8.16263
50.7448 8.01159
50.9424 7.90434
51.1402 7.77107
51.3381 7.64931
51.5362 7.53126
51.7344 7.38272
51.9328 7.26684
52.1316 7.14825
52.3304 7.03268
52.5293 6.95331
52.7284 6.77635
52.9276 6.67525
53.1271 6.59158
53.3267 6.46105
53.5265 6.36005
53.7264 6.22285
53.9266 6.14831
54.1269 6.02957
54.3274 5.92056
54.528 5.76621
54.7289 5.63932
54.9301 5.42991
55.1314 5.35141
55.3328 5.15165
55.5344 4.95443
55.7361 4.74339