File: XRD/Ni3Fe_FD0141.xy
TT I
1.27165 7.74759
1.45013 6.61974
1.62863 5.54439
1.80712 4.61251
1.98562 5.16507
2.16411 4.33231
2.34263 4.50491
2.52115 4.02002
2.69965 5.28753
2.87818 7.78309
3.05672 11.0073
3.23527 15.1664
3.4138 18.4347
3.59237 21.3952
3.77094 24.7723
3.9495 28.8218
4.12809 32.0044
4.30669 37.7311
4.4853 44.5345
4.6639 53.6438
4.84253 65.5156
5.02118 90.5649
5.19981 558.23
5.37848 470.88
5.55716 108.072
5.73586 95.2817
5.91455 105.46
6.09328 2663.15
6.27201 89.3702
6.45075 66.4074
6.62952 59.7539
6.8083 55.4451
6.98711 53.3935
7.16591 52.1218
7.34475 52.0001
7.5236 55.7572
7.70247 53.6452
7.88135 55.94
8.06026 60.3398
8.23919 67.6614
8.41812 83.556
8.59709 865.0
8.77609 117.978
8.9551 84.9486
9.13412 81.0402
9.31318 86.9061
9.49226 82.9575
9.67134 87.795
9.85047 98.4989
10.0296 548.047
10.2088 1017.74
10.388 104.241
10.5672 323.671
10.7465 90.1139
10.9257 75.4701
11.105 69.7647
11.2844 65.6728
11.4637 63.0902
11.6431 61.8063
11.8225 61.0687
12.002 65.3805
12.1814 115.753
12.3609 75.2272
12.5405 62.8065
12.72 64.6327
12.8996 69.5885
13.0792 78.8498
13.2589 201.587
13.4386 216.816
13.6183 188.905
13.7981 154.495
13.9779 75.4944
14.1577 74.0955
14.3376 68.6172
14.5175 68.0022
14.6974 69.2312
14.8774 120.625
15.0574 204.843
15.2374 68.7737
15.4175 65.6822
15.5976 65.1125
15.7778 107.054
15.958 184.272
16.1382 61.4651
16.3185 56.8949
16.4988 54.6617
16.6792 53.726
16.8596 53.8685
17.04 54.9022
17.2205 64.5222
17.401 80.6389
17.5815 58.6476
17.7622 61.0949
17.9428 83.5081
18.1237 112.537
18.3044 87.9159
18.4852 95.4348
18.666 60.592
18.8469 57.8226
19.0278 56.392
19.2088 61.5178
19.3898 68.4059
19.5709 56.3951
19.752 53.0915
19.9332 58.0158
20.1144 66.3125
20.2957 60.6249
20.477 59.4572
20.6586 49.5761
20.84 48.7614
21.0215 48.7779
21.203 49.5098
21.3846 50.2165
21.5662 48.8177
21.7479 53.8459
21.9297 61.4861
22.1115 56.1218
22.2933 52.4293
22.4753 48.6269
22.6572 48.8625
22.8393 51.7661
23.0214 56.6997
23.2037 49.7441
23.3859 51.6518
23.5682 53.3211
23.7505 53.3581
23.9329 45.4556
24.1154 44.2895
24.2979 43.4066
24.4805 42.7871
24.6631 43.0136
24.8458 42.3904
25.0286 42.9846
25.2114 44.44
25.3943 44.6659
25.5773 41.7771
25.7605 40.5285
25.9436 40.9226
26.1268 41.4538
26.31 40.8549
26.4933 40.7946
26.6767 41.7789
26.8601 41.2067
27.0437 39.2895
27.2272 38.8385
27.4109 38.375
27.5946 38.5501
27.7784 38.3649
27.9623 38.3689
28.1462 39.1417
28.3304 37.8504
28.5145 36.365
28.6987 35.7292
28.8829 35.4136
29.0673 35.0587
29.2517 34.4204
29.4361 34.1942
29.6207 33.5308
29.8053 32.9947
29.99 32.6447
30.1748 32.42
30.3597 32.4876
30.5447 32.2437
30.7297 32.2074
30.915 32.0052
31.1002 31.3551
31.2855 31.0021
31.4708 30.8679
31.6563 30.8583
31.8418 30.2148
32.0275 30.0879
32.2132 29.6405
32.399 29.0539
32.5848 28.584
32.7708 28.2864
32.9569 28.1573
33.143 27.9096
33.3293 27.5398
33.5158 27.1704
33.7022 26.7281
33.8887 26.3938
34.0753 26.0669
34.262 25.6735
34.4488 25.4166
34.6357 25.0481
34.8227 24.7316
35.0098 24.5758
35.1969 24.2522
35.3842 24.0363
35.5716 23.8534
35.759 23.4744
35.9468 23.183
36.1345 22.9904
36.3222 22.7296
36.5101 22.5281
36.6981 22.2052
36.8861 21.8771
37.0743 21.6235
37.2626 21.3638
37.451 21.0271
37.6395 20.85
37.8281 20.5463
38.0168 20.281
38.2056 19.9985
38.3945 19.7298
38.5837 19.4605
38.7728 19.3664
38.9621 19.0058
39.1514 18.7645
39.3409 18.5584
39.5304 18.2913
39.7201 18.0839
39.9099 17.9377
40.0999 17.5784
40.2899 17.4461
40.48 17.2111
40.6703 16.9704
40.8607 16.7674
41.0512 16.5222
41.242 16.3607
41.4327 16.0562
41.6236 15.8396
41.8146 15.632
42.0057 15.4949
42.1969 15.2284
42.3882 15.0792
42.5797 14.8847
42.7713 14.7146
42.963 14.4382
43.1549 14.3053
43.3468 14.0158
43.5389 13.853
43.7312 13.6453
43.9237 13.5178
44.1162 13.2791
44.3088 13.1143
44.5016 12.932
44.6945 12.7658
44.8875 12.5756
45.0806 12.3856
45.2739 12.232
45.4673 12.122
45.6609 11.8565
45.8546 11.7517
46.0484 11.5622
46.2424 11.355
46.4365 11.1894
46.631 11.0314
46.8254 10.9169
47.0199 10.7274
47.2146 10.6177
47.4095 10.3932
47.6044 10.2321
47.7996 10.1393
47.9948 9.9257
48.1902 9.81425
48.3858 9.67613
48.5815 9.54535
48.7774 9.43434
48.9734 9.27798
49.1696 9.13268
49.3661 8.9902
49.5626 8.84979
49.7592 8.71736
49.956 8.56816
50.153 8.46091
50.3501 8.33248
50.5474 8.23117
50.7448 8.07919
50.9424 7.95429
51.1402 7.8006
51.3381 7.68607
51.5362 7.59294
51.7344 7.46886
51.9328 7.3427
52.1316 7.19198
52.3304 7.11827
52.5293 6.98551
52.7284 6.89859
52.9276 6.75045
53.1271 6.66246
53.3267 6.51066
53.5265 6.42003
53.7264 6.32382
53.9266 6.15935
54.1269 6.05563
54.3274 5.97114
54.528 5.76516
54.7289 5.61876
54.9301 5.42364
55.1314 5.28516
55.3328 5.0609
55.5344 4.82134
55.7361 4.75171