File: XRD/Ni3Fe_FD0966.xy
TT I
1.27165 7.2929
1.45013 6.01174
1.62863 5.33335
1.80712 4.6942
1.98562 5.12953
2.16411 5.18863
2.34263 5.92831
2.52115 7.21658
2.69965 8.67294
2.87818 8.87009
3.05672 11.0385
3.23527 14.9472
3.4138 18.9923
3.59237 23.6156
3.77094 26.3517
3.9495 29.6534
4.12809 33.9984
4.30669 195.484
4.4853 62.8973
4.6639 54.8703
4.84253 66.7696
5.02118 84.6722
5.19981 281.377
5.37848 172.743
5.55716 99.4857
5.73586 90.3171
5.91455 90.5695
6.09328 4642.73
6.27201 80.4285
6.45075 66.5255
6.62952 61.7412
6.8083 57.5373
6.98711 55.1273
7.16591 54.6052
7.34475 86.477
7.5236 54.0458
7.70247 55.344
7.88135 56.9336
8.06026 61.0606
8.23919 68.4247
8.41812 83.2998
8.59709 1153.3
8.77609 96.2599
8.9551 89.543
9.13412 80.4924
9.31318 81.0595
9.49226 82.9211
9.67134 95.754
9.85047 97.8853
10.0296 303.231
10.2088 358.784
10.388 101.972
10.5672 525.43
10.7465 84.8999
10.9257 76.9495
11.105 70.4949
11.2844 68.9458
11.4637 63.7421
11.6431 62.5237
11.8225 61.285
12.002 62.2358
12.1814 155.231
12.3609 68.4655
12.5405 63.2958
12.72 68.2344
12.8996 69.4649
13.0792 77.1617
13.2589 234.811
13.4386 118.88
13.6183 248.46
13.7981 94.1577
13.9779 74.526
14.1577 71.1176
14.3376 70.0603
14.5175 67.5679
14.6974 68.7575
14.8774 106.571
15.0574 145.845
15.2374 69.3902
15.4175 64.923
15.5976 64.4613
15.7778 91.0154
15.958 149.33
16.1382 61.1342
16.3185 57.4352
16.4988 54.5059
16.6792 53.5001
16.8596 54.0163
17.04 54.554
17.2205 65.2868
17.401 68.9863
17.5815 57.9045
17.7622 59.9885
17.9428 71.1356
18.1237 137.095
18.3044 89.8504
18.4852 74.9851
18.666 59.2495
18.8469 56.9642
19.0278 55.7139
19.2088 57.9549
19.3898 74.8409
19.5709 53.2037
19.752 52.0214
19.9332 54.8888
20.1144 68.6369
20.2957 63.4991
20.477 52.3833
20.6586 48.7824
20.84 47.9965
21.0215 47.6177
21.203 50.123
21.3846 48.1244
21.5662 47.7529
21.7479 51.3209
21.9297 63.5019
22.1115 55.2666
22.2933 48.8798
22.4753 47.9284
22.6572 47.8293
22.8393 50.9935
23.0214 55.8838
23.2037 47.8001
23.3859 48.588
23.5682 56.4545
23.7505 47.2736
23.9329 44.2255
24.1154 43.2182
24.2979 42.589
24.4805 42.1425
24.6631 42.0301
24.8458 41.3574
25.0286 41.8756
25.2114 43.6933
25.3943 43.6663
25.5773 40.2188
25.7605 39.6577
25.9436 40.0897
26.1268 40.9355
26.31 39.3192
26.4933 39.9414
26.6767 41.3539
26.8601 39.6188
27.0437 38.1393
27.2272 37.8578
27.4109 37.7162
27.5946 37.6703
27.7784 37.0781
27.9623 37.7972
28.1462 38.0696
28.3304 36.4796
28.5145 35.3693
28.6987 35.0575
28.8829 34.7849
29.0673 34.044
29.2517 33.6797
29.4361 33.4375
29.6207 32.6211
29.8053 32.2798
29.99 32.0021
30.1748 31.8237
30.3597 31.6271
30.5447 31.6179
30.7297 31.6556
30.915 31.0039
31.1002 30.5359
31.2855 30.2622
31.4708 30.2981
31.6563 29.8134
31.8418 29.5802
32.0275 29.3719
32.2132 28.8404
32.399 28.385
32.5848 28.0175
32.7708 27.6165
32.9569 27.4492
33.143 27.2943
33.3293 26.9014
33.5158 26.5282
33.7022 26.1002
33.8887 25.8341
34.0753 25.5088
34.262 25.1624
34.4488 24.887
34.6357 24.5999
34.8227 24.3021
35.0098 24.0676
35.1969 23.8069
35.3842 23.6017
35.5716 23.3849
35.759 23.0771
35.9468 22.6691
36.1345 22.5162
36.3222 22.2824
36.5101 22.0507
36.6981 21.6778
36.8861 21.4141
37.0743 21.1109
37.2626 20.9035
37.451 20.6052
37.6395 20.4998
37.8281 20.0913
38.0168 19.863
38.2056 19.6087
38.3945 19.358
38.5837 19.0376
38.7728 18.8633
38.9621 18.6362
39.1514 18.4034
39.3409 18.1051
39.5304 17.9532
39.7201 17.7967
39.9099 17.5836
40.0999 17.2956
40.2899 17.0634
40.48 16.7162
40.6703 16.6217
40.8607 16.4316
41.0512 16.2486
41.242 15.9722
41.4327 15.7594
41.6236 15.5971
41.8146 15.3762
42.0057 15.1293
42.1969 14.9208
42.3882 14.7861
42.5797 14.6113
42.7713 14.357
42.963 14.1583
43.1549 13.9326
43.3468 13.7577
43.5389 13.5355
43.7312 13.3989
43.9237 13.2389
44.1162 13.008
44.3088 12.8346
44.5016 12.6695
44.6945 12.521
44.8875 12.3739
45.0806 12.1954
45.2739 12.0102
45.4673 11.8319
45.6609 11.6598
45.8546 11.5259
46.0484 11.2962
46.2424 11.1678
46.4365 11.0523
46.631 10.856
46.8254 10.688
47.0199 10.502
47.2146 10.3761
47.4095 10.1841
47.6044 10.0622
47.7996 9.91828
47.9948 9.74406
48.1902 9.61985
48.3858 9.50117
48.5815 9.36284
48.7774 9.21326
48.9734 9.07235
49.1696 8.94172
49.3661 8.7857
49.5626 8.64506
49.7592 8.51459
49.956 8.42513
50.153 8.28242
50.3501 8.15345
50.5474 8.0236
50.7448 7.93572
50.9424 7.80578
51.1402 7.68485
51.3381 7.56312
51.5362 7.43344
51.7344 7.30241
51.9328 7.20732
52.1316 7.04017
52.3304 6.92928
52.5293 6.86732
52.7284 6.70897
52.9276 6.64149
53.1271 6.51564
53.3267 6.37436
53.5265 6.2878
53.7264 6.14783
53.9266 6.0311
54.1269 5.95572
54.3274 5.88159
54.528 5.73064
54.7289 5.54315
54.9301 5.38479
55.1314 5.27142
55.3328 5.04582
55.5344 4.90405
55.7361 4.71549