File: XRD/Ni3Fe_FD0450.xy
TT I
1.27165 7.53096
1.45013 6.58843
1.62863 4.78558
1.80712 5.08271
1.98562 4.66447
2.16411 4.8583
2.34263 5.44211
2.52115 6.49077
2.69965 8.3279
2.87818 8.10381
3.05672 11.5744
3.23527 14.9934
3.4138 19.042
3.59237 23.7391
3.77094 26.3868
3.9495 30.1892
4.12809 35.0579
4.30669 147.313
4.4853 59.0462
4.6639 56.6581
4.84253 68.9339
5.02118 90.4148
5.19981 502.629
5.37848 203.636
5.55716 104.732
5.73586 94.776
5.91455 99.0885
6.09328 4307.39
6.27201 84.5972
6.45075 68.7709
6.62952 63.5001
6.8083 59.1887
6.98711 56.6858
7.16591 56.0
7.34475 78.0387
7.5236 55.5296
7.70247 57.2438
7.88135 58.6053
8.06026 63.6959
8.23919 70.8784
8.41812 87.1238
8.59709 1241.98
8.77609 101.95
8.9551 90.9151
9.13412 83.7431
9.31318 84.6397
9.49226 86.492
9.67134 97.7448
9.85047 102.25
10.0296 406.054
10.2088 413.863
10.388 107.869
10.5672 504.929
10.7465 88.601
10.9257 79.2133
11.105 72.9233
11.2844 70.5481
11.4637 66.0549
11.6431 64.7585
11.8225 63.5993
12.002 65.172
12.1814 156.036
12.3609 69.8062
12.5405 65.49
12.72 69.8255
12.8996 72.1553
13.0792 81.6564
13.2589 249.749
13.4386 125.251
13.6183 251.678
13.7981 98.3551
13.9779 77.3318
14.1577 73.5055
14.3376 72.354
14.5175 70.377
14.6974 72.0834
14.8774 117.638
15.0574 149.321
15.2374 71.6368
15.4175 67.713
15.5976 67.5181
15.7778 100.993
15.958 155.768
16.1382 63.1679
16.3185 59.1673
16.4988 56.4575
16.6792 55.4321
16.8596 56.0531
17.04 57.1525
17.2205 68.6313
17.401 71.7263
17.5815 60.2537
17.7622 62.4709
17.9428 77.0136
18.1237 138.412
18.3044 91.9818
18.4852 77.791
18.666 61.4306
18.8469 58.9603
19.0278 57.8225
19.2088 60.9542
19.3898 77.0388
19.5709 55.1071
19.752 54.4162
19.9332 57.7451
20.1144 70.7723
20.2957 64.318
20.477 54.3491
20.6586 50.4427
20.84 49.6146
21.0215 49.5994
21.203 51.43
21.3846 49.8732
21.5662 49.8305
21.7479 53.8989
21.9297 65.4068
22.1115 56.6461
22.2933 50.6097
22.4753 49.684
22.6572 49.9528
22.8393 53.181
23.0214 58.1628
23.2037 49.7035
23.3859 50.9778
23.5682 57.3478
23.7505 48.9139
23.9329 46.0848
24.1154 44.9046
24.2979 44.2533
24.4805 43.6731
24.6631 43.6127
24.8458 42.9989
25.0286 43.8468
25.2114 45.483
25.3943 45.2978
25.5773 41.614
25.7605 41.1629
25.9436 41.5369
26.1268 42.42
26.31 40.7499
26.4933 41.4658
26.6767 42.794
26.8601 41.0367
27.0437 39.508
27.2272 39.2395
27.4109 39.0547
27.5946 39.104
27.7784 38.6393
27.9623 38.9735
28.1462 39.4285
28.3304 37.7926
28.5145 36.6099
28.6987 36.1368
28.8829 35.9479
29.0673 35.2906
29.2517 34.9138
29.4361 34.7556
29.6207 33.4803
29.8053 33.446
29.99 33.1354
30.1748 33.1072
30.3597 32.8681
30.5447 32.6776
30.7297 32.6472
30.915 32.1558
31.1002 31.5907
31.2855 31.3678
31.4708 31.4112
31.6563 30.8459
31.8418 30.6208
32.0275 30.3821
32.2132 29.8812
32.399 29.4029
32.5848 28.8939
32.7708 28.6653
32.9569 28.4734
33.143 28.248
33.3293 27.8648
33.5158 27.6132
33.7022 27.0062
33.8887 26.7537
34.0753 26.4884
34.262 26.105
34.4488 25.6128
34.6357 25.3045
34.8227 25.1067
35.0098 24.831
35.1969 24.6217
35.3842 24.3568
35.5716 24.1832
35.759 23.87
35.9468 23.5187
36.1345 23.2274
36.3222 22.9187
36.5101 22.7981
36.6981 22.5061
36.8861 22.1149
37.0743 21.8684
37.2626 21.5977
37.451 21.3569
37.6395 21.1151
37.8281 20.8389
38.0168 20.5714
38.2056 20.2628
38.3945 20.0853
38.5837 19.7759
38.7728 19.515
38.9621 19.2284
39.1514 18.9981
39.3409 18.7585
39.5304 18.5702
39.7201 18.3422
39.9099 18.0925
40.0999 17.8811
40.2899 17.7078
40.48 17.3851
40.6703 17.1282
40.8607 17.0076
41.0512 16.7954
41.242 16.5503
41.4327 16.3257
41.6236 16.034
41.8146 15.8866
42.0057 15.6795
42.1969 15.4913
42.3882 15.2646
42.5797 15.0702
42.7713 14.876
42.963 14.5918
43.1549 14.4384
43.3468 14.2283
43.5389 14.0558
43.7312 13.8878
43.9237 13.649
44.1162 13.4163
44.3088 13.2863
44.5016 13.1255
44.6945 12.9041
44.8875 12.711
45.0806 12.5097
45.2739 12.373
45.4673 12.1982
45.6609 12.0041
45.8546 11.8632
46.0484 11.6994
46.2424 11.5247
46.4365 11.4102
46.631 11.1859
46.8254 11.0216
47.0199 10.8437
47.2146 10.724
47.4095 10.5663
47.6044 10.381
47.7996 10.2069
47.9948 10.0771
48.1902 9.96953
48.3858 9.79156
48.5815 9.65476
48.7774 9.53464
48.9734 9.41187
49.1696 9.26618
49.3661 9.10138
49.5626 8.9119
49.7592 8.86114
49.956 8.71159
50.153 8.57103
50.3501 8.41749
50.5474 8.29928
50.7448 8.18338
50.9424 8.06556
51.1402 7.90728
51.3381 7.81076
51.5362 7.70445
51.7344 7.57887
51.9328 7.43357
52.1316 7.28254
52.3304 7.19698
52.5293 7.06164
52.7284 6.9726
52.9276 6.85258
53.1271 6.68778
53.3267 6.56928
53.5265 6.48735
53.7264 6.36509
53.9266 6.28668
54.1269 6.10732
54.3274 6.01968
54.528 5.87413
54.7289 5.71576
54.9301 5.57806
55.1314 5.45466
55.3328 5.23843
55.5344 5.08034
55.7361 4.90674