File: XRD/Ni3Fe_FD0643.xy
TT I
1.27165 7.19601
1.45013 6.2428
1.62863 5.44329
1.80712 4.8847
1.98562 4.73299
2.16411 4.98995
2.34263 5.48908
2.52115 6.74145
2.69965 7.86883
2.87818 8.11674
3.05672 11.0997
3.23527 15.6262
3.4138 19.1577
3.59237 24.6855
3.77094 26.4703
3.9495 29.7899
4.12809 35.535
4.30669 266.922
4.4853 70.6895
4.6639 55.7213
4.84253 67.5587
5.02118 86.1508
5.19981 333.449
5.37848 197.072
5.55716 102.383
5.73586 92.1143
5.91455 93.646
6.09328 4309.72
6.27201 84.411
6.45075 67.4457
6.62952 63.4796
6.8083 59.0018
6.98711 56.4004
7.16591 56.0298
7.34475 103.119
7.5236 55.3665
7.70247 56.5473
7.88135 57.9574
8.06026 62.5381
8.23919 69.6968
8.41812 85.3558
8.59709 1097.54
8.77609 100.143
8.9551 93.1211
9.13412 82.0623
9.31318 82.6604
9.49226 84.6199
9.67134 100.985
9.85047 99.6731
10.0296 324.42
10.2088 443.724
10.388 105.323
10.5672 496.377
10.7465 86.967
10.9257 79.0291
11.105 72.2719
11.2844 71.497
11.4637 65.0823
11.6431 64.1323
11.8225 62.7456
12.002 63.2448
12.1814 146.807
12.3609 72.6193
12.5405 64.7283
12.72 71.1334
12.8996 71.0208
13.0792 78.8544
13.2589 226.735
13.4386 129.399
13.6183 237.788
13.7981 100.419
13.9779 76.3203
14.1577 73.0968
14.3376 72.3167
14.5175 68.8455
14.6974 70.5285
14.8774 107.2
15.0574 152.453
15.2374 71.9725
15.4175 66.4286
15.5976 66.1956
15.7778 92.6393
15.958 161.488
16.1382 63.3089
16.3185 59.2584
16.4988 55.6065
16.6792 54.9618
16.8596 55.6146
17.04 55.7416
17.2205 66.1379
17.401 72.4204
17.5815 59.491
17.7622 61.3267
17.9428 72.8574
18.1237 139.096
18.3044 89.3718
18.4852 79.0972
18.666 60.6415
18.8469 58.1208
19.0278 57.0848
19.2088 59.5737
19.3898 76.66
19.5709 54.6007
19.752 53.5745
19.9332 56.2444
20.1144 69.9324
20.2957 63.6871
20.477 54.1444
20.6586 49.7952
20.84 48.887
21.0215 48.7141
21.203 50.8066
21.3846 49.2266
21.5662 48.7536
21.7479 52.5615
21.9297 64.9038
22.1115 56.0999
22.2933 50.0887
22.4753 49.1316
22.6572 48.8774
22.8393 51.725
23.0214 57.9203
23.2037 49.025
23.3859 49.6432
23.5682 56.8128
23.7505 48.5748
23.9329 45.405
24.1154 44.4118
24.2979 43.5713
24.4805 42.9574
24.6631 43.0495
24.8458 42.3043
25.0286 42.7066
25.2114 44.6962
25.3943 44.8349
25.5773 41.1361
25.7605 40.6464
25.9436 40.9103
26.1268 41.8987
26.31 40.1852
26.4933 40.728
26.6767 42.3292
26.8601 40.5636
27.0437 39.1151
27.2272 38.6884
27.4109 38.5818
27.5946 38.5167
27.7784 38.0032
27.9623 38.5892
28.1462 38.9009
28.3304 37.3784
28.5145 36.1884
28.6987 35.7264
28.8829 35.5177
29.0673 34.844
29.2517 34.398
29.4361 34.2327
29.6207 33.3915
29.8053 33.1283
29.99 32.6599
30.1748 32.5545
30.3597 32.4362
30.5447 32.3674
30.7297 32.3115
30.915 31.7672
31.1002 31.2074
31.2855 30.9705
31.4708 30.9748
31.6563 30.319
31.8418 30.1504
32.0275 30.0695
32.2132 29.57
32.399 29.0994
32.5848 28.5456
32.7708 28.2136
32.9569 28.1733
33.143 27.8217
33.3293 27.4523
33.5158 27.1277
33.7022 26.6685
33.8887 26.4232
34.0753 26.1232
34.262 25.7442
34.4488 25.4148
34.6357 25.0866
34.8227 24.8233
35.0098 24.536
35.1969 24.3354
35.3842 24.0622
35.5716 23.8036
35.759 23.599
35.9468 23.2349
36.1345 22.9728
36.3222 22.762
36.5101 22.5652
36.6981 22.247
36.8861 21.8786
37.0743 21.6102
37.2626 21.3563
37.451 21.0909
37.6395 20.9372
37.8281 20.534
38.0168 20.2521
38.2056 20.0126
38.3945 19.667
38.5837 19.5478
38.7728 19.2438
38.9621 18.9879
39.1514 18.7834
39.3409 18.5635
39.5304 18.3194
39.7201 18.1563
39.9099 17.8608
40.0999 17.6031
40.2899 17.4145
40.48 17.2673
40.6703 17.0067
40.8607 16.7844
41.0512 16.5773
41.242 16.3321
41.4327 16.1575
41.6236 15.8349
41.8146 15.7289
42.0057 15.4737
42.1969 15.2387
42.3882 15.096
42.5797 14.9272
42.7713 14.6951
42.963 14.4601
43.1549 14.2967
43.3468 14.114
43.5389 13.9316
43.7312 13.6785
43.9237 13.5196
44.1162 13.3137
44.3088 13.1903
44.5016 12.9412
44.6945 12.7829
44.8875 12.6146
45.0806 12.4301
45.2739 12.2811
45.4673 12.097
45.6609 11.94
45.8546 11.768
46.0484 11.5681
46.2424 11.4484
46.4365 11.2721
46.631 11.0503
46.8254 10.9158
47.0199 10.7843
47.2146 10.6285
47.4095 10.4599
47.6044 10.3101
47.7996 10.14
47.9948 9.99318
48.1902 9.86157
48.3858 9.68144
48.5815 9.57523
48.7774 9.46834
48.9734 9.28782
49.1696 9.11844
49.3661 8.98564
49.5626 8.9064
49.7592 8.7373
49.956 8.60621
50.153 8.49371
50.3501 8.35885
50.5474 8.21874
50.7448 8.08183
50.9424 8.00012
51.1402 7.85307
51.3381 7.72325
51.5362 7.6158
51.7344 7.48444
51.9328 7.33656
52.1316 7.19746
52.3304 7.11367
52.5293 6.97158
52.7284 6.86518
52.9276 6.7845
53.1271 6.66849
53.3267 6.53443
53.5265 6.44526
53.7264 6.3067
53.9266 6.19221
54.1269 6.08091
54.3274 6.00164
54.528 5.82979
54.7289 5.67414
54.9301 5.51182
55.1314 5.46549
55.3328 5.19515
55.5344 4.99445
55.7361 4.83417