File: XRD/Ni3Fe_FD0715.xy
TT I
1.27165 7.42234
1.45013 5.84156
1.62863 5.10754
1.80712 5.20834
1.98562 4.22168
2.16411 4.67042
2.34263 4.95194
2.52115 7.36557
2.69965 7.91245
2.87818 8.7644
3.05672 10.5361
3.23527 15.1126
3.4138 18.6839
3.59237 23.0907
3.77094 25.983
3.9495 29.3663
4.12809 34.2545
4.30669 98.6567
4.4853 53.2969
4.6639 55.4267
4.84253 68.6843
5.02118 87.3139
5.19981 431.048
5.37848 199.371
5.55716 102.852
5.73586 93.2307
5.91455 96.1954
6.09328 4609.78
6.27201 80.5184
6.45075 69.8078
6.62952 62.8028
6.8083 59.344
6.98711 55.3584
7.16591 55.8939
7.34475 66.0663
7.5236 54.4874
7.70247 56.77
7.88135 57.4956
8.06026 62.5841
8.23919 69.3191
8.41812 83.881
8.59709 1253.97
8.77609 98.3128
8.9551 89.3868
9.13412 82.7923
9.31318 85.076
9.49226 84.9595
9.67134 95.4407
9.85047 101.821
10.0296 365.622
10.2088 359.546
10.388 105.915
10.5672 515.522
10.7465 86.3411
10.9257 77.8063
11.105 71.2722
11.2844 68.3783
11.4637 64.6347
11.6431 63.2829
11.8225 62.6319
12.002 64.4609
12.1814 156.418
12.3609 66.628
12.5405 64.7086
12.72 68.072
12.8996 71.6568
13.0792 80.8133
13.2589 250.54
13.4386 120.995
13.6183 260.066
13.7981 94.1206
13.9779 75.6874
14.1577 71.7623
14.3376 69.9833
14.5175 68.7793
14.6974 70.5762
14.8774 114.495
15.0574 139.579
15.2374 69.4098
15.4175 66.2048
15.5976 66.1278
15.7778 97.3238
15.958 148.348
16.1382 61.2683
16.3185 57.5984
16.4988 55.2287
16.6792 54.2384
16.8596 54.6916
17.04 55.849
17.2205 67.3872
17.401 69.7279
17.5815 59.17
17.7622 61.3665
17.9428 74.6802
18.1237 141.778
18.3044 91.59
18.4852 74.5856
18.666 60.0802
18.8469 58.0752
19.0278 56.6818
19.2088 59.4426
19.3898 75.9714
19.5709 53.9576
19.752 53.0631
19.9332 56.2171
20.1144 69.5513
20.2957 64.2248
20.477 52.7539
20.6586 49.4584
20.84 48.7055
21.0215 48.4491
21.203 50.7911
21.3846 48.7112
21.5662 48.8983
21.7479 52.9442
21.9297 64.958
22.1115 55.9965
22.2933 49.5722
22.4753 48.6265
22.6572 48.8836
22.8393 52.2423
23.0214 56.9889
23.2037 48.7562
23.3859 49.7581
23.5682 57.2489
23.7505 47.8004
23.9329 45.0829
24.1154 43.9582
24.2979 43.2406
24.4805 42.8635
24.6631 42.6217
24.8458 42.1684
25.0286 42.8764
25.2114 44.6122
25.3943 44.4026
25.5773 40.7331
25.7605 40.3504
25.9436 40.8598
26.1268 41.6602
26.31 39.9599
26.4933 40.6751
26.6767 42.11
26.8601 40.3225
27.0437 38.7543
27.2272 38.4923
27.4109 38.2567
27.5946 38.2952
27.7784 37.7756
27.9623 38.3661
28.1462 38.5633
28.3304 37.0346
28.5145 35.9217
28.6987 35.5584
28.8829 35.3538
29.0673 34.4939
29.2517 34.297
29.4361 34.1135
29.6207 33.1248
29.8053 32.8822
29.99 32.5584
30.1748 32.3423
30.3597 32.1594
30.5447 32.0809
30.7297 32.0825
30.915 31.5335
31.1002 31.0833
31.2855 30.8405
31.4708 30.6947
31.6563 30.2819
31.8418 30.065
32.0275 29.7756
32.2132 29.2382
32.399 28.8985
32.5848 28.3205
32.7708 28.0306
32.9569 27.954
33.143 27.7769
33.3293 27.3153
33.5158 26.97
33.7022 26.4872
33.8887 26.1934
34.0753 25.9353
34.262 25.4919
34.4488 25.2302
34.6357 25.0071
34.8227 24.6235
35.0098 24.4761
35.1969 24.0617
35.3842 23.8859
35.5716 23.6309
35.759 23.422
35.9468 23.041
36.1345 22.8186
36.3222 22.5772
36.5101 22.4007
36.6981 22.0214
36.8861 21.7848
37.0743 21.3252
37.2626 21.1822
37.451 20.8664
37.6395 20.7728
37.8281 20.3922
38.0168 20.1257
38.2056 19.8986
38.3945 19.6598
38.5837 19.4154
38.7728 19.1077
38.9621 18.9075
39.1514 18.6411
39.3409 18.3806
39.5304 18.1863
39.7201 18.0008
39.9099 17.7612
40.0999 17.5284
40.2899 17.2899
40.48 17.0426
40.6703 16.8545
40.8607 16.6993
41.0512 16.4322
41.242 16.2245
41.4327 15.9819
41.6236 15.7309
41.8146 15.605
42.0057 15.3741
42.1969 15.1951
42.3882 14.9971
42.5797 14.722
42.7713 14.5664
42.963 14.386
43.1549 14.1269
43.3468 13.989
43.5389 13.7582
43.7312 13.5924
43.9237 13.408
44.1162 13.2337
44.3088 13.0193
44.5016 12.8459
44.6945 12.715
44.8875 12.5177
45.0806 12.3142
45.2739 12.1385
45.4673 12.0032
45.6609 11.8087
45.8546 11.6461
46.0484 11.5046
46.2424 11.2761
46.4365 11.1723
46.631 10.9739
46.8254 10.8217
47.0199 10.6612
47.2146 10.5151
47.4095 10.3514
47.6044 10.2052
47.7996 10.0515
47.9948 9.89236
48.1902 9.76186
48.3858 9.64714
48.5815 9.47587
48.7774 9.33504
48.9734 9.205
49.1696 9.04922
49.3661 8.90788
49.5626 8.74669
49.7592 8.66763
49.956 8.5211
50.153 8.40066
50.3501 8.24054
50.5474 8.17534
50.7448 8.04785
50.9424 7.8919
51.1402 7.77175
51.3381 7.63852
51.5362 7.5134
51.7344 7.37752
51.9328 7.26699
52.1316 7.11076
52.3304 7.029
52.5293 6.96073
52.7284 6.85388
52.9276 6.67498
53.1271 6.60427
53.3267 6.52331
53.5265 6.37567
53.7264 6.25167
53.9266 6.11499
54.1269 6.02494
54.3274 5.94072
54.528 5.73124
54.7289 5.62027
54.9301 5.45804
55.1314 5.31291
55.3328 5.13763
55.5344 4.92131
55.7361 4.80655