File: XRD/Ni3Fe_FD0025.xy
TT I
1.27165 34.4959
1.45013 28.7358
1.62863 25.4373
1.80712 23.5618
1.98562 23.0904
2.16411 25.1295
2.34263 26.0438
2.52115 25.1542
2.69965 27.8333
2.87818 38.0895
3.05672 64.683
3.23527 75.3352
3.4138 40.9762
3.59237 38.6756
3.77094 39.1847
3.9495 37.4311
4.12809 50.3335
4.30669 89.9879
4.4853 61.0308
4.6639 45.9373
4.84253 52.2913
5.02118 86.3717
5.19981 277.434
5.37848 3730.88
5.55716 155.439
5.73586 100.213
5.91455 111.174
6.09328 463.247
6.27201 307.404
6.45075 71.8779
6.62952 55.7532
6.8083 54.8494
6.98711 45.1267
7.16591 47.5486
7.34475 75.3458
7.5236 56.1823
7.70247 45.5076
7.88135 37.4399
8.06026 39.1003
8.23919 44.7587
8.41812 56.7059
8.59709 160.541
8.77609 642.194
8.9551 77.5659
9.13412 59.0122
9.31318 249.389
9.49226 53.0206
9.67134 53.3452
9.85047 60.5842
10.0296 101.134
10.2088 503.979
10.388 129.55
10.5672 91.5344
10.7465 264.058
10.9257 49.1346
11.105 42.8684
11.2844 41.7573
11.4637 38.599
11.6431 37.9165
11.8225 36.9176
12.002 72.9234
12.1814 46.8191
12.3609 95.0106
12.5405 44.8591
12.72 41.5197
12.8996 40.1396
13.0792 42.5085
13.2589 63.7872
13.4386 152.158
13.6183 91.5208
13.7981 161.979
13.9779 60.9759
14.1577 48.143
14.3376 47.1391
14.5175 38.3568
14.6974 38.5265
14.8774 43.4401
15.0574 60.9851
15.2374 88.7656
15.4175 41.387
15.5976 38.301
15.7778 41.5273
15.958 54.5529
16.1382 113.895
16.3185 39.6466
16.4988 34.0203
16.6792 32.1421
16.8596 31.9123
17.04 39.6985
17.2205 33.7563
17.401 36.591
17.5815 46.852
17.7622 35.4169
17.9428 39.9919
18.1237 43.0909
18.3044 90.5918
18.4852 55.7752
18.666 62.9299
18.8469 36.2179
19.0278 33.5376
19.2088 33.7726
19.3898 39.8829
19.5709 46.9227
19.752 35.4926
19.9332 32.0615
20.1144 32.6909
20.2957 42.9581
20.477 38.8827
20.6586 38.2152
20.84 31.9412
21.0215 29.6635
21.203 28.841
21.3846 29.3215
21.5662 32.2076
21.7479 29.69
21.9297 31.2844
22.1115 41.0248
22.2933 41.5652
22.4753 35.0945
22.6572 30.0256
22.8393 30.4928
23.0214 31.2635
23.2037 39.2296
23.3859 33.4684
23.5682 34.197
23.7505 34.1983
23.9329 40.4774
24.1154 29.3102
24.2979 27.6907
24.4805 26.6164
24.6631 26.4347
24.8458 27.7817
25.0286 26.2931
25.2114 26.384
25.3943 28.6571
25.5773 30.3393
25.7605 28.5197
25.9436 26.6971
26.1268 25.5674
26.31 26.6636
26.4933 27.6333
26.6767 25.7178
26.8601 27.3562
27.0437 30.025
27.2272 26.6743
27.4109 24.8286
27.5946 24.6197
27.7784 24.9382
27.9623 25.0008
28.1462 25.4578
28.3304 26.942
28.5145 26.8829
28.6987 24.8472
28.8829 22.9774
29.0673 22.639
29.2517 23.3408
29.4361 22.1467
29.6207 22.0996
29.8053 22.5783
29.99 21.295
30.1748 21.4196
30.3597 21.0797
30.5447 21.3883
30.7297 20.9875
30.915 21.1475
31.1002 22.7585
31.2855 21.4716
31.4708 20.5463
31.6563 20.5745
31.8418 21.2906
32.0275 20.377
32.2132 20.4124
32.399 20.6663
32.5848 19.6207
32.7708 18.8898
32.9569 18.7816
33.143 18.8571
33.3293 18.3975
33.5158 18.8508
33.7022 18.8342
33.8887 18.0145
34.0753 17.6247
34.262 17.5843
34.4488 17.219
34.6357 17.0501
34.8227 16.8894
35.0098 16.549
35.1969 16.3931
35.3842 16.3355
35.5716 16.2203
35.759 16.4256
35.9468 16.4696
36.1345 16.0005
36.3222 15.6877
36.5101 15.6595
36.6981 15.3992
36.8861 15.1348
37.0743 15.1264
37.2626 14.8003
37.451 14.5707
37.6395 14.4363
37.8281 14.195
38.0168 13.9824
38.2056 13.8874
38.3945 13.5585
38.5837 13.4822
38.7728 13.3758
38.9621 13.2409
39.1514 13.1403
39.3409 12.8663
39.5304 12.6518
39.7201 12.5292
39.9099 12.423
40.0999 12.2888
40.2899 12.2016
40.48 12.0478
40.6703 11.9264
40.8607 11.7962
41.0512 11.6646
41.242 11.545
41.4327 11.3734
41.6236 11.1634
41.8146 11.0447
42.0057 10.896
42.1969 10.8381
42.3882 10.699
42.5797 10.4475
42.7713 10.3193
42.963 10.2358
43.1549 10.0282
43.3468 9.8935
43.5389 9.82502
43.7312 9.61739
43.9237 9.55068
44.1162 9.4671
44.3088 9.26904
44.5016 9.13215
44.6945 9.03951
44.8875 8.98035
45.0806 8.8876
45.2739 8.6777
45.4673 8.64471
45.6609 8.45634
45.8546 8.36871
46.0484 8.31389
46.2424 8.14827
46.4365 8.03015
46.631 7.92712
46.8254 7.79756
47.0199 7.70661
47.2146 7.58645
47.4095 7.46
47.6044 7.33383
47.7996 7.2357
47.9948 7.1469
48.1902 7.07081
48.3858 6.92995
48.5815 6.86215
48.7774 6.76851
48.9734 6.68405
49.1696 6.58478
49.3661 6.45844
49.5626 6.37405
49.7592 6.30949
49.956 6.19788
50.153 6.12499
50.3501 6.02527
50.5474 5.97332
50.7448 5.86541
50.9424 5.77283
51.1402 5.69
51.3381 5.58884
51.5362 5.51485
51.7344 5.45518
51.9328 5.34665
52.1316 5.26334
52.3304 5.17629
52.5293 5.11763
52.7284 5.02618
52.9276 4.96685
53.1271 4.87121
53.3267 4.77834
53.5265 4.65379
53.7264 4.6362
53.9266 4.53177
54.1269 4.47521
54.3274 4.35303
54.528 4.21706
54.7289 4.03247
54.9301 3.99999
55.1314 3.85592
55.3328 3.71022
55.5344 3.54776
55.7361 3.52293