File: XRD/Ni3Fe_FD0512.xy
TT I
1.27165 7.78579
1.45013 6.58712
1.62863 4.96863
1.80712 5.12194
1.98562 4.94045
2.16411 5.56641
2.34263 5.71076
2.52115 6.48195
2.69965 7.61438
2.87818 8.76654
3.05672 11.5407
3.23527 15.3942
3.4138 19.3547
3.59237 24.8302
3.77094 26.6582
3.9495 30.3369
4.12809 35.8121
4.30669 230.615
4.4853 68.172
4.6639 56.0616
4.84253 68.0479
5.02118 87.996
5.19981 388.646
5.37848 204.806
5.55716 103.497
5.73586 93.8946
5.91455 95.9043
6.09328 4115.87
6.27201 84.9868
6.45075 68.4593
6.62952 64.0748
6.8083 59.4391
6.98711 56.9303
7.16591 56.0019
7.34475 96.0074
7.5236 55.7548
7.70247 56.879
7.88135 58.7581
8.06026 62.9021
8.23919 70.508
8.41812 86.4361
8.59709 1142.01
8.77609 102.235
8.9551 93.5103
9.13412 82.8534
9.31318 83.7657
9.49226 85.3331
9.67134 100.708
9.85047 101.433
10.0296 352.264
10.2088 449.424
10.388 106.425
10.5672 498.265
10.7465 87.6402
10.9257 79.6333
11.105 72.9101
11.2844 71.4639
11.4637 65.7524
11.6431 64.634
11.8225 63.0663
12.002 64.3398
12.1814 154.593
12.3609 72.4892
12.5405 65.5108
12.72 71.2841
12.8996 71.8414
13.0792 79.6444
13.2589 234.88
13.4386 132.033
13.6183 240.74
13.7981 103.518
13.9779 76.8702
14.1577 73.5307
14.3376 72.6505
14.5175 69.9237
14.6974 71.4158
14.8774 111.281
15.0574 155.362
15.2374 72.1425
15.4175 67.2512
15.5976 66.716
15.7778 95.8622
15.958 161.003
16.1382 63.8074
16.3185 59.7299
16.4988 56.4559
16.6792 55.3241
16.8596 56.069
17.04 56.6133
17.2205 67.1226
17.401 72.8554
17.5815 60.1414
17.7622 61.9546
17.9428 74.7615
18.1237 137.193
18.3044 90.5429
18.4852 80.7487
18.666 61.2846
18.8469 58.5823
19.0278 57.6975
19.2088 60.4953
19.3898 76.7112
19.5709 55.0934
19.752 54.0557
19.9332 57.0986
20.1144 70.1366
20.2957 64.1244
20.477 54.7773
20.6586 50.395
20.84 49.6047
21.0215 49.4231
21.203 51.4284
21.3846 49.7535
21.5662 49.3884
21.7479 53.2439
21.9297 65.0299
22.1115 56.505
22.2933 50.5483
22.4753 49.6021
22.6572 49.4825
22.8393 52.3787
23.0214 58.1603
23.2037 49.666
23.3859 50.371
23.5682 57.0713
23.7505 49.1807
23.9329 45.8326
24.1154 44.7182
24.2979 44.0243
24.4805 43.6
24.6631 43.4019
24.8458 42.8093
25.0286 43.3695
25.2114 45.1627
25.3943 45.2737
25.5773 41.4552
25.7605 41.0344
25.9436 41.2865
26.1268 42.2133
26.31 40.5056
26.4933 41.4227
26.6767 42.6653
26.8601 40.9838
27.0437 39.3598
27.2272 39.0359
27.4109 38.8822
27.5946 38.7625
27.7784 38.2965
27.9623 38.8311
28.1462 39.3297
28.3304 37.7644
28.5145 36.356
28.6987 36.1277
28.8829 35.8679
29.0673 35.1329
29.2517 34.8685
29.4361 34.6218
29.6207 33.5336
29.8053 33.3221
29.99 33.003
30.1748 32.9551
30.3597 32.5849
30.5447 32.6908
30.7297 32.635
30.915 32.0938
31.1002 31.5484
31.2855 31.2704
31.4708 31.1836
31.6563 30.7989
31.8418 30.497
32.0275 30.3377
32.2132 29.7232
32.399 29.2506
32.5848 28.7985
32.7708 28.5193
32.9569 28.4516
33.143 28.1663
33.3293 27.7862
33.5158 27.4761
33.7022 27.0086
33.8887 26.6544
34.0753 26.34
34.262 25.9248
34.4488 25.678
34.6357 25.3323
34.8227 25.0465
35.0098 24.7836
35.1969 24.5318
35.3842 24.3048
35.5716 24.0732
35.759 23.74
35.9468 23.4134
36.1345 23.1885
36.3222 23.0225
36.5101 22.6552
36.6981 22.4008
36.8861 22.1606
37.0743 21.756
37.2626 21.524
37.451 21.2169
37.6395 21.1062
37.8281 20.7909
38.0168 20.4096
38.2056 20.2736
38.3945 19.9971
38.5837 19.7381
38.7728 19.4652
38.9621 19.1805
39.1514 18.9414
39.3409 18.7109
39.5304 18.4626
39.7201 18.3172
39.9099 18.0619
40.0999 17.7988
40.2899 17.6067
40.48 17.3565
40.6703 17.1329
40.8607 16.9839
41.0512 16.7531
41.242 16.4912
41.4327 16.2801
41.6236 16.0501
41.8146 15.8577
42.0057 15.6084
42.1969 15.4557
42.3882 15.2565
42.5797 14.9766
42.7713 14.8339
42.963 14.6222
43.1549 14.4255
43.3468 14.1617
43.5389 13.9733
43.7312 13.8054
43.9237 13.6982
44.1162 13.4149
44.3088 13.2503
44.5016 13.0324
44.6945 12.873
44.8875 12.6915
45.0806 12.488
45.2739 12.3765
45.4673 12.2175
45.6609 12.0375
45.8546 11.8842
46.0484 11.6587
46.2424 11.4963
46.4365 11.3572
46.631 11.1537
46.8254 11.0164
47.0199 10.8378
47.2146 10.6975
47.4095 10.5109
47.6044 10.372
47.7996 10.2131
47.9948 10.0932
48.1902 9.91371
48.3858 9.79135
48.5815 9.66313
48.7774 9.50246
48.9734 9.34987
49.1696 9.24743
49.3661 9.09283
49.5626 8.92699
49.7592 8.79448
49.956 8.66315
50.153 8.52823
50.3501 8.42944
50.5474 8.30164
50.7448 8.16383
50.9424 8.03343
51.1402 7.90467
51.3381 7.79903
51.5362 7.67763
51.7344 7.51224
51.9328 7.40142
52.1316 7.26932
52.3304 7.19559
52.5293 7.02329
52.7284 6.91367
52.9276 6.82598
53.1271 6.68403
53.3267 6.55686
53.5265 6.46185
53.7264 6.37843
53.9266 6.24037
54.1269 6.12612
54.3274 6.02782
54.528 5.90319
54.7289 5.71955
54.9301 5.5478
55.1314 5.41451
55.3328 5.2336
55.5344 5.04556
55.7361 4.89465