File: XRD/Ni3Fe_FD0208.xy
TT I
1.27165 8.10837
1.45013 7.09554
1.62863 6.28465
1.80712 5.63091
1.98562 5.53949
2.16411 4.55648
2.34263 4.51241
2.52115 4.96846
2.69965 6.09929
2.87818 8.12089
3.05672 10.8082
3.23527 14.829
3.4138 19.2269
3.59237 22.0126
3.77094 25.9863
3.9495 30.4184
4.12809 35.21
4.30669 41.0305
4.4853 48.4842
4.6639 58.2489
4.84253 71.8729
5.02118 97.5497
5.19981 888.662
5.37848 287.879
5.55716 112.644
5.73586 102.439
5.91455 111.797
6.09328 3592.59
6.27201 90.1082
6.45075 71.0498
6.62952 64.4845
6.8083 60.2723
6.98711 57.5466
7.16591 56.4827
7.34475 56.0548
7.5236 57.0078
7.70247 58.1886
7.88135 60.7325
8.06026 65.6692
8.23919 73.7878
8.41812 90.978
8.59709 1051.71
8.77609 112.327
8.9551 91.1887
9.13412 87.0862
9.31318 88.6217
9.49226 90.2218
9.67134 96.1172
9.85047 107.053
10.0296 528.741
10.2088 591.047
10.388 114.919
10.5672 432.085
10.7465 92.8788
10.9257 81.0592
11.105 75.5584
11.2844 71.0314
11.4637 68.1544
11.6431 66.8096
11.8225 65.5376
12.002 69.062
12.1814 137.364
12.3609 71.021
12.5405 67.5336
12.72 69.735
12.8996 74.9902
13.0792 86.1549
13.2589 225.753
13.4386 153.258
13.6183 221.699
13.7981 115.308
13.9779 80.2024
14.1577 75.8529
14.3376 73.4742
14.5175 72.6407
14.6974 74.8816
14.8774 119.387
15.0574 177.456
15.2374 72.7198
15.4175 70.3152
15.5976 70.1488
15.7778 103.874
15.958 176.908
16.1382 64.1453
16.3185 60.6675
16.4988 58.1977
16.6792 57.0136
16.8596 57.4391
17.04 59.367
17.2205 69.108
17.401 78.2119
17.5815 62.4134
17.7622 64.8643
17.9428 83.4301
18.1237 136.84
18.3044 89.969
18.4852 85.0117
18.666 63.5948
18.8469 61.1958
19.0278 59.8644
19.2088 62.9455
19.3898 76.1129
19.5709 57.3961
19.752 56.3192
19.9332 59.6613
20.1144 72.3327
20.2957 64.1557
20.477 57.3359
20.6586 52.3702
20.84 51.5687
21.0215 51.5301
21.203 52.6052
21.3846 51.8679
21.5662 51.9194
21.7479 55.6097
21.9297 66.5447
22.1115 57.6848
22.2933 52.78
22.4753 51.1301
22.6572 52.1356
22.8393 54.3368
23.0214 59.9225
23.2037 51.5285
23.3859 52.6736
23.5682 57.394
23.7505 51.5916
23.9329 47.7099
24.1154 46.2449
24.2979 45.6315
24.4805 45.0487
24.6631 45.028
24.8458 44.5682
25.0286 45.201
25.2114 46.5596
25.3943 46.7931
25.5773 43.0723
25.7605 42.6981
25.9436 42.796
26.1268 43.6494
26.31 42.4514
26.4933 42.6467
26.6767 43.9214
26.8601 42.5049
27.0437 40.882
27.2272 40.5207
27.4109 40.3775
27.5946 40.3269
27.7784 39.9053
27.9623 40.1259
28.1462 40.6392
28.3304 39.1851
28.5145 37.6838
28.6987 37.2781
28.8829 36.9046
29.0673 36.432
29.2517 36.0136
29.4361 35.7454
29.6207 34.8137
29.8053 34.4876
29.99 34.0919
30.1748 33.9186
30.3597 33.8277
30.5447 33.7066
30.7297 33.726
30.915 33.1688
31.1002 32.7724
31.2855 32.3542
31.4708 32.2326
31.6563 31.8454
31.8418 31.6221
32.0275 31.4389
32.2132 30.8177
32.399 30.3907
32.5848 29.9834
32.7708 29.4652
32.9569 29.3254
33.143 29.0232
33.3293 28.804
33.5158 28.3649
33.7022 27.9082
33.8887 27.6059
34.0753 27.3209
34.262 26.9767
34.4488 26.5901
34.6357 26.2497
34.8227 25.8507
35.0098 25.6096
35.1969 25.3172
35.3842 25.1213
35.5716 24.8241
35.759 24.6356
35.9468 24.2396
36.1345 24.0327
36.3222 23.7287
36.5101 23.5927
36.6981 23.2026
36.8861 22.8999
37.0743 22.5413
37.2626 22.271
37.451 21.9983
37.6395 21.8585
37.8281 21.5019
38.0168 21.213
38.2056 20.9322
38.3945 20.6223
38.5837 20.415
38.7728 20.1602
38.9621 19.8671
39.1514 19.6058
39.3409 19.3526
39.5304 19.1788
39.7201 18.9658
39.9099 18.6375
40.0999 18.4615
40.2899 18.175
40.48 17.9452
40.6703 17.7109
40.8607 17.5287
41.0512 17.3538
41.242 17.0754
41.4327 16.8357
41.6236 16.6049
41.8146 16.4016
42.0057 16.2013
42.1969 15.9426
42.3882 15.7735
42.5797 15.4977
42.7713 15.2849
42.963 15.1142
43.1549 14.9387
43.3468 14.6386
43.5389 14.5261
43.7312 14.2779
43.9237 14.0901
44.1162 13.8822
44.3088 13.7133
44.5016 13.4976
44.6945 13.2737
44.8875 13.15
45.0806 12.9684
45.2739 12.8063
45.4673 12.6163
45.6609 12.4174
45.8546 12.2435
46.0484 12.0612
46.2424 11.9087
46.4365 11.7197
46.631 11.5224
46.8254 11.3452
47.0199 11.1822
47.2146 11.0626
47.4095 10.8706
47.6044 10.6605
47.7996 10.5476
47.9948 10.4067
48.1902 10.2248
48.3858 10.1007
48.5815 9.95498
48.7774 9.82072
48.9734 9.70245
49.1696 9.48899
49.3661 9.37274
49.5626 9.22078
49.7592 9.11705
49.956 8.96468
50.153 8.844
50.3501 8.70388
50.5474 8.53572
50.7448 8.44211
50.9424 8.32644
51.1402 8.18203
51.3381 8.02521
51.5362 7.88502
51.7344 7.78125
51.9328 7.63532
52.1316 7.4956
52.3304 7.37317
52.5293 7.24794
52.7284 7.16339
52.9276 7.03592
53.1271 6.94571
53.3267 6.79569
53.5265 6.66058
53.7264 6.56868
53.9266 6.44927
54.1269 6.30619
54.3274 6.18742
54.528 6.05246
54.7289 5.85965
54.9301 5.65468
55.1314 5.50479
55.3328 5.31177
55.5344 5.14445
55.7361 5.00885