File: XRD/Ni3Fe_FD0836.xy
TT I
1.27165 7.079
1.45013 6.19654
1.62863 5.3929
1.80712 4.40026
1.98562 4.87432
2.16411 4.79524
2.34263 4.88574
2.52115 6.79289
2.69965 8.19023
2.87818 9.05288
3.05672 11.3352
3.23527 15.6848
3.4138 18.6698
3.59237 23.8225
3.77094 26.0631
3.9495 29.4912
4.12809 34.6998
4.30669 146.575
4.4853 58.0497
4.6639 54.938
4.84253 67.2343
5.02118 86.2477
5.19981 333.26
5.37848 184.836
5.55716 100.972
5.73586 91.5583
5.91455 93.2434
6.09328 4362.62
6.27201 80.5997
6.45075 67.7862
6.62952 62.1838
6.8083 58.3527
6.98711 55.1103
7.16591 55.4526
7.34475 75.4661
7.5236 53.8679
7.70247 55.9874
7.88135 57.1192
8.06026 61.7285
8.23919 68.798
8.41812 83.5166
8.59709 1187.89
8.77609 97.7563
8.9551 89.2058
9.13412 81.657
9.31318 82.7024
9.49226 83.9509
9.67134 95.1306
9.85047 99.3709
10.0296 332.583
10.2088 402.697
10.388 103.062
10.5672 523.039
10.7465 85.3225
10.9257 77.0841
11.105 71.1768
11.2844 68.7041
11.4637 64.1652
11.6431 62.9392
11.8225 61.8735
12.002 62.8142
12.1814 157.066
12.3609 67.7975
12.5405 64.3617
12.72 68.0797
12.8996 70.4411
13.0792 78.2949
13.2589 244.659
13.4386 122.671
13.6183 251.584
13.7981 96.3569
13.9779 75.015
14.1577 71.3526
14.3376 70.1975
14.5175 68.1225
14.6974 69.6172
14.8774 110.801
15.0574 145.23
15.2374 69.3619
15.4175 65.7572
15.5976 64.9347
15.7778 94.801
15.958 150.859
16.1382 61.1866
16.3185 57.5833
16.4988 54.7708
16.6792 53.8691
16.8596 54.4803
17.04 55.1544
17.2205 66.5964
17.401 69.7045
17.5815 58.4154
17.7622 60.5179
17.9428 72.7175
18.1237 137.607
18.3044 91.3193
18.4852 75.9886
18.666 59.7751
18.8469 57.6279
19.0278 56.1986
19.2088 58.5586
19.3898 74.9124
19.5709 53.6703
19.752 52.6836
19.9332 55.7335
20.1144 69.1957
20.2957 63.725
20.477 53.1063
20.6586 48.9753
20.84 48.3478
21.0215 47.9495
21.203 50.46
21.3846 48.574
21.5662 48.4163
21.7479 52.2017
21.9297 63.5458
22.1115 55.4995
22.2933 49.3212
22.4753 48.1326
22.6572 48.3377
22.8393 51.6294
23.0214 56.3482
23.2037 48.2655
23.3859 49.1228
23.5682 56.4497
23.7505 47.8496
23.9329 44.797
24.1154 43.5527
24.2979 42.9516
24.4805 42.6149
24.6631 42.3463
24.8458 41.8287
25.0286 42.4902
25.2114 44.2275
25.3943 44.1597
25.5773 40.4943
25.7605 39.9007
25.9436 40.54
26.1268 41.2015
26.31 39.6406
26.4933 40.4419
26.6767 41.6263
26.8601 40.0896
27.0437 38.5153
27.2272 38.1741
27.4109 37.9853
27.5946 37.9314
27.7784 37.4809
27.9623 38.1082
28.1462 38.4118
28.3304 36.7293
28.5145 35.4837
28.6987 35.2919
28.8829 35.1401
29.0673 34.3032
29.2517 33.9721
29.4361 33.6919
29.6207 32.7839
29.8053 32.4913
29.99 32.2307
30.1748 32.0725
30.3597 32.0133
30.5447 31.7914
30.7297 31.8285
30.915 31.3424
31.1002 30.8253
31.2855 30.492
31.4708 30.5328
31.6563 30.0538
31.8418 29.8319
32.0275 29.6591
32.2132 29.0953
32.399 28.6159
32.5848 28.2085
32.7708 27.8146
32.9569 27.7943
33.143 27.4493
33.3293 27.0897
33.5158 26.78
33.7022 26.2989
33.8887 26.0962
34.0753 25.6462
34.262 25.4131
34.4488 25.0418
34.6357 24.698
34.8227 24.5224
35.0098 24.2063
35.1969 23.9562
35.3842 23.7199
35.5716 23.5018
35.759 23.1869
35.9468 22.8796
36.1345 22.6508
36.3222 22.455
36.5101 22.1781
36.6981 21.8693
36.8861 21.5893
37.0743 21.2394
37.2626 21.0569
37.451 20.8097
37.6395 20.6376
37.8281 20.2025
38.0168 19.9505
38.2056 19.6974
38.3945 19.4428
38.5837 19.2077
38.7728 19.0413
38.9621 18.7713
39.1514 18.5165
39.3409 18.2854
39.5304 18.0321
39.7201 17.8716
39.9099 17.6659
40.0999 17.3877
40.2899 17.1375
40.48 16.952
40.6703 16.735
40.8607 16.5617
41.0512 16.3005
41.242 16.0517
41.4327 15.928
41.6236 15.7147
41.8146 15.491
42.0057 15.2443
42.1969 15.0659
42.3882 14.8778
42.5797 14.6616
42.7713 14.4761
42.963 14.2604
43.1549 14.0812
43.3468 13.8682
43.5389 13.682
43.7312 13.4237
43.9237 13.2844
44.1162 13.1337
44.3088 12.9335
44.5016 12.7453
44.6945 12.5399
44.8875 12.3896
45.0806 12.2254
45.2739 12.0982
45.4673 11.892
45.6609 11.7274
45.8546 11.5954
46.0484 11.3924
46.2424 11.2141
46.4365 11.0762
46.631 10.932
46.8254 10.7634
47.0199 10.5785
47.2146 10.4357
47.4095 10.2639
47.6044 10.1355
47.7996 10.0378
47.9948 9.81503
48.1902 9.68795
48.3858 9.54657
48.5815 9.44043
48.7774 9.29849
48.9734 9.13169
49.1696 9.00487
49.3661 8.87098
49.5626 8.71008
49.7592 8.59806
49.956 8.517
50.153 8.34464
50.3501 8.22713
50.5474 8.09211
50.7448 7.94533
50.9424 7.85169
51.1402 7.70755
51.3381 7.60099
51.5362 7.4757
51.7344 7.37699
51.9328 7.2301
52.1316 7.11145
52.3304 6.99713
52.5293 6.88167
52.7284 6.76957
52.9276 6.63694
53.1271 6.57786
53.3267 6.41221
53.5265 6.30704
53.7264 6.20583
53.9266 6.10272
54.1269 6.01072
54.3274 5.89387
54.528 5.75631
54.7289 5.65013
54.9301 5.409
55.1314 5.32311
55.3328 5.09695
55.5344 4.88328
55.7361 4.78131