File: XRD/Ni3Fe_FD1048.xy
TT I
1.27165 6.68663
1.45013 5.47046
1.62863 4.72911
1.80712 4.71249
1.98562 4.74188
2.16411 4.44392
2.34263 5.08503
2.52115 6.54717
2.69965 8.45491
2.87818 8.72012
3.05672 10.9527
3.23527 14.4637
3.4138 17.9017
3.59237 21.5928
3.77094 24.3628
3.9495 28.0888
4.12809 32.629
4.30669 56.69
4.4853 46.5568
4.6639 52.5046
4.84253 63.7954
5.02118 83.3618
5.19981 233.529
5.37848 213.273
5.55716 97.0764
5.73586 87.6828
5.91455 89.2227
6.09328 4612.87
6.27201 76.0383
6.45075 63.4814
6.62952 57.8429
6.8083 54.3722
6.98711 52.4674
7.16591 51.6626
7.34475 55.9364
7.5236 59.2406
7.70247 53.2585
7.88135 54.7503
8.06026 59.0007
8.23919 65.6015
8.41812 77.7469
8.59709 1088.74
8.77609 95.0411
8.9551 82.0744
9.13412 79.3032
9.31318 89.7584
9.49226 80.856
9.67134 86.7971
9.85047 94.1542
10.0296 349.321
10.2088 437.808
10.388 98.0458
10.5672 504.156
10.7465 86.1341
10.9257 73.448
11.105 68.025
11.2844 64.5641
11.4637 62.0053
11.6431 60.5262
11.8225 59.6288
12.002 66.5404
12.1814 146.686
12.3609 64.677
12.5405 61.2783
12.72 64.046
12.8996 67.8947
13.0792 76.695
13.2589 228.427
13.4386 126.962
13.6183 236.674
13.7981 100.408
13.9779 73.2373
14.1577 75.4826
14.3376 67.2184
14.5175 66.4481
14.6974 67.581
14.8774 109.682
15.0574 160.628
15.2374 66.472
15.4175 64.1172
15.5976 63.3102
15.7778 94.2931
15.958 168.342
16.1382 59.8484
16.3185 55.7541
16.4988 53.2064
16.6792 52.6196
16.8596 52.7731
17.04 53.84
17.2205 64.6903
17.401 71.9654
17.5815 57.1626
17.7622 59.8336
17.9428 73.4199
18.1237 142.168
18.3044 88.8894
18.4852 79.0036
18.666 58.8266
18.8469 56.5406
19.0278 55.2593
19.2088 58.1557
19.3898 76.0424
19.5709 53.0044
19.752 51.868
19.9332 55.1238
20.1144 70.5143
20.2957 63.2865
20.477 52.8986
20.6586 48.3307
20.84 47.864
21.0215 47.1532
21.203 49.5651
21.3846 47.7645
21.5662 47.4959
21.7479 51.7034
21.9297 65.4488
22.1115 55.7929
22.2933 48.9815
22.4753 47.4454
22.6572 47.6202
22.8393 51.1396
23.0214 57.2147
23.2037 47.664
23.3859 49.377
23.5682 57.15
23.7505 48.162
23.9329 44.3264
24.1154 43.0824
24.2979 42.4908
24.4805 41.8795
24.6631 42.0255
24.8458 41.1518
25.0286 42.0198
25.2114 44.1479
25.3943 44.2851
25.5773 40.1743
25.7605 39.5424
25.9436 40.1655
26.1268 41.1596
26.31 39.4956
26.4933 40.0567
26.6767 41.886
26.8601 39.9982
27.0437 38.2833
27.2272 37.7916
27.4109 37.7662
27.5946 37.8582
27.7784 37.3082
27.9623 37.9225
28.1462 38.5646
28.3304 36.74
28.5145 35.4
28.6987 34.9336
28.8829 34.8355
29.0673 34.132
29.2517 33.7549
29.4361 33.6412
29.6207 32.5407
29.8053 32.2327
29.99 32.0461
30.1748 31.7699
30.3597 31.6349
30.5447 31.6693
30.7297 31.7416
30.915 31.1901
31.1002 30.6821
31.2855 30.3842
31.4708 30.3792
31.6563 29.9159
31.8418 29.7399
32.0275 29.5694
32.2132 28.9009
32.399 28.4629
32.5848 28.0207
32.7708 27.7484
32.9569 27.5345
33.143 27.4285
33.3293 26.96
33.5158 26.6648
33.7022 26.2055
33.8887 25.8968
34.0753 25.5588
34.262 25.2382
34.4488 24.8977
34.6357 24.5694
34.8227 24.367
35.0098 24.0924
35.1969 23.8012
35.3842 23.6059
35.5716 23.461
35.759 23.1645
35.9468 22.7675
36.1345 22.6112
36.3222 22.2999
36.5101 22.0808
36.6981 21.8373
36.8861 21.5677
37.0743 21.1852
37.2626 20.9232
37.451 20.6079
37.6395 20.5179
37.8281 20.2033
38.0168 19.8604
38.2056 19.6065
38.3945 19.3738
38.5837 19.1171
38.7728 18.8805
38.9621 18.6902
39.1514 18.3634
39.3409 18.1982
39.5304 17.913
39.7201 17.7519
39.9099 17.5745
40.0999 17.2694
40.2899 17.0808
40.48 16.8721
40.6703 16.7107
40.8607 16.4333
41.0512 16.2395
41.242 15.9843
41.4327 15.8282
41.6236 15.6126
41.8146 15.4493
42.0057 15.1531
42.1969 14.9758
42.3882 14.8021
42.5797 14.6171
42.7713 14.3874
42.963 14.1919
43.1549 14.012
43.3468 13.7808
43.5389 13.6252
43.7312 13.4172
43.9237 13.2534
44.1162 13.0376
44.3088 12.8674
44.5016 12.6571
44.6945 12.5601
44.8875 12.3586
45.0806 12.1517
45.2739 12.0525
45.4673 11.8347
45.6609 11.6678
45.8546 11.5227
46.0484 11.3645
46.2424 11.1341
46.4365 11.0731
46.631 10.8348
46.8254 10.6615
47.0199 10.5291
47.2146 10.3498
47.4095 10.2117
47.6044 10.0689
47.7996 9.94333
47.9948 9.75672
48.1902 9.6404
48.3858 9.48021
48.5815 9.36859
48.7774 9.23943
48.9734 9.08991
49.1696 8.93435
49.3661 8.82525
49.5626 8.66744
49.7592 8.56363
49.956 8.43912
50.153 8.30953
50.3501 8.16553
50.5474 8.04296
50.7448 7.93666
50.9424 7.79114
51.1402 7.71646
51.3381 7.51559
51.5362 7.39811
51.7344 7.28542
51.9328 7.15556
52.1316 7.05884
52.3304 6.94012
52.5293 6.8191
52.7284 6.72544
52.9276 6.65086
53.1271 6.4977
53.3267 6.3967
53.5265 6.2398
53.7264 6.15964
53.9266 6.08226
54.1269 5.95045
54.3274 5.82617
54.528 5.71036
54.7289 5.59744
54.9301 5.4051
55.1314 5.25305
55.3328 5.07124
55.5344 4.86099
55.7361 4.79237