File: XRD/Ni3Fe_FD0579.xy
TT I
1.27165 7.83005
1.45013 6.45153
1.62863 5.47164
1.80712 5.07195
1.98562 4.72054
2.16411 4.12515
2.34263 5.4066
2.52115 6.71244
2.69965 7.23832
2.87818 8.31712
3.05672 11.1122
3.23527 14.9206
3.4138 18.9181
3.59237 23.5219
3.77094 25.771
3.9495 29.8781
4.12809 34.5454
4.30669 122.876
4.4853 56.7921
4.6639 56.038
4.84253 68.3016
5.02118 88.7726
5.19981 469.836
5.37848 198.571
5.55716 103.595
5.73586 93.7113
5.91455 97.0001
6.09328 4440.08
6.27201 82.2161
6.45075 68.6459
6.62952 62.8537
6.8083 59.3121
6.98711 56.1065
7.16591 55.743
7.34475 72.8713
7.5236 54.7333
7.70247 56.439
7.88135 58.2133
8.06026 62.7198
8.23919 70.0966
8.41812 85.4176
8.59709 1237.6
8.77609 99.648
8.9551 89.6517
9.13412 83.3145
9.31318 84.0873
9.49226 85.4091
9.67134 96.0824
9.85047 101.663
10.0296 382.024
10.2088 368.657
10.388 106.53
10.5672 521.924
10.7465 87.0099
10.9257 78.493
11.105 71.994
11.2844 69.2086
11.4637 65.0588
11.6431 64.2525
11.8225 63.1623
12.002 64.9645
12.1814 156.145
12.3609 67.9376
12.5405 65.1169
12.72 68.9607
12.8996 71.9105
13.0792 81.2012
13.2589 253.027
13.4386 121.973
13.6183 256.327
13.7981 96.85
13.9779 76.4723
14.1577 72.6604
14.3376 70.8902
14.5175 69.3271
14.6974 71.2757
14.8774 116.295
15.0574 143.724
15.2374 70.5071
15.4175 66.6874
15.5976 66.7772
15.7778 99.3595
15.958 150.151
16.1382 62.0678
16.3185 58.5309
16.4988 55.9405
16.6792 55.0892
16.8596 55.2508
17.04 56.558
17.2205 68.0384
17.401 71.0938
17.5815 59.8194
17.7622 61.9841
17.9428 75.7782
18.1237 141.89
18.3044 92.2383
18.4852 76.7244
18.666 60.7535
18.8469 58.6198
19.0278 57.0923
19.2088 60.0671
19.3898 75.9399
19.5709 54.6877
19.752 53.8248
19.9332 56.9455
20.1144 70.1349
20.2957 64.2724
20.477 53.6425
20.6586 50.0006
20.84 49.2237
21.0215 49.0237
21.203 51.2237
21.3846 49.0001
21.5662 49.3707
21.7479 53.4869
21.9297 65.0132
22.1115 56.5169
22.2933 50.0291
22.4753 49.0454
22.6572 49.2939
22.8393 52.6189
23.0214 57.4797
23.2037 49.2751
23.3859 50.1264
23.5682 57.3251
23.7505 48.318
23.9329 45.4767
24.1154 44.4847
24.2979 43.7336
24.4805 43.1147
24.6631 43.1857
24.8458 42.6669
25.0286 43.247
25.2114 45.2011
25.3943 44.929
25.5773 41.2824
25.7605 40.7522
25.9436 41.2379
26.1268 41.9662
26.31 40.3704
26.4933 41.0623
26.6767 42.4515
26.8601 40.7376
27.0437 39.1164
27.2272 38.739
27.4109 38.7461
27.5946 38.5486
27.7784 38.1497
27.9623 38.842
28.1462 39.0325
28.3304 37.3495
28.5145 36.2491
28.6987 35.9261
28.8829 35.6113
29.0673 34.8586
29.2517 34.6826
29.4361 34.4764
29.6207 33.3647
29.8053 33.185
29.99 32.9058
30.1748 32.7072
30.3597 32.4003
30.5447 32.4001
30.7297 32.5566
30.915 31.8574
31.1002 31.2692
31.2855 31.0875
31.4708 31.0805
31.6563 30.4893
31.8418 30.389
32.0275 30.1365
32.2132 29.6853
32.399 29.1204
32.5848 28.6421
32.7708 28.4222
32.9569 28.1711
33.143 27.9831
33.3293 27.5798
33.5158 27.1691
33.7022 26.756
33.8887 26.4252
34.0753 26.1864
34.262 25.8757
34.4488 25.4261
34.6357 25.1038
34.8227 24.8266
35.0098 24.7279
35.1969 24.3
35.3842 24.2203
35.5716 23.9335
35.759 23.6155
35.9468 23.2469
36.1345 23.0345
36.3222 22.7956
36.5101 22.5505
36.6981 22.2979
36.8861 21.9016
37.0743 21.6941
37.2626 21.3436
37.451 21.0991
37.6395 20.8797
37.8281 20.6028
38.0168 20.324
38.2056 20.1405
38.3945 19.8145
38.5837 19.5535
38.7728 19.2877
38.9621 19.1001
39.1514 18.8217
39.3409 18.5927
39.5304 18.3407
39.7201 18.1656
39.9099 17.9702
40.0999 17.7236
40.2899 17.4574
40.48 17.1861
40.6703 17.0206
40.8607 16.8618
41.0512 16.5917
41.242 16.4018
41.4327 16.172
41.6236 15.9261
41.8146 15.7978
42.0057 15.5556
42.1969 15.3591
42.3882 15.1424
42.5797 14.8793
42.7713 14.7419
42.963 14.4849
43.1549 14.3201
43.3468 14.0899
43.5389 13.9125
43.7312 13.6931
43.9237 13.5611
44.1162 13.3505
44.3088 13.2016
44.5016 12.9866
44.6945 12.7892
44.8875 12.6644
45.0806 12.443
45.2739 12.2623
45.4673 12.0622
45.6609 11.9159
45.8546 11.7239
46.0484 11.6216
46.2424 11.4187
46.4365 11.2801
46.631 11.0873
46.8254 10.9158
47.0199 10.7695
47.2146 10.6378
47.4095 10.4279
47.6044 10.283
47.7996 10.149
47.9948 9.98612
48.1902 9.8341
48.3858 9.71151
48.5815 9.58161
48.7774 9.44784
48.9734 9.33062
49.1696 9.1794
49.3661 8.99213
49.5626 8.86181
49.7592 8.71368
49.956 8.65182
50.153 8.46271
50.3501 8.31522
50.5474 8.22211
50.7448 8.10731
50.9424 7.98477
51.1402 7.87922
51.3381 7.71055
51.5362 7.59238
51.7344 7.47276
51.9328 7.34056
52.1316 7.21069
52.3304 7.13455
52.5293 6.97837
52.7284 6.88389
52.9276 6.73366
53.1271 6.63251
53.3267 6.57344
53.5265 6.44151
53.7264 6.30223
53.9266 6.23364
54.1269 6.07127
54.3274 5.948
54.528 5.82632
54.7289 5.65682
54.9301 5.49668
55.1314 5.39118
55.3328 5.1565
55.5344 5.04284
55.7361 4.8435