File: XRD/Ni3Fe_FD0310.xy
TT I
1.27165 7.50243
1.45013 6.63236
1.62863 5.19525
1.80712 5.116
1.98562 5.14377
2.16411 4.63381
2.34263 4.88266
2.52115 5.81325
2.69965 7.55744
2.87818 8.49869
3.05672 11.252
3.23527 15.2126
3.4138 18.9818
3.59237 25.5546
3.77094 26.7127
3.9495 30.7197
4.12809 36.058
4.30669 334.723
4.4853 78.8244
4.6639 56.8237
4.84253 68.5278
5.02118 89.6342
5.19981 478.657
5.37848 254.445
5.55716 106.252
5.73586 95.7166
5.91455 99.0742
6.09328 3588.75
6.27201 90.5949
6.45075 70.1495
6.62952 65.9357
6.8083 61.6464
6.98711 58.1631
7.16591 58.2532
7.34475 119.229
7.5236 56.9671
7.70247 58.0709
7.88135 59.6808
8.06026 64.4313
8.23919 71.9323
8.41812 89.2913
8.59709 946.341
8.77609 107.683
8.9551 98.2505
9.13412 84.2544
9.31318 85.2295
9.49226 86.6508
9.67134 107.003
9.85047 102.762
10.0296 361.8
10.2088 598.045
10.388 110.239
10.5672 438.977
10.7465 90.6848
10.9257 81.9909
11.105 74.5753
11.2844 74.763
11.4637 67.4496
11.6431 65.8586
11.8225 64.6303
12.002 65.6992
12.1814 134.39
12.3609 78.0193
12.5405 66.8648
12.72 75.0862
12.8996 73.0303
13.0792 80.9846
13.2589 206.021
13.4386 150.091
13.6183 208.726
13.7981 112.45
13.9779 78.2664
14.1577 75.6132
14.3376 75.0457
14.5175 70.9829
14.6974 72.7412
14.8774 107.294
15.0574 177.483
15.2374 74.8459
15.4175 68.51
15.5976 67.8778
15.7778 93.6757
15.958 183.148
16.1382 66.5963
16.3185 61.3733
16.4988 57.6563
16.6792 56.4843
16.8596 57.212
17.04 57.7436
17.2205 66.5692
17.401 77.2056
17.5815 61.1873
17.7622 63.2339
17.9428 76.2138
18.1237 136.875
18.3044 88.0657
18.4852 86.4165
18.666 62.7362
18.8469 60.0161
19.0278 58.9599
19.2088 61.7819
19.3898 77.9824
19.5709 56.3958
19.752 55.3635
19.9332 57.9221
20.1144 71.2022
20.2957 63.4924
20.477 57.0373
20.6586 51.5565
20.84 50.559
21.0215 50.2664
21.203 51.9346
21.3846 51.0064
21.5662 50.4072
21.7479 53.8167
21.9297 66.0528
22.1115 57.3875
22.2933 52.2415
22.4753 50.7638
22.6572 50.4274
22.8393 52.9729
23.0214 60.0273
23.2037 50.5394
23.3859 51.0826
23.5682 57.0381
23.7505 51.0757
23.9329 46.9124
24.1154 45.7367
24.2979 44.9389
24.4805 44.2767
24.6631 44.314
24.8458 43.7182
25.0286 44.0835
25.2114 45.9717
25.3943 46.4136
25.5773 42.4164
25.7605 41.8067
25.9436 42.125
26.1268 43.0894
26.31 41.583
26.4933 41.9115
26.6767 43.3019
26.8601 42.0063
27.0437 40.2444
27.2272 39.7915
27.4109 39.5361
27.5946 39.6482
27.7784 39.2483
27.9623 39.4895
28.1462 40.1044
28.3304 38.6352
28.5145 37.2176
28.6987 36.8714
28.8829 36.6107
29.0673 35.8757
29.2517 35.5653
29.4361 35.3379
29.6207 34.3477
29.8053 33.9765
29.99 33.6576
30.1748 33.6107
30.3597 33.4108
30.5447 33.1452
30.7297 33.2795
30.915 32.7855
31.1002 32.2412
31.2855 31.9907
31.4708 31.8292
31.6563 31.3962
31.8418 31.1394
32.0275 30.99
32.2132 30.4833
32.399 29.8977
32.5848 29.5235
32.7708 29.2454
32.9569 28.9941
33.143 28.6846
33.3293 28.3025
33.5158 27.9885
33.7022 27.538
33.8887 27.2826
34.0753 26.8733
34.262 26.4813
34.4488 26.1925
34.6357 25.7885
34.8227 25.5886
35.0098 25.3342
35.1969 25.0764
35.3842 24.7486
35.5716 24.6606
35.759 24.2443
35.9468 23.928
36.1345 23.706
36.3222 23.4226
36.5101 23.2077
36.6981 22.8402
36.8861 22.5984
37.0743 22.2005
37.2626 21.97
37.451 21.7465
37.6395 21.5887
37.8281 21.2188
38.0168 20.9014
38.2056 20.701
38.3945 20.3693
38.5837 20.1202
38.7728 19.8856
38.9621 19.6477
39.1514 19.4572
39.3409 19.1541
39.5304 18.884
39.7201 18.6448
39.9099 18.4153
40.0999 18.2286
40.2899 17.9954
40.48 17.7485
40.6703 17.4513
40.8607 17.2899
41.0512 17.1323
41.242 16.8529
41.4327 16.6545
41.6236 16.3663
41.8146 16.1951
42.0057 16.0041
42.1969 15.7407
42.3882 15.5704
42.5797 15.3405
42.7713 15.1378
42.963 14.9191
43.1549 14.738
43.3468 14.5181
43.5389 14.3445
43.7312 14.1646
43.9237 13.9096
44.1162 13.7173
44.3088 13.5442
44.5016 13.3472
44.6945 13.1767
44.8875 12.9844
45.0806 12.8225
45.2739 12.6628
45.4673 12.4549
45.6609 12.2869
45.8546 12.0901
46.0484 11.9065
46.2424 11.7978
46.4365 11.6181
46.631 11.4144
46.8254 11.239
47.0199 11.0833
47.2146 10.9272
47.4095 10.7462
47.6044 10.6125
47.7996 10.4086
47.9948 10.3012
48.1902 10.1321
48.3858 10.0099
48.5815 9.85867
48.7774 9.70851
48.9734 9.60644
49.1696 9.41225
49.3661 9.26361
49.5626 9.09576
49.7592 9.02172
49.956 8.88396
50.153 8.75324
50.3501 8.60952
50.5474 8.48458
50.7448 8.3491
50.9424 8.22702
51.1402 8.11507
51.3381 7.93704
51.5362 7.8212
51.7344 7.70281
51.9328 7.56178
52.1316 7.42578
52.3304 7.34418
52.5293 7.22059
52.7284 7.10862
52.9276 6.95876
53.1271 6.8631
53.3267 6.73168
53.5265 6.58407
53.7264 6.50511
53.9266 6.39609
54.1269 6.27726
54.3274 6.10427
54.528 6.02214
54.7289 5.82414
54.9301 5.64808
55.1314 5.53671
55.3328 5.30046
55.5344 5.12426
55.7361 4.99312