File: XRD/Ni3Fe_FD0745.xy
TT I
1.27165 7.21873
1.45013 6.48905
1.62863 5.23528
1.80712 4.75811
1.98562 4.99433
2.16411 4.6157
2.34263 4.83437
2.52115 6.56714
2.69965 8.47343
2.87818 8.83677
3.05672 11.2801
3.23527 15.3949
3.4138 19.183
3.59237 24.1164
3.77094 26.1168
3.9495 29.4622
4.12809 34.9962
4.30669 231.893
4.4853 66.5345
4.6639 55.2654
4.84253 66.5516
5.02118 85.7036
5.19981 313.389
5.37848 186.093
5.55716 100.677
5.73586 91.1994
5.91455 92.6446
6.09328 4416.66
6.27201 82.5877
6.45075 66.769
6.62952 62.7451
6.8083 58.2976
6.98711 55.7803
7.16591 54.6831
7.34475 93.8508
7.5236 54.5132
7.70247 55.9824
7.88135 57.4021
8.06026 61.8411
8.23919 69.1113
8.41812 84.0632
8.59709 1144.71
8.77609 98.7739
8.9551 91.3621
9.13412 81.4298
9.31318 81.9045
9.49226 83.7539
9.67134 97.8848
9.85047 99.0651
10.0296 316.404
10.2088 410.678
10.388 103.597
10.5672 514.481
10.7465 86.0598
10.9257 78.137
11.105 71.1717
11.2844 70.4707
11.4637 64.5396
11.6431 63.3457
11.8225 62.0664
12.002 62.9937
12.1814 150.675
12.3609 70.7317
12.5405 64.2578
12.72 69.8517
12.8996 70.2887
13.0792 77.7105
13.2589 231.552
13.4386 126.665
13.6183 242.873
13.7981 97.9621
13.9779 75.3393
14.1577 72.0633
14.3376 71.0587
14.5175 68.5057
14.6974 69.8351
14.8774 107.54
15.0574 152.948
15.2374 70.8221
15.4175 66.048
15.5976 65.1052
15.7778 92.4
15.958 157.531
16.1382 62.5401
16.3185 58.3021
16.4988 55.2107
16.6792 54.1461
16.8596 55.0212
17.04 55.2717
17.2205 65.8844
17.401 70.7575
17.5815 58.8405
17.7622 60.7591
17.9428 72.3061
18.1237 139.539
18.3044 89.946
18.4852 77.529
18.666 59.9824
18.8469 57.594
19.0278 56.5642
19.2088 58.7559
19.3898 76.0006
19.5709 53.9576
19.752 52.9475
19.9332 55.6604
20.1144 69.3884
20.2957 63.6927
20.477 53.7739
20.6586 49.3369
20.84 48.5419
21.0215 48.3558
21.203 50.5202
21.3846 48.6721
21.5662 48.33
21.7479 52.0048
21.9297 64.3312
22.1115 55.8978
22.2933 49.6339
22.4753 48.8338
22.6572 48.5285
22.8393 51.5036
23.0214 57.1563
23.2037 48.5618
23.3859 49.4589
23.5682 56.7186
23.7505 48.2297
23.9329 45.0246
24.1154 43.9763
24.2979 43.1581
24.4805 42.612
24.6631 42.5492
24.8458 41.905
25.0286 42.5714
25.2114 44.4896
25.3943 44.429
25.5773 40.7149
25.7605 40.1513
25.9436 40.5671
26.1268 41.5003
26.31 39.9214
26.4933 40.4588
26.6767 41.9512
26.8601 40.2367
27.0437 38.7569
27.2272 38.2631
27.4109 38.1651
27.5946 38.1638
27.7784 37.5566
27.9623 38.1241
28.1462 38.7283
28.3304 36.9412
28.5145 35.7005
28.6987 35.5064
28.8829 35.2608
29.0673 34.5566
29.2517 34.2808
29.4361 33.8866
29.6207 32.9448
29.8053 32.6642
29.99 32.3849
30.1748 32.1715
30.3597 32.1141
30.5447 31.9601
30.7297 32.0285
30.915 31.4275
31.1002 30.9933
31.2855 30.6456
31.4708 30.7146
31.6563 30.2157
31.8418 30.0278
32.0275 29.6459
32.2132 29.2833
32.399 28.8572
32.5848 28.3552
32.7708 28.0234
32.9569 27.8924
33.143 27.603
33.3293 27.2723
33.5158 26.8193
33.7022 26.4884
33.8887 26.1991
34.0753 25.7981
34.262 25.5834
34.4488 25.1489
34.6357 24.8748
34.8227 24.5989
35.0098 24.4083
35.1969 24.0478
35.3842 23.8713
35.5716 23.6699
35.759 23.3581
35.9468 22.9762
36.1345 22.7871
36.3222 22.5964
36.5101 22.2768
36.6981 21.9928
36.8861 21.6587
37.0743 21.3993
37.2626 21.1091
37.451 20.8734
37.6395 20.7279
37.8281 20.3847
38.0168 20.1777
38.2056 19.8826
38.3945 19.562
38.5837 19.403
38.7728 19.116
38.9621 18.8525
39.1514 18.5684
39.3409 18.3306
39.5304 18.1528
39.7201 17.9197
39.9099 17.7431
40.0999 17.4719
40.2899 17.2732
40.48 17.0322
40.6703 16.8158
40.8607 16.6379
41.0512 16.4185
41.242 16.1994
41.4327 16.0195
41.6236 15.7008
41.8146 15.6462
42.0057 15.3533
42.1969 15.1392
42.3882 14.9603
42.5797 14.7746
42.7713 14.5671
42.963 14.3254
43.1549 14.23
43.3468 13.9818
43.5389 13.7978
43.7312 13.5853
43.9237 13.3611
44.1162 13.2125
44.3088 13.0486
44.5016 12.8396
44.6945 12.6839
44.8875 12.5103
45.0806 12.3108
45.2739 12.1724
45.4673 11.952
45.6609 11.7766
45.8546 11.6699
46.0484 11.4734
46.2424 11.2841
46.4365 11.1661
46.631 10.9833
46.8254 10.8532
47.0199 10.6758
47.2146 10.5361
47.4095 10.3021
47.6044 10.2104
47.7996 10.0428
47.9948 9.90776
48.1902 9.70861
48.3858 9.63371
48.5815 9.50625
48.7774 9.35394
48.9734 9.19629
49.1696 9.07424
49.3661 8.90081
49.5626 8.78053
49.7592 8.62991
49.956 8.52509
50.153 8.36494
50.3501 8.25605
50.5474 8.12057
50.7448 7.98759
50.9424 7.90407
51.1402 7.78628
51.3381 7.64227
51.5362 7.52346
51.7344 7.38631
51.9328 7.26644
52.1316 7.16699
52.3304 7.04214
52.5293 6.89002
52.7284 6.80674
52.9276 6.73049
53.1271 6.56934
53.3267 6.49629
53.5265 6.3568
53.7264 6.27223
53.9266 6.15558
54.1269 6.02073
54.3274 5.92211
54.528 5.74201
54.7289 5.61986
54.9301 5.46346
55.1314 5.33675
55.3328 5.12292
55.5344 4.91988
55.7361 4.84582