File: XRD/Ni3Fe_FD0436.xy
TT I
1.27165 7.07913
1.45013 6.20606
1.62863 5.51155
1.80712 4.89191
1.98562 4.83959
2.16411 4.43713
2.34263 4.66011
2.52115 6.45543
2.69965 7.33438
2.87818 9.02184
3.05672 10.7582
3.23527 15.2095
3.4138 18.9899
3.59237 23.6887
3.77094 26.1168
3.9495 30.0012
4.12809 35.4321
4.30669 188.51
4.4853 63.4475
4.6639 56.4913
4.84253 68.5366
5.02118 89.4736
5.19981 451.583
5.37848 206.555
5.55716 104.174
5.73586 94.3681
5.91455 98.5953
6.09328 4321.79
6.27201 84.819
6.45075 68.7804
6.62952 63.4618
6.8083 59.5165
6.98711 56.7149
7.16591 55.9943
7.34475 86.8118
7.5236 55.8332
7.70247 57.1169
7.88135 58.9682
8.06026 63.7216
8.23919 70.9933
8.41812 87.3011
8.59709 1220.4
8.77609 102.17
8.9551 92.2981
9.13412 83.2569
9.31318 84.3653
9.49226 86.2973
9.67134 99.2336
9.85047 102.243
10.0296 387.958
10.2088 428.802
10.388 106.88
10.5672 507.226
10.7465 88.3703
10.9257 79.3727
11.105 73.0324
11.2844 71.2203
11.4637 65.9532
11.6431 64.6643
11.8225 63.5079
12.002 65.173
12.1814 154.259
12.3609 71.2762
12.5405 65.7494
12.72 70.7025
12.8996 72.1081
13.0792 80.8917
13.2589 243.815
13.4386 127.964
13.6183 248.145
13.7981 98.7905
13.9779 77.153
14.1577 73.4042
14.3376 72.8046
14.5175 70.3254
14.6974 72.0318
14.8774 115.298
15.0574 153.579
15.2374 72.2302
15.4175 67.5057
15.5976 67.3117
15.7778 99.2754
15.958 159.175
16.1382 63.4194
16.3185 59.6292
16.4988 56.2694
16.6792 55.5474
16.8596 56.2946
17.04 57.0115
17.2205 68.205
17.401 72.2859
17.5815 60.1857
17.7622 62.426
17.9428 76.4358
18.1237 139.281
18.3044 91.5048
18.4852 78.9922
18.666 61.6453
18.8469 59.0759
19.0278 57.9691
19.2088 61.048
19.3898 77.4982
19.5709 55.0413
19.752 54.2323
19.9332 57.6533
20.1144 70.963
20.2957 64.6752
20.477 54.6636
20.6586 50.6075
20.84 49.7013
21.0215 49.5427
21.203 51.6038
21.3846 49.7749
21.5662 49.881
21.7479 54.0265
21.9297 65.5093
22.1115 56.7596
22.2933 50.7015
22.4753 49.7679
22.6572 49.898
22.8393 53.1541
23.0214 58.2071
23.2037 49.7025
23.3859 50.8775
23.5682 57.5143
23.7505 49.192
23.9329 45.9738
24.1154 44.93
24.2979 44.2921
24.4805 43.7949
24.6631 43.5743
24.8458 43.0673
25.0286 43.6841
25.2114 45.4906
25.3943 45.3918
25.5773 41.7514
25.7605 41.2193
25.9436 41.6452
26.1268 42.6036
26.31 40.8385
26.4933 41.489
26.6767 42.9185
26.8601 41.3016
27.0437 39.4983
27.2272 39.1748
27.4109 39.1473
27.5946 39.1798
27.7784 38.5714
27.9623 39.0383
28.1462 39.5834
28.3304 37.8928
28.5145 36.5973
28.6987 36.2298
28.8829 36.0041
29.0673 35.3256
29.2517 34.9796
29.4361 34.7425
29.6207 33.7222
29.8053 33.5837
29.99 33.1435
30.1748 32.9104
30.3597 32.8528
30.5447 32.733
30.7297 32.7672
30.915 32.1028
31.1002 31.6282
31.2855 31.3899
31.4708 31.3831
31.6563 30.9113
31.8418 30.6896
32.0275 30.446
32.2132 29.9244
32.399 29.4167
32.5848 29.011
32.7708 28.6401
32.9569 28.5579
33.143 28.237
33.3293 27.8854
33.5158 27.552
33.7022 27.1417
33.8887 26.7688
34.0753 26.488
34.262 26.1307
34.4488 25.756
34.6357 25.3801
34.8227 25.1497
35.0098 24.9126
35.1969 24.5975
35.3842 24.3991
35.5716 24.173
35.759 23.9221
35.9468 23.4977
36.1345 23.3186
36.3222 23.0976
36.5101 22.7927
36.6981 22.5045
36.8861 22.1703
37.0743 21.9254
37.2626 21.6237
37.451 21.3239
37.6395 21.1904
37.8281 20.8993
38.0168 20.5442
38.2056 20.2792
38.3945 19.9695
38.5837 19.7471
38.7728 19.5207
38.9621 19.2943
39.1514 19.0275
39.3409 18.7591
39.5304 18.5678
39.7201 18.3265
39.9099 18.1992
40.0999 17.8963
40.2899 17.6766
40.48 17.403
40.6703 17.1853
40.8607 17.0315
41.0512 16.7823
41.242 16.5348
41.4327 16.3449
41.6236 16.099
41.8146 15.9533
42.0057 15.6311
42.1969 15.4647
42.3882 15.3095
42.5797 15.0642
42.7713 14.9003
42.963 14.6605
43.1549 14.4745
43.3468 14.281
43.5389 14.1284
43.7312 13.8789
43.9237 13.716
44.1162 13.4948
44.3088 13.3063
44.5016 13.124
44.6945 12.9383
44.8875 12.7874
45.0806 12.6043
45.2739 12.4312
45.4673 12.2464
45.6609 12.0493
45.8546 11.8916
46.0484 11.7522
46.2424 11.5656
46.4365 11.4032
46.631 11.1956
46.8254 11.0366
47.0199 10.8636
47.2146 10.7776
47.4095 10.5396
47.6044 10.4335
47.7996 10.2645
47.9948 10.0846
48.1902 9.95011
48.3858 9.83362
48.5815 9.6795
48.7774 9.56797
48.9734 9.41027
49.1696 9.28857
49.3661 9.13048
49.5626 8.93528
49.7592 8.84359
49.956 8.72956
50.153 8.58176
50.3501 8.41662
50.5474 8.32242
50.7448 8.20314
50.9424 8.09797
51.1402 7.97023
51.3381 7.82141
51.5362 7.70684
51.7344 7.54151
51.9328 7.4268
52.1316 7.29781
52.3304 7.16883
52.5293 7.04024
52.7284 6.97137
52.9276 6.84449
53.1271 6.76722
53.3267 6.59756
53.5265 6.47952
53.7264 6.35366
53.9266 6.29708
54.1269 6.15596
54.3274 6.05051
54.528 5.86508
54.7289 5.75996
54.9301 5.5737
55.1314 5.45557
55.3328 5.25418
55.5344 5.07111
55.7361 4.8971