File: XRD/Ni3Fe_FD0258.xy
TT I
1.27165 8.16578
1.45013 7.23756
1.62863 5.65716
1.80712 5.41113
1.98562 4.97522
2.16411 4.73621
2.34263 4.19141
2.52115 5.89717
2.69965 6.5681
2.87818 7.84585
3.05672 10.9943
3.23527 15.0777
3.4138 19.072
3.59237 23.6086
3.77094 26.3145
3.9495 30.1571
4.12809 35.6423
4.30669 110.19
4.4853 56.1844
4.6639 57.7894
4.84253 70.7499
5.02118 94.8669
5.19981 580.572
5.37848 280.359
5.55716 111.057
5.73586 98.983
5.91455 106.23
6.09328 3645.35
6.27201 89.3259
6.45075 70.5809
6.62952 64.3347
6.8083 60.4835
6.98711 57.3912
7.16591 57.5228
7.34475 71.6356
7.5236 56.3112
7.70247 58.5071
7.88135 59.9161
8.06026 64.8621
8.23919 72.488
8.41812 89.3536
8.59709 1109.23
8.77609 111.042
8.9551 92.9531
9.13412 86.4257
9.31318 87.4398
9.49226 88.8747
9.67134 98.1398
9.85047 105.386
10.0296 480.411
10.2088 604.736
10.388 110.964
10.5672 440.253
10.7465 91.9983
10.9257 81.1872
11.105 74.72
11.2844 71.3414
11.4637 67.6065
11.6431 66.1937
11.8225 65.5102
12.002 66.6726
12.1814 143.177
12.3609 72.5823
12.5405 67.2029
12.72 70.8638
12.8996 74.4381
13.0792 83.7155
13.2589 235.98
13.4386 152.127
13.6183 232.703
13.7981 116.901
13.9779 79.6583
14.1577 75.0003
14.3376 73.3516
14.5175 72.14
14.6974 73.7015
14.8774 120.847
15.0574 174.978
15.2374 73.0148
15.4175 69.4224
15.5976 69.0724
15.7778 105.331
15.958 173.841
16.1382 64.6339
16.3185 60.5301
16.4988 57.8856
16.6792 56.7712
16.8596 57.3749
17.04 58.2637
17.2205 69.0273
17.401 77.5436
17.5815 61.811
17.7622 64.2342
17.9428 82.3687
18.1237 134.392
18.3044 91.7095
18.4852 85.4999
18.666 63.0978
18.8469 60.8983
19.0278 59.273
19.2088 63.1111
19.3898 76.1057
19.5709 57.1081
19.752 55.6464
19.9332 59.5155
20.1144 71.58
20.2957 64.6189
20.477 57.2271
20.6586 51.8863
20.84 50.9045
21.0215 50.9248
21.203 52.4336
21.3846 51.3046
21.5662 51.1886
21.7479 55.4315
21.9297 66.2826
22.1115 57.5327
22.2933 52.6865
22.4753 50.9086
22.6572 51.2486
22.8393 54.1563
23.0214 59.5909
23.2037 51.1458
23.3859 52.5083
23.5682 57.2287
23.7505 51.6153
23.9329 47.2308
24.1154 46.0436
24.2979 45.3371
24.4805 44.6975
24.6631 44.757
24.8458 44.1593
25.0286 44.7324
25.2114 46.53
25.3943 46.3936
25.5773 42.8225
25.7605 42.3004
25.9436 42.5361
26.1268 43.4776
26.31 42.0282
26.4933 42.5215
26.6767 43.7603
26.8601 42.2996
27.0437 40.5346
27.2272 40.316
27.4109 40.1362
27.5946 40.1769
27.7784 39.6101
27.9623 39.9121
28.1462 40.6061
28.3304 38.9209
28.5145 37.5392
28.6987 37.1616
28.8829 36.8982
29.0673 36.3441
29.2517 35.7792
29.4361 35.5993
29.6207 34.6927
29.8053 34.3737
29.99 33.9624
30.1748 33.8419
30.3597 33.7817
30.5447 33.4921
30.7297 33.6203
30.915 33.0362
31.1002 32.5067
31.2855 32.2028
31.4708 32.012
31.6563 31.7364
31.8418 31.4551
32.0275 31.1985
32.2132 30.7469
32.399 30.1424
32.5848 29.7383
32.7708 29.2803
32.9569 29.2202
33.143 28.9416
33.3293 28.6181
33.5158 28.2768
33.7022 27.7415
33.8887 27.444
34.0753 27.1256
34.262 26.7222
34.4488 26.4253
34.6357 26.0085
34.8227 25.8459
35.0098 25.5603
35.1969 25.1846
35.3842 25.0212
35.5716 24.7681
35.759 24.5164
35.9468 24.1157
36.1345 23.9172
36.3222 23.5711
36.5101 23.319
36.6981 23.0355
36.8861 22.6762
37.0743 22.5186
37.2626 22.1589
37.451 21.9076
37.6395 21.8002
37.8281 21.4177
38.0168 21.1053
38.2056 20.8225
38.3945 20.5278
38.5837 20.2979
38.7728 20.0797
38.9621 19.7562
39.1514 19.5104
39.3409 19.1953
39.5304 18.9707
39.7201 18.8128
39.9099 18.6097
40.0999 18.3708
40.2899 18.146
40.48 17.8503
40.6703 17.6592
40.8607 17.466
41.0512 17.2289
41.242 16.9563
41.4327 16.7533
41.6236 16.5023
41.8146 16.3618
42.0057 16.06
42.1969 15.8611
42.3882 15.6751
42.5797 15.4743
42.7713 15.2189
42.963 15.0742
43.1549 14.8191
43.3468 14.6026
43.5389 14.4128
43.7312 14.2026
43.9237 14.0394
44.1162 13.8019
44.3088 13.6175
44.5016 13.4009
44.6945 13.2513
44.8875 13.0602
45.0806 12.8725
45.2739 12.6717
45.4673 12.5186
45.6609 12.3315
45.8546 12.1607
46.0484 11.9999
46.2424 11.8142
46.4365 11.6759
46.631 11.4793
46.8254 11.3229
47.0199 11.1264
47.2146 10.9887
47.4095 10.8158
47.6044 10.6455
47.7996 10.4866
47.9948 10.3269
48.1902 10.2137
48.3858 10.0506
48.5815 9.95086
48.7774 9.75568
48.9734 9.64995
49.1696 9.46575
49.3661 9.34025
49.5626 9.1897
49.7592 9.06093
49.956 8.90853
50.153 8.77248
50.3501 8.66524
50.5474 8.54656
50.7448 8.38797
50.9424 8.25338
51.1402 8.13661
51.3381 7.981
51.5362 7.88083
51.7344 7.76344
51.9328 7.59061
52.1316 7.47015
52.3304 7.35107
52.5293 7.23317
52.7284 7.11057
52.9276 6.95617
53.1271 6.88441
53.3267 6.73569
53.5265 6.64865
53.7264 6.51669
53.9266 6.39012
54.1269 6.31874
54.3274 6.13983
54.528 6.00801
54.7289 5.81077
54.9301 5.66751
55.1314 5.57156
55.3328 5.3474
55.5344 5.10676
55.7361 4.99965