File: XRD/Ni3Fe_FD0263.xy
TT I
1.27165 7.73614
1.45013 6.31463
1.62863 5.49541
1.80712 4.85444
1.98562 4.72593
2.16411 4.69921
2.34263 4.70005
2.52115 5.34371
2.69965 6.01202
2.87818 8.57942
3.05672 11.5025
3.23527 15.4089
3.4138 19.0708
3.59237 23.8049
3.77094 26.5819
3.9495 30.8368
4.12809 35.8173
4.30669 152.767
4.4853 60.5767
4.6639 57.9341
4.84253 70.9877
5.02118 93.73
5.19981 554.045
5.37848 272.405
5.55716 110.345
5.73586 98.8565
5.91455 104.79
6.09328 3707.91
6.27201 90.18
6.45075 71.0616
6.62952 65.0914
6.8083 61.0264
6.98711 58.0592
7.16591 57.0791
7.34475 80.7256
7.5236 56.2189
7.70247 58.3536
7.88135 60.1474
8.06026 64.9648
8.23919 72.8007
8.41812 89.4632
8.59709 1110.73
8.77609 110.612
8.9551 94.0834
9.13412 86.0634
9.31318 87.087
9.49226 88.8657
9.67134 99.9641
9.85047 105.077
10.0296 453.578
10.2088 597.575
10.388 110.994
10.5672 448.218
10.7465 91.6769
10.9257 81.4254
11.105 74.7674
11.2844 72.2977
11.4637 67.5671
11.6431 66.1031
11.8225 65.2121
12.002 66.6791
12.1814 143.832
12.3609 74.0659
12.5405 67.4635
12.72 71.8484
12.8996 74.2125
13.0792 83.1996
13.2589 232.179
13.4386 152.348
13.6183 231.108
13.7981 114.869
13.9779 79.5539
14.1577 75.6951
14.3376 74.1027
14.5175 72.2343
14.6974 73.5737
14.8774 117.893
15.0574 176.342
15.2374 73.41
15.4175 69.3919
15.5976 68.8978
15.7778 102.551
15.958 174.847
16.1382 65.0944
16.3185 61.0393
16.4988 58.0869
16.6792 56.948
16.8596 57.4063
17.04 58.321
17.2205 68.7335
17.401 77.9029
17.5815 61.8492
17.7622 63.9397
17.9428 80.7047
18.1237 135.471
18.3044 91.3484
18.4852 84.99
18.666 63.1458
18.8469 60.7159
19.0278 59.304
19.2088 62.872
19.3898 76.7024
19.5709 57.1226
19.752 55.83
19.9332 59.3092
20.1144 71.3687
20.2957 64.6942
20.477 57.3896
20.6586 51.8254
20.84 50.941
21.0215 50.895
21.203 52.5014
21.3846 51.5389
21.5662 51.0054
21.7479 55.1535
21.9297 66.1116
22.1115 57.678
22.2933 52.5196
22.4753 50.9286
22.6572 51.1068
22.8393 53.7023
23.0214 59.7077
23.2037 51.072
23.3859 52.3353
23.5682 57.6275
23.7505 51.4409
23.9329 47.251
24.1154 46.0447
24.2979 45.2406
24.4805 44.7017
24.6631 44.6058
24.8458 43.9761
25.0286 44.7179
25.2114 46.2897
25.3943 46.3525
25.5773 42.7703
25.7605 42.2287
25.9436 42.5208
26.1268 43.5006
26.31 42.0074
26.4933 42.4308
26.6767 43.7226
26.8601 42.1334
27.0437 40.6062
27.2272 40.1296
27.4109 40.0699
27.5946 40.0672
27.7784 39.63
27.9623 39.7704
28.1462 40.4732
28.3304 39.0053
28.5145 37.4135
28.6987 37.0849
28.8829 36.6717
29.0673 36.2502
29.2517 35.7402
29.4361 35.5463
29.6207 34.5712
29.8053 34.2996
29.99 33.8847
30.1748 33.765
30.3597 33.63
30.5447 33.5955
30.7297 33.4591
30.915 32.9442
31.1002 32.4261
31.2855 32.1668
31.4708 32.1549
31.6563 31.7723
31.8418 31.4573
32.0275 31.2596
32.2132 30.709
32.399 30.2432
32.5848 29.6754
32.7708 29.4572
32.9569 29.1762
33.143 28.8988
33.3293 28.5684
33.5158 28.212
33.7022 27.7554
33.8887 27.4939
34.0753 27.0871
34.262 26.7888
34.4488 26.3707
34.6357 26.0936
34.8227 25.7259
35.0098 25.5357
35.1969 25.2391
35.3842 25.0317
35.5716 24.7238
35.759 24.4766
35.9468 24.0541
36.1345 23.9107
36.3222 23.6797
36.5101 23.4069
36.6981 23.108
36.8861 22.7059
37.0743 22.4491
37.2626 22.1221
37.451 21.8749
37.6395 21.7609
37.8281 21.3446
38.0168 21.1062
38.2056 20.8257
38.3945 20.5041
38.5837 20.2632
38.7728 20.059
38.9621 19.8542
39.1514 19.4802
39.3409 19.3106
39.5304 19.0364
39.7201 18.8413
39.9099 18.6089
40.0999 18.3726
40.2899 18.0829
40.48 17.8719
40.6703 17.6726
40.8607 17.4502
41.0512 17.253
41.242 16.9733
41.4327 16.7979
41.6236 16.5075
41.8146 16.3314
42.0057 16.0982
42.1969 15.8301
42.3882 15.6723
42.5797 15.4503
42.7713 15.2986
42.963 15.018
43.1549 14.8719
43.3468 14.6275
43.5389 14.4251
43.7312 14.2258
43.9237 14.0387
44.1162 13.8126
44.3088 13.6364
44.5016 13.4645
44.6945 13.3163
44.8875 13.0514
45.0806 12.9292
45.2739 12.7632
45.4673 12.5945
45.6609 12.3837
45.8546 12.1805
46.0484 12.0193
46.2424 11.8279
46.4365 11.6852
46.631 11.4717
46.8254 11.2889
47.0199 11.1408
47.2146 10.9683
47.4095 10.7989
47.6044 10.6508
47.7996 10.5679
47.9948 10.3843
48.1902 10.2281
48.3858 10.0469
48.5815 9.96599
48.7774 9.79384
48.9734 9.61035
49.1696 9.47259
49.3661 9.34563
49.5626 9.16361
49.7592 9.07983
49.956 8.95462
50.153 8.77229
50.3501 8.62732
50.5474 8.51783
50.7448 8.35372
50.9424 8.23537
51.1402 8.16674
51.3381 7.96461
51.5362 7.8857
51.7344 7.77356
51.9328 7.60497
52.1316 7.43877
52.3304 7.34104
52.5293 7.24122
52.7284 7.12397
52.9276 7.04987
53.1271 6.88593
53.3267 6.78353
53.5265 6.59669
53.7264 6.54823
53.9266 6.43398
54.1269 6.31882
54.3274 6.18451
54.528 5.95063
54.7289 5.8691
54.9301 5.6645
55.1314 5.52735
55.3328 5.27151
55.5344 5.10182
55.7361 5.00633