File: XRD/Ni3Fe_FD0260.xy
TT I
1.27165 7.8199
1.45013 6.09755
1.62863 5.32396
1.80712 5.53379
1.98562 5.07423
2.16411 4.73462
2.34263 4.93535
2.52115 5.60067
2.69965 6.97992
2.87818 8.03148
3.05672 11.191
3.23527 14.9071
3.4138 19.0277
3.59237 24.0045
3.77094 26.6428
3.9495 30.6739
4.12809 35.5552
4.30669 131.088
4.4853 57.7487
4.6639 57.5771
4.84253 70.5846
5.02118 93.8831
5.19981 567.567
5.37848 280.116
5.55716 110.621
5.73586 99.326
5.91455 105.616
6.09328 3654.09
6.27201 89.4502
6.45075 70.8501
6.62952 64.995
6.8083 60.7791
6.98711 57.8243
7.16591 57.1435
7.34475 76.0783
7.5236 56.3826
7.70247 58.2589
7.88135 60.2219
8.06026 64.3779
8.23919 72.6627
8.41812 89.5181
8.59709 1109.07
8.77609 110.459
8.9551 93.5763
9.13412 86.0264
9.31318 87.1992
9.49226 88.8332
9.67134 98.9652
9.85047 105.801
10.0296 468.154
10.2088 607.63
10.388 111.171
10.5672 444.504
10.7465 92.2669
10.9257 81.2109
11.105 74.7531
11.2844 72.0307
11.4637 67.6396
11.6431 66.2768
11.8225 65.1439
12.002 66.773
12.1814 143.7
12.3609 73.3519
12.5405 67.5004
12.72 71.3553
12.8996 74.3501
13.0792 83.1736
13.2589 233.743
13.4386 152.161
13.6183 231.748
13.7981 116.519
13.9779 79.3256
14.1577 75.2502
14.3376 73.6545
14.5175 71.9645
14.6974 73.5419
14.8774 119.56
15.0574 176.94
15.2374 73.1743
15.4175 69.4401
15.5976 69.0273
15.7778 103.547
15.958 174.481
16.1382 64.864
16.3185 60.5687
16.4988 57.8854
16.6792 56.9759
16.8596 57.3684
17.04 58.2389
17.2205 68.9421
17.401 77.7518
17.5815 61.9811
17.7622 64.0205
17.9428 81.4667
18.1237 134.602
18.3044 91.3855
18.4852 85.5087
18.666 63.2052
18.8469 60.7352
19.0278 59.3793
19.2088 63.0763
19.3898 76.4117
19.5709 57.0809
19.752 55.566
19.9332 59.5342
20.1144 71.6154
20.2957 64.7987
20.477 57.03
20.6586 51.9092
20.84 50.9952
21.0215 51.0486
21.203 52.4493
21.3846 51.5674
21.5662 50.9818
21.7479 55.3749
21.9297 66.1036
22.1115 57.7255
22.2933 52.7519
22.4753 50.8588
22.6572 51.1258
22.8393 54.1448
23.0214 59.5733
23.2037 51.1633
23.3859 52.6031
23.5682 57.3891
23.7505 51.6378
23.9329 47.3922
24.1154 45.9442
24.2979 45.2599
24.4805 44.6708
24.6631 44.7799
24.8458 44.1175
25.0286 44.6836
25.2114 46.6321
25.3943 46.5952
25.5773 42.8748
25.7605 42.2518
25.9436 42.5479
26.1268 43.3134
26.31 42.0134
26.4933 42.4965
26.6767 43.7972
26.8601 42.3162
27.0437 40.5961
27.2272 40.2301
27.4109 40.0775
27.5946 40.0434
27.7784 39.5041
27.9623 40.0474
28.1462 40.4678
28.3304 38.9361
28.5145 37.6464
28.6987 37.05
28.8829 36.9913
29.0673 36.2732
29.2517 35.747
29.4361 35.7202
29.6207 34.7012
29.8053 34.2846
29.99 33.934
30.1748 33.8291
30.3597 33.7085
30.5447 33.5625
30.7297 33.601
30.915 33.0752
31.1002 32.4079
31.2855 32.065
31.4708 32.145
31.6563 31.7085
31.8418 31.3985
32.0275 31.23
32.2132 30.6842
32.399 30.0645
32.5848 29.771
32.7708 29.3378
32.9569 29.2422
33.143 28.9492
33.3293 28.5611
33.5158 28.2343
33.7022 27.6622
33.8887 27.4441
34.0753 27.0923
34.262 26.729
34.4488 26.4134
34.6357 26.0902
34.8227 25.7385
35.0098 25.5786
35.1969 25.1522
35.3842 24.953
35.5716 24.7968
35.759 24.5236
35.9468 24.1191
36.1345 23.8508
36.3222 23.6703
36.5101 23.3937
36.6981 23.099
36.8861 22.7444
37.0743 22.4399
37.2626 22.2017
37.451 21.9138
37.6395 21.6681
37.8281 21.3802
38.0168 21.1456
38.2056 20.8708
38.3945 20.534
38.5837 20.2678
38.7728 20.0866
38.9621 19.7275
39.1514 19.5647
39.3409 19.2667
39.5304 19.038
39.7201 18.796
39.9099 18.6592
40.0999 18.3648
40.2899 18.1158
40.48 17.8762
40.6703 17.7035
40.8607 17.4781
41.0512 17.2701
41.242 16.999
41.4327 16.6955
41.6236 16.4862
41.8146 16.3043
42.0057 16.0993
42.1969 15.8439
42.3882 15.683
42.5797 15.4723
42.7713 15.2498
42.963 15.0516
43.1549 14.8362
43.3468 14.6132
43.5389 14.4118
43.7312 14.256
43.9237 14.0168
44.1162 13.8323
44.3088 13.6289
44.5016 13.4112
44.6945 13.3141
44.8875 13.0892
45.0806 12.8653
45.2739 12.7314
45.4673 12.5157
45.6609 12.329
45.8546 12.1667
46.0484 12.0095
46.2424 11.8086
46.4365 11.7143
46.631 11.5188
46.8254 11.3067
47.0199 11.1491
47.2146 11.0192
47.4095 10.795
47.6044 10.6267
47.7996 10.5002
47.9948 10.3635
48.1902 10.2262
48.3858 10.0324
48.5815 9.88866
48.7774 9.77301
48.9734 9.622
49.1696 9.44094
49.3661 9.32625
49.5626 9.15426
49.7592 9.03873
49.956 8.94035
50.153 8.78703
50.3501 8.67999
50.5474 8.5231
50.7448 8.38813
50.9424 8.27999
51.1402 8.13988
51.3381 7.97796
51.5362 7.86214
51.7344 7.69663
51.9328 7.5842
52.1316 7.42747
52.3304 7.37332
52.5293 7.26004
52.7284 7.11102
52.9276 6.99846
53.1271 6.89474
53.3267 6.72367
53.5265 6.62798
53.7264 6.52893
53.9266 6.41562
54.1269 6.30034
54.3274 6.14885
54.528 6.02294
54.7289 5.83695
54.9301 5.73025
55.1314 5.56594
55.3328 5.34288
55.5344 5.12103
55.7361 4.99648