File: XRD/Ni3Fe_FD0534.xy
TT I
1.27165 7.53036
1.45013 6.60017
1.62863 5.73599
1.80712 4.9794
1.98562 4.7408
2.16411 5.2207
2.34263 5.34867
2.52115 6.57476
2.69965 7.93084
2.87818 9.22614
3.05672 10.891
3.23527 15.2873
3.4138 18.8959
3.59237 24.7805
3.77094 26.5717
3.9495 30.2257
4.12809 35.4948
4.30669 283.343
4.4853 72.5295
4.6639 55.8484
4.84253 67.7008
5.02118 87.2898
5.19981 370.609
5.37848 206.505
5.55716 103.303
5.73586 93.4721
5.91455 94.9062
6.09328 4086.9
6.27201 85.7783
6.45075 68.3384
6.62952 63.8955
6.8083 59.4995
6.98711 56.6383
7.16591 56.4655
7.34475 106.242
7.5236 55.7975
7.70247 57.2889
7.88135 58.6312
8.06026 62.8414
8.23919 70.4479
8.41812 86.5736
8.59709 1097.84
8.77609 102.269
8.9551 94.769
9.13412 82.3881
9.31318 83.1502
9.49226 84.9628
9.67134 102.412
9.85047 100.761
10.0296 332.456
10.2088 468.168
10.388 106.704
10.5672 494.443
10.7465 88.0351
10.9257 80.0582
11.105 73.0211
11.2844 72.4163
11.4637 65.6627
11.6431 64.6828
11.8225 63.0375
12.002 64.534
12.1814 147.998
12.3609 73.8269
12.5405 65.1897
12.72 72.3868
12.8996 71.6978
13.0792 79.5402
13.2589 225.395
13.4386 132.25
13.6183 231.883
13.7981 103.448
13.9779 76.6203
14.1577 73.6299
14.3376 73.2552
14.5175 69.6417
14.6974 71.3231
14.8774 107.985
15.0574 160.706
15.2374 72.9905
15.4175 67.2381
15.5976 66.3971
15.7778 93.6769
15.958 165.197
16.1382 64.4426
16.3185 59.726
16.4988 56.3119
16.6792 55.192
16.8596 56.1346
17.04 56.6668
17.2205 66.4661
17.401 73.9451
17.5815 59.8839
17.7622 61.9068
17.9428 73.8367
18.1237 137.832
18.3044 89.4235
18.4852 81.4815
18.666 61.0383
18.8469 58.6378
19.0278 57.7255
19.2088 60.064
19.3898 76.9429
19.5709 55.1464
19.752 53.9963
19.9332 56.6323
20.1144 70.4991
20.2957 63.5709
20.477 54.93
20.6586 50.2521
20.84 49.48
21.0215 49.1327
21.203 51.2216
21.3846 49.7141
21.5662 49.4939
21.7479 52.9622
21.9297 65.2228
22.1115 56.3926
22.2933 50.6407
22.4753 49.5544
22.6572 49.4544
22.8393 52.362
23.0214 58.3781
23.2037 49.4928
23.3859 50.2551
23.5682 56.9781
23.7505 49.1884
23.9329 45.7836
24.1154 44.6582
24.2979 43.9677
24.4805 43.4491
24.6631 43.3036
24.8458 42.7215
25.0286 43.2617
25.2114 45.0913
25.3943 45.2516
25.5773 41.3684
25.7605 40.9612
25.9436 41.3315
26.1268 42.1564
26.31 40.7232
26.4933 41.0691
26.6767 42.6195
26.8601 40.9052
27.0437 39.3543
27.2272 38.9265
27.4109 38.8432
27.5946 38.7397
27.7784 38.3812
27.9623 38.7264
28.1462 39.294
28.3304 37.705
28.5145 36.4922
28.6987 36.0605
28.8829 35.8582
29.0673 35.1229
29.2517 34.7996
29.4361 34.612
29.6207 33.6228
29.8053 33.3943
29.99 32.9252
30.1748 32.8478
30.3597 32.7136
30.5447 32.4763
30.7297 32.6296
30.915 32.053
31.1002 31.4901
31.2855 31.3086
31.4708 31.2028
31.6563 30.7676
31.8418 30.4521
32.0275 30.3532
32.2132 29.8011
32.399 29.2768
32.5848 28.7398
32.7708 28.4954
32.9569 28.3701
33.143 28.1083
33.3293 27.7467
33.5158 27.3798
33.7022 26.9478
33.8887 26.7033
34.0753 26.3188
34.262 25.9629
34.4488 25.6371
34.6357 25.2637
34.8227 24.9693
35.0098 24.8528
35.1969 24.5711
35.3842 24.3756
35.5716 24.1344
35.759 23.7769
35.9468 23.427
36.1345 23.2344
36.3222 22.983
36.5101 22.7348
36.6981 22.4004
36.8861 22.0604
37.0743 21.8333
37.2626 21.5276
37.451 21.2671
37.6395 21.1307
37.8281 20.7388
38.0168 20.434
38.2056 20.2431
38.3945 19.9295
38.5837 19.705
38.7728 19.471
38.9621 19.1955
39.1514 18.9636
39.3409 18.7316
39.5304 18.4963
39.7201 18.3018
39.9099 18.1372
40.0999 17.8346
40.2899 17.5771
40.48 17.368
40.6703 17.1583
40.8607 16.9816
41.0512 16.6881
41.242 16.5119
41.4327 16.2594
41.6236 16.0285
41.8146 15.8765
42.0057 15.5897
42.1969 15.4017
42.3882 15.2641
42.5797 15.0363
42.7713 14.7934
42.963 14.6461
43.1549 14.4345
43.3468 14.2389
43.5389 14.0591
43.7312 13.8134
43.9237 13.635
44.1162 13.4539
44.3088 13.2761
44.5016 13.0368
44.6945 12.8858
44.8875 12.7594
45.0806 12.5667
45.2739 12.3542
45.4673 12.2161
45.6609 11.9969
45.8546 11.8246
46.0484 11.7007
46.2424 11.498
46.4365 11.3729
46.631 11.1575
46.8254 10.9856
47.0199 10.8707
47.2146 10.7342
47.4095 10.552
47.6044 10.4053
47.7996 10.1919
47.9948 10.0564
48.1902 9.91483
48.3858 9.79581
48.5815 9.63583
48.7774 9.53688
48.9734 9.3791
49.1696 9.18462
49.3661 9.07154
49.5626 8.96085
49.7592 8.79703
49.956 8.67194
50.153 8.55068
50.3501 8.43497
50.5474 8.28156
50.7448 8.14805
50.9424 8.05612
51.1402 7.87464
51.3381 7.76557
51.5362 7.67473
51.7344 7.51936
51.9328 7.37282
52.1316 7.27894
52.3304 7.21405
52.5293 7.05177
52.7284 6.9345
52.9276 6.8289
53.1271 6.73632
53.3267 6.58094
53.5265 6.4916
53.7264 6.401
53.9266 6.2775
54.1269 6.14088
54.3274 6.0478
54.528 5.88023
54.7289 5.76129
54.9301 5.57844
55.1314 5.45347
55.3328 5.20669
55.5344 5.02105
55.7361 4.88161