File: XRD/Ni3Fe_FD1051.xy
TT I
1.27165 6.72879
1.45013 5.41888
1.62863 4.47208
1.80712 4.49816
1.98562 4.4044
2.16411 4.31317
2.34263 5.26734
2.52115 7.25978
2.69965 8.57696
2.87818 9.28821
3.05672 10.7631
3.23527 15.1255
3.4138 18.3438
3.59237 21.614
3.77094 24.4758
3.9495 28.3494
4.12809 32.5617
4.30669 56.4881
4.4853 46.0765
4.6639 52.8594
4.84253 64.3012
5.02118 83.2087
5.19981 233.413
5.37848 212.073
5.55716 97.2573
5.73586 87.8247
5.91455 88.4565
6.09328 4562.69
6.27201 75.9066
6.45075 63.3176
6.62952 58.1885
6.8083 54.6226
6.98711 52.5128
7.16591 51.5368
7.34475 56.0469
7.5236 59.017
7.70247 53.2104
7.88135 54.6073
8.06026 59.1156
8.23919 65.7986
8.41812 77.9926
8.59709 1090.12
8.77609 95.1557
8.9551 82.3637
9.13412 78.7923
9.31318 89.3747
9.49226 80.9152
9.67134 86.3686
9.85047 94.0844
10.0296 350.097
10.2088 438.741
10.388 97.7107
10.5672 504.532
10.7465 86.5252
10.9257 73.2847
11.105 68.0992
11.2844 64.6271
11.4637 61.9696
11.6431 60.4759
11.8225 59.7914
12.002 66.7549
12.1814 146.166
12.3609 64.6114
12.5405 61.4725
12.72 63.9738
12.8996 67.7174
13.0792 76.7028
13.2589 228.541
13.4386 127.171
13.6183 236.966
13.7981 100.464
13.9779 73.1732
14.1577 75.4839
14.3376 67.4318
14.5175 66.5215
14.6974 67.367
14.8774 109.87
15.0574 160.124
15.2374 66.7062
15.4175 64.0329
15.5976 63.4756
15.7778 94.452
15.958 168.243
16.1382 60.0037
16.3185 55.5421
16.4988 53.4089
16.6792 52.6992
16.8596 52.8321
17.04 53.728
17.2205 64.684
17.401 71.8359
17.5815 57.1981
17.7622 60.0157
17.9428 73.2401
18.1237 141.854
18.3044 88.9435
18.4852 79.2106
18.666 58.9806
18.8469 56.224
19.0278 54.9699
19.2088 58.1509
19.3898 76.2316
19.5709 52.9418
19.752 51.7795
19.9332 55.1897
20.1144 70.3438
20.2957 63.4929
20.477 53.0024
20.6586 48.2929
20.84 47.8303
21.0215 47.3011
21.203 49.4561
21.3846 47.9856
21.5662 47.6221
21.7479 51.7932
21.9297 65.1765
22.1115 55.8672
22.2933 48.8893
22.4753 47.536
22.6572 47.5773
22.8393 51.1031
23.0214 57.3817
23.2037 47.7437
23.3859 49.2954
23.5682 57.3902
23.7505 48.1943
23.9329 44.3405
24.1154 43.1201
24.2979 42.4371
24.4805 41.9584
24.6631 41.9316
24.8458 41.3377
25.0286 41.9171
25.2114 44.0377
25.3943 44.367
25.5773 40.1545
25.7605 39.6977
25.9436 40.1507
26.1268 41.2574
26.31 39.3268
26.4933 40.0031
26.6767 41.8876
26.8601 39.9755
27.0437 38.2987
27.2272 37.8106
27.4109 37.7189
27.5946 37.9451
27.7784 37.3616
27.9623 37.9878
28.1462 38.5993
28.3304 36.8596
28.5145 35.4011
28.6987 35.0346
28.8829 34.8462
29.0673 34.0553
29.2517 33.706
29.4361 33.5869
29.6207 32.4904
29.8053 32.2504
29.99 32.0154
30.1748 31.9459
30.3597 31.7115
30.5447 31.6748
30.7297 31.8629
30.915 31.1503
31.1002 30.7027
31.2855 30.4123
31.4708 30.4242
31.6563 29.9051
31.8418 29.6998
32.0275 29.5872
32.2132 28.9972
32.399 28.5192
32.5848 28.0061
32.7708 27.6631
32.9569 27.5906
33.143 27.3886
33.3293 26.9411
33.5158 26.6138
33.7022 26.142
33.8887 25.9293
34.0753 25.5946
34.262 25.3081
34.4488 24.9442
34.6357 24.5852
34.8227 24.3312
35.0098 24.1139
35.1969 23.8881
35.3842 23.6442
35.5716 23.4331
35.759 23.0476
35.9468 22.7856
36.1345 22.6183
36.3222 22.3846
36.5101 22.141
36.6981 21.8408
36.8861 21.5229
37.0743 21.1204
37.2626 20.9531
37.451 20.5846
37.6395 20.5357
37.8281 20.1753
38.0168 19.8793
38.2056 19.6256
38.3945 19.3335
38.5837 19.1657
38.7728 18.9061
38.9621 18.7061
39.1514 18.4182
39.3409 18.1621
39.5304 17.9633
39.7201 17.7895
39.9099 17.5435
40.0999 17.3843
40.2899 17.0528
40.48 16.8492
40.6703 16.6349
40.8607 16.4347
41.0512 16.2658
41.242 16.0756
41.4327 15.8242
41.6236 15.5897
41.8146 15.3981
42.0057 15.1541
42.1969 14.9941
42.3882 14.7602
42.5797 14.6212
42.7713 14.4274
42.963 14.1616
43.1549 13.9897
43.3468 13.7483
43.5389 13.6476
43.7312 13.4158
43.9237 13.252
44.1162 13.1048
44.3088 12.8961
44.5016 12.7127
44.6945 12.5151
44.8875 12.3629
45.0806 12.1883
45.2739 11.9893
45.4673 11.8681
45.6609 11.6895
45.8546 11.5007
46.0484 11.3783
46.2424 11.1625
46.4365 11.0421
46.631 10.868
46.8254 10.6638
47.0199 10.5605
47.2146 10.3729
47.4095 10.2334
47.6044 10.0828
47.7996 9.94665
47.9948 9.77515
48.1902 9.64027
48.3858 9.51965
48.5815 9.36652
48.7774 9.26065
48.9734 9.09597
49.1696 8.95847
49.3661 8.78593
49.5626 8.66846
49.7592 8.57287
49.956 8.43036
50.153 8.31378
50.3501 8.17076
50.5474 8.06858
50.7448 7.9002
50.9424 7.81129
51.1402 7.69485
51.3381 7.54601
51.5362 7.4352
51.7344 7.30419
51.9328 7.1792
52.1316 7.06933
52.3304 6.9616
52.5293 6.84533
52.7284 6.71808
52.9276 6.59643
53.1271 6.51875
53.3267 6.38448
53.5265 6.27971
53.7264 6.21396
53.9266 6.06016
54.1269 5.97592
54.3274 5.805
54.528 5.74117
54.7289 5.50811
54.9301 5.42153
55.1314 5.24398
55.3328 5.08576
55.5344 4.88199
55.7361 4.74826