File: XRD/Ni3Fe_FD0404.xy
TT I
1.27165 7.63902
1.45013 6.0123
1.62863 5.64726
1.80712 5.28008
1.98562 4.39542
2.16411 5.71295
2.34263 5.00246
2.52115 5.6627
2.69965 7.44176
2.87818 8.71467
3.05672 11.0524
3.23527 14.8549
3.4138 19.0159
3.59237 24.7801
3.77094 26.7101
3.9495 30.8098
4.12809 35.6614
4.30669 256.346
4.4853 70.7034
4.6639 56.6743
4.84253 68.7052
5.02118 88.9636
5.19981 436.336
5.37848 223.398
5.55716 105.447
5.73586 95.1395
5.91455 97.7466
6.09328 3956.33
6.27201 87.489
6.45075 69.4656
6.62952 64.6452
6.8083 60.6772
6.98711 57.4345
7.16591 57.3427
7.34475 100.425
7.5236 56.3811
7.70247 57.6859
7.88135 59.2874
8.06026 63.6651
8.23919 71.4031
8.41812 88.4504
8.59709 1099.23
8.77609 104.744
8.9551 94.9057
9.13412 84.2374
9.31318 84.8795
9.49226 86.331
9.67134 102.615
9.85047 103.0
10.0296 366.317
10.2088 497.597
10.388 108.213
10.5672 481.333
10.7465 89.2423
10.9257 80.8566
11.105 73.913
11.2844 72.898
11.4637 66.8292
11.6431 65.2871
11.8225 64.2394
12.002 65.0188
12.1814 145.755
12.3609 74.0164
12.5405 66.1852
12.72 72.365
12.8996 72.5228
13.0792 80.729
13.2589 227.802
13.4386 137.61
13.6183 231.765
13.7981 106.177
13.9779 77.5849
14.1577 74.6353
14.3376 74.0038
14.5175 70.4929
14.6974 72.1677
14.8774 111.476
15.0574 164.111
15.2374 73.4815
15.4175 68.0688
15.5976 67.4596
15.7778 96.3616
15.958 169.945
16.1382 64.9988
16.3185 60.5493
16.4988 57.1707
16.6792 55.958
16.8596 56.779
17.04 57.1086
17.2205 67.2331
17.401 74.2172
17.5815 60.8087
17.7622 62.7776
17.9428 75.6235
18.1237 137.304
18.3044 89.816
18.4852 82.1045
18.666 62.0824
18.8469 59.4831
19.0278 58.5321
19.2088 61.1052
19.3898 77.4383
19.5709 55.7997
19.752 54.5931
19.9332 57.6173
20.1144 70.8273
20.2957 64.1017
20.477 55.7654
20.6586 50.8129
20.84 50.0817
21.0215 49.9339
21.203 51.8388
21.3846 50.4736
21.5662 50.0512
21.7479 53.6903
21.9297 65.5518
22.1115 56.8412
22.2933 51.4138
22.4753 50.3277
22.6572 50.0365
22.8393 52.9373
23.0214 58.984
23.2037 50.13
23.3859 50.9908
23.5682 57.1966
23.7505 49.9379
23.9329 46.3084
24.1154 45.2777
24.2979 44.3791
24.4805 43.9666
24.6631 43.9597
24.8458 43.1492
25.0286 43.7944
25.2114 45.467
25.3943 45.8424
25.5773 41.9793
25.7605 41.6127
25.9436 41.6602
26.1268 42.5714
26.31 41.1859
26.4933 41.6861
26.6767 43.1001
26.8601 41.569
27.0437 39.9627
27.2272 39.4938
27.4109 39.3802
27.5946 39.3078
27.7784 38.6802
27.9623 39.1995
28.1462 39.7069
28.3304 38.1581
28.5145 36.8414
28.6987 36.5564
28.8829 36.249
29.0673 35.5531
29.2517 35.1219
29.4361 34.8747
29.6207 34.0602
29.8053 33.7317
29.99 33.3511
30.1748 33.1475
30.3597 33.0723
30.5447 32.9076
30.7297 32.8992
30.915 32.3825
31.1002 31.8719
31.2855 31.4939
31.4708 31.5238
31.6563 31.1017
31.8418 30.8642
32.0275 30.6439
32.2132 30.1187
32.399 29.6056
32.5848 29.1267
32.7708 28.8255
32.9569 28.6173
33.143 28.429
33.3293 28.1275
33.5158 27.731
33.7022 27.2233
33.8887 26.945
34.0753 26.5672
34.262 26.2222
34.4488 25.9571
34.6357 25.5772
34.8227 25.2698
35.0098 25.0678
35.1969 24.7444
35.3842 24.4916
35.5716 24.3099
35.759 24.081
35.9468 23.6622
36.1345 23.455
36.3222 23.1765
36.5101 22.9766
36.6981 22.6749
36.8861 22.2754
37.0743 22.029
37.2626 21.7125
37.451 21.453
37.6395 21.3762
37.8281 21.0057
38.0168 20.7418
38.2056 20.4176
38.3945 20.1896
38.5837 19.8743
38.7728 19.6565
38.9621 19.4509
39.1514 19.2
39.3409 18.8485
39.5304 18.676
39.7201 18.4943
39.9099 18.2305
40.0999 18.0114
40.2899 17.8094
40.48 17.5984
40.6703 17.3436
40.8607 17.1719
41.0512 16.8882
41.242 16.6801
41.4327 16.4795
41.6236 16.1694
41.8146 16.01
42.0057 15.7986
42.1969 15.5787
42.3882 15.4062
42.5797 15.1894
42.7713 14.985
42.963 14.7172
43.1549 14.5843
43.3468 14.3439
43.5389 14.1809
43.7312 13.9436
43.9237 13.8
44.1162 13.5786
44.3088 13.3646
44.5016 13.1774
44.6945 13.0414
44.8875 12.8426
45.0806 12.6816
45.2739 12.453
45.4673 12.3274
45.6609 12.1322
45.8546 11.9709
46.0484 11.8812
46.2424 11.6169
46.4365 11.4819
46.631 11.2941
46.8254 11.0816
47.0199 10.9855
47.2146 10.8068
47.4095 10.6421
47.6044 10.4713
47.7996 10.2969
47.9948 10.174
48.1902 9.99711
48.3858 9.87499
48.5815 9.7061
48.7774 9.61706
48.9734 9.47862
49.1696 9.32757
49.3661 9.17707
49.5626 9.0278
49.7592 8.86775
49.956 8.77536
50.153 8.62959
50.3501 8.46479
50.5474 8.3901
50.7448 8.26715
50.9424 8.1206
51.1402 8.0085
51.3381 7.86162
51.5362 7.73348
51.7344 7.61588
51.9328 7.4909
52.1316 7.3326
52.3304 7.24657
52.5293 7.09227
52.7284 6.98371
52.9276 6.86899
53.1271 6.79018
53.3267 6.61977
53.5265 6.52915
53.7264 6.40187
53.9266 6.33355
54.1269 6.16881
54.3274 6.08227
54.528 5.94869
54.7289 5.75755
54.9301 5.53637
55.1314 5.4695
55.3328 5.27136
55.5344 5.08804
55.7361 4.94972