File: XRD/Ni3Fe_FD0911.xy
TT I
1.27165 7.5196
1.45013 5.44914
1.62863 5.36451
1.80712 4.82888
1.98562 4.2738
2.16411 5.00438
2.34263 5.98336
2.52115 7.48537
2.69965 8.17213
2.87818 9.13046
3.05672 11.2107
3.23527 15.5109
3.4138 18.3854
3.59237 23.1552
3.77094 25.744
3.9495 29.4341
4.12809 34.1765
4.30669 128.525
4.4853 56.0679
4.6639 54.9495
4.84253 67.0608
5.02118 86.0804
5.19981 350.245
5.37848 180.364
5.55716 100.57
5.73586 91.2378
5.91455 93.0981
6.09328 4748.69
6.27201 79.1256
6.45075 68.0989
6.62952 61.9139
6.8083 58.6619
6.98711 54.8615
7.16591 55.4107
7.34475 72.6639
7.5236 53.7442
7.70247 55.6173
7.88135 56.938
8.06026 61.6217
8.23919 68.5654
8.41812 83.0174
8.59709 1201.27
8.77609 95.9579
8.9551 88.5923
9.13412 81.3605
9.31318 82.9187
9.49226 83.5837
9.67134 94.7568
9.85047 99.5792
10.0296 328.68
10.2088 325.157
10.388 102.911
10.5672 544.748
10.7465 84.7956
10.9257 76.9206
11.105 70.4278
11.2844 67.8691
11.4637 63.8153
11.6431 62.2423
11.8225 61.6154
12.002 62.9368
12.1814 157.812
12.3609 66.4147
12.5405 63.5757
12.72 67.4297
12.8996 70.083
13.0792 78.5777
13.2589 244.069
13.4386 113.706
13.6183 258.591
13.7981 91.6692
13.9779 74.673
14.1577 70.7142
14.3376 69.4132
14.5175 67.7552
14.6974 69.4124
14.8774 109.808
15.0574 138.224
15.2374 68.7631
15.4175 65.218
15.5976 64.6752
15.7778 93.8064
15.958 145.157
16.1382 60.5669
16.3185 57.2148
16.4988 54.5207
16.6792 53.5753
16.8596 54.0432
17.04 54.9239
17.2205 66.0055
17.401 67.5081
17.5815 58.2393
17.7622 60.2908
17.9428 72.279
18.1237 139.967
18.3044 90.434
18.4852 73.0748
18.666 59.2802
18.8469 56.9039
19.0278 55.8211
19.2088 58.2158
19.3898 75.0268
19.5709 53.1785
19.752 52.4148
19.9332 55.26
20.1144 69.2933
20.2957 64.1936
20.477 51.8809
20.6586 48.7371
20.84 48.0497
21.0215 47.8998
21.203 50.2239
21.3846 47.9968
21.5662 48.1119
21.7479 51.9734
21.9297 64.1067
22.1115 55.3431
22.2933 48.8271
22.4753 47.7771
22.6572 48.0585
22.8393 51.2412
23.0214 56.0415
23.2037 47.8885
23.3859 48.8082
23.5682 56.8658
23.7505 46.9384
23.9329 44.5147
24.1154 43.4019
24.2979 42.6139
24.4805 42.218
24.6631 41.9788
24.8458 41.5255
25.0286 42.1344
25.2114 43.9839
25.3943 43.7808
25.5773 40.1314
25.7605 39.8156
25.9436 40.2628
26.1268 41.0521
26.31 39.4219
26.4933 40.0651
26.6767 41.4453
26.8601 39.7223
27.0437 38.1817
27.2272 37.8783
27.4109 37.8134
27.5946 37.7437
27.7784 37.1845
27.9623 37.936
28.1462 38.0979
28.3304 36.5019
28.5145 35.3612
28.6987 34.9347
28.8829 34.9074
29.0673 34.0523
29.2517 33.8052
29.4361 33.5482
29.6207 32.5656
29.8053 32.173
29.99 31.9829
30.1748 31.811
30.3597 31.679
30.5447 31.5839
30.7297 31.7736
30.915 31.0503
31.1002 30.6478
31.2855 30.3179
31.4708 30.2657
31.6563 29.8763
31.8418 29.6566
32.0275 29.417
32.2132 28.9138
32.399 28.4969
32.5848 27.9615
32.7708 27.6581
32.9569 27.5862
33.143 27.3224
33.3293 27.0377
33.5158 26.5697
33.7022 26.1871
33.8887 25.8885
34.0753 25.5601
34.262 25.2458
34.4488 24.853
34.6357 24.6114
34.8227 24.3146
35.0098 24.1386
35.1969 23.7894
35.3842 23.5527
35.5716 23.4453
35.759 23.111
35.9468 22.7188
36.1345 22.48
36.3222 22.3316
36.5101 22.0362
36.6981 21.7709
36.8861 21.4296
37.0743 21.2034
37.2626 20.9136
37.451 20.7202
37.6395 20.4877
37.8281 20.1634
38.0168 19.8892
38.2056 19.6687
38.3945 19.3536
38.5837 19.0899
38.7728 18.8631
38.9621 18.6507
39.1514 18.352
39.3409 18.1538
39.5304 17.9245
39.7201 17.7492
39.9099 17.5525
40.0999 17.309
40.2899 17.0913
40.48 16.8355
40.6703 16.6664
40.8607 16.4901
41.0512 16.2257
41.242 15.966
41.4327 15.7839
41.6236 15.5743
41.8146 15.3919
42.0057 15.1725
42.1969 14.9625
42.3882 14.8195
42.5797 14.5279
42.7713 14.3787
42.963 14.146
43.1549 13.98
43.3468 13.7782
43.5389 13.6015
43.7312 13.4169
43.9237 13.2399
44.1162 13.0263
44.3088 12.8566
44.5016 12.6703
44.6945 12.5538
44.8875 12.3476
45.0806 12.1261
45.2739 12.0006
45.4673 11.8423
45.6609 11.65
45.8546 11.4902
46.0484 11.3483
46.2424 11.1553
46.4365 11.0339
46.631 10.858
46.8254 10.6671
47.0199 10.5431
47.2146 10.383
47.4095 10.2098
47.6044 10.0498
47.7996 9.91633
47.9948 9.7495
48.1902 9.6485
48.3858 9.47372
48.5815 9.35476
48.7774 9.22746
48.9734 9.10367
49.1696 8.93833
49.3661 8.8078
49.5626 8.65514
49.7592 8.55452
49.956 8.42761
50.153 8.26264
50.3501 8.12081
50.5474 8.08493
50.7448 7.93779
50.9424 7.81387
51.1402 7.71172
51.3381 7.55716
51.5362 7.42252
51.7344 7.31398
51.9328 7.16288
52.1316 7.07298
52.3304 6.95015
52.5293 6.83913
52.7284 6.72363
52.9276 6.62877
53.1271 6.55647
53.3267 6.39344
53.5265 6.27176
53.7264 6.17902
53.9266 6.08977
54.1269 5.96376
54.3274 5.90658
54.528 5.73149
54.7289 5.56795
54.9301 5.38084
55.1314 5.29934
55.3328 5.07749
55.5344 4.91415
55.7361 4.80987