File: XRD/Ni3Fe_FD0688.xy
TT I
1.27165 7.66829
1.45013 6.09696
1.62863 5.31302
1.80712 4.45582
1.98562 4.60327
2.16411 4.58761
2.34263 5.57486
2.52115 6.64598
2.69965 8.21367
2.87818 9.05532
3.05672 10.7798
3.23527 14.8473
3.4138 18.8167
3.59237 23.1583
3.77094 25.8763
3.9495 29.2796
4.12809 34.4343
4.30669 129.501
4.4853 56.4247
4.6639 55.2505
4.84253 67.9148
5.02118 87.2436
5.19981 419.365
5.37848 191.673
5.55716 102.002
5.73586 93.0256
5.91455 95.7613
6.09328 4578.14
6.27201 81.2513
6.45075 68.0487
6.62952 62.3629
6.8083 58.6068
6.98711 55.2003
7.16591 55.5477
7.34475 72.9177
7.5236 54.2071
7.70247 56.1411
7.88135 57.6577
8.06026 62.513
8.23919 69.3102
8.41812 84.4563
8.59709 1232.45
8.77609 98.4848
8.9551 89.0579
9.13412 82.4967
9.31318 83.401
9.49226 84.711
9.67134 95.563
9.85047 100.959
10.0296 365.96
10.2088 363.71
10.388 105.168
10.5672 514.479
10.7465 85.9687
10.9257 77.914
11.105 71.4765
11.2844 68.5727
11.4637 64.8569
11.6431 63.3275
11.8225 62.3967
12.002 63.8938
12.1814 155.038
12.3609 67.7847
12.5405 64.7197
12.72 68.4061
12.8996 71.2619
13.0792 79.9253
13.2589 248.553
13.4386 120.349
13.6183 256.429
13.7981 93.9462
13.9779 75.9734
14.1577 71.9118
14.3376 70.6692
14.5175 68.6707
14.6974 70.4815
14.8774 113.72
15.0574 140.427
15.2374 69.795
15.4175 66.1473
15.5976 65.9157
15.7778 96.6564
15.958 150.271
16.1382 61.5081
16.3185 58.0288
16.4988 55.4781
16.6792 54.3517
16.8596 54.7981
17.04 55.8614
17.2205 67.1929
17.401 69.8529
17.5815 59.0877
17.7622 61.2663
17.9428 74.5026
18.1237 142.702
18.3044 91.6356
18.4852 75.3102
18.666 60.2924
18.8469 57.6932
19.0278 56.7121
19.2088 59.5311
19.3898 76.0161
19.5709 53.924
19.752 53.2702
19.9332 56.2825
20.1144 69.9264
20.2957 64.2801
20.477 52.9078
20.6586 49.4294
20.84 48.7726
21.0215 48.6162
21.203 50.7965
21.3846 48.7078
21.5662 48.8809
21.7479 52.8155
21.9297 64.8817
22.1115 56.1012
22.2933 49.6793
22.4753 48.5512
22.6572 48.9336
22.8393 52.2113
23.0214 57.0623
23.2037 48.7345
23.3859 49.6733
23.5682 57.1792
23.7505 47.9396
23.9329 45.1142
24.1154 43.8854
24.2979 43.2573
24.4805 42.8568
24.6631 42.7695
24.8458 42.1945
25.0286 42.8477
25.2114 44.548
25.3943 44.3957
25.5773 40.8815
25.7605 40.3344
25.9436 40.7584
26.1268 41.6656
26.31 40.0139
26.4933 40.741
26.6767 42.3579
26.8601 40.2915
27.0437 38.7927
27.2272 38.398
27.4109 38.3426
27.5946 38.3429
27.7784 37.8658
27.9623 38.4791
28.1462 38.6184
28.3304 37.0472
28.5145 35.8139
28.6987 35.5888
28.8829 35.2864
29.0673 34.592
29.2517 34.2885
29.4361 34.0336
29.6207 33.0655
29.8053 32.8701
29.99 32.5622
30.1748 32.4946
30.3597 32.245
30.5447 32.0818
30.7297 32.1511
30.915 31.5632
31.1002 31.045
31.2855 30.9294
31.4708 30.8222
31.6563 30.2762
31.8418 30.1178
32.0275 29.8897
32.2132 29.3224
32.399 28.7997
32.5848 28.4905
32.7708 28.0381
32.9569 27.9459
33.143 27.8071
33.3293 27.2902
33.5158 26.9757
33.7022 26.5562
33.8887 26.2778
34.0753 25.8709
34.262 25.5884
34.4488 25.3284
34.6357 24.9001
34.8227 24.6667
35.0098 24.4534
35.1969 24.1878
35.3842 23.9554
35.5716 23.7056
35.759 23.4351
35.9468 23.0905
36.1345 22.8644
36.3222 22.5535
36.5101 22.3754
36.6981 22.1417
36.8861 21.7801
37.0743 21.5099
37.2626 21.2153
37.451 21.0038
37.6395 20.8197
37.8281 20.4548
38.0168 20.1834
38.2056 19.9045
38.3945 19.6571
38.5837 19.438
38.7728 19.2124
38.9621 18.9116
39.1514 18.6698
39.3409 18.4751
39.5304 18.256
39.7201 18.0242
39.9099 17.8149
40.0999 17.5383
40.2899 17.2773
40.48 17.1305
40.6703 16.9059
40.8607 16.7304
41.0512 16.4261
41.242 16.2131
41.4327 16.0021
41.6236 15.8058
41.8146 15.5874
42.0057 15.3571
42.1969 15.1369
42.3882 15.0241
42.5797 14.8195
42.7713 14.6505
42.963 14.3814
43.1549 14.1785
43.3468 13.9922
43.5389 13.8358
43.7312 13.6198
43.9237 13.4272
44.1162 13.261
44.3088 13.0911
44.5016 12.8305
44.6945 12.7139
44.8875 12.5095
45.0806 12.365
45.2739 12.2015
45.4673 11.9917
45.6609 11.8203
45.8546 11.7227
46.0484 11.5053
46.2424 11.3252
46.4365 11.2048
46.631 11.0084
46.8254 10.8295
47.0199 10.6718
47.2146 10.5554
47.4095 10.41
47.6044 10.2172
47.7996 10.0668
47.9948 9.93483
48.1902 9.80219
48.3858 9.65935
48.5815 9.50938
48.7774 9.40349
48.9734 9.22617
49.1696 9.06759
49.3661 8.93673
49.5626 8.80224
49.7592 8.67701
49.956 8.55929
50.153 8.41542
50.3501 8.29647
50.5474 8.12995
50.7448 8.03897
50.9424 7.88406
51.1402 7.80916
51.3381 7.62944
51.5362 7.51873
51.7344 7.39598
51.9328 7.3226
52.1316 7.1539
52.3304 7.07513
52.5293 6.95329
52.7284 6.85814
52.9276 6.7011
53.1271 6.60476
53.3267 6.48225
53.5265 6.3728
53.7264 6.26265
53.9266 6.17957
54.1269 6.03689
54.3274 5.93294
54.528 5.82641
54.7289 5.59399
54.9301 5.45619
55.1314 5.31277
55.3328 5.17328
55.5344 4.95717
55.7361 4.76333