File: XRD/Ni3Fe_FD0881.xy
TT I
1.27165 7.40847
1.45013 6.49697
1.62863 5.27116
1.80712 4.92339
1.98562 5.17536
2.16411 5.54992
2.34263 5.63858
2.52115 7.56221
2.69965 8.16363
2.87818 9.04792
3.05672 10.9082
3.23527 15.3855
3.4138 19.327
3.59237 24.3265
3.77094 26.0592
3.9495 29.8105
4.12809 34.7594
4.30669 264.602
4.4853 69.7576
4.6639 54.8474
4.84253 66.0451
5.02118 84.4565
5.19981 288.495
5.37848 180.934
5.55716 100.007
5.73586 90.5576
5.91455 91.3035
6.09328 4336.23
6.27201 81.6597
6.45075 66.7893
6.62952 62.7629
6.8083 58.0614
6.98711 55.6177
7.16591 55.5376
7.34475 100.219
7.5236 54.6478
7.70247 55.7998
7.88135 57.1769
8.06026 61.5137
8.23919 68.6053
8.41812 84.1028
8.59709 1084.6
8.77609 97.7691
8.9551 92.5333
9.13412 81.064
9.31318 80.8309
9.49226 83.2518
9.67134 99.6636
9.85047 97.8567
10.0296 292.663
10.2088 404.085
10.388 103.195
10.5672 512.291
10.7465 85.4754
10.9257 77.8471
11.105 71.3214
11.2844 70.2309
11.4637 64.4828
11.6431 62.8884
11.8225 61.8737
12.002 62.4053
12.1814 149.708
12.3609 71.3556
12.5405 63.8729
12.72 70.1105
12.8996 69.9658
13.0792 77.3017
13.2589 222.279
13.4386 123.546
13.6183 238.999
13.7981 96.1243
13.9779 74.6499
14.1577 71.7606
14.3376 71.1106
14.5175 67.8182
14.6974 69.4269
14.8774 104.123
15.0574 147.405
15.2374 70.9101
15.4175 65.3451
15.5976 64.6203
15.7778 89.521
15.958 156.417
16.1382 62.3123
16.3185 58.3047
16.4988 54.8986
16.6792 53.9532
16.8596 54.6248
17.04 54.9033
17.2205 64.8815
17.401 69.6232
17.5815 58.3841
17.7622 60.4144
17.9428 70.7426
18.1237 138.017
18.3044 88.6577
18.4852 76.3684
18.666 59.5539
18.8469 57.2922
19.0278 56.2347
19.2088 58.3014
19.3898 76.4144
19.5709 53.6145
19.752 52.6425
19.9332 55.0767
20.1144 69.5883
20.2957 63.3415
20.477 53.2787
20.6586 49.173
20.84 48.1787
21.0215 47.8943
21.203 50.2804
21.3846 48.4119
21.5662 48.1782
21.7479 51.4887
21.9297 64.1361
22.1115 55.5669
22.2933 49.2117
22.4753 48.4192
22.6572 48.1238
22.8393 50.8341
23.0214 56.9331
23.2037 48.218
23.3859 48.9254
23.5682 56.4119
23.7505 47.8137
23.9329 44.5105
24.1154 43.6651
24.2979 42.8179
24.4805 42.3621
24.6631 42.4004
24.8458 41.7422
25.0286 42.2001
25.2114 44.0549
25.3943 44.1718
25.5773 40.3986
25.7605 39.8694
25.9436 40.2674
26.1268 41.0737
26.31 39.4319
26.4933 40.1283
26.6767 41.684
26.8601 40.0198
27.0437 38.4097
27.2272 37.9967
27.4109 37.9446
27.5946 37.9753
27.7784 37.2851
27.9623 37.8023
28.1462 38.2433
28.3304 36.7609
28.5145 35.4885
28.6987 35.2274
28.8829 34.9977
29.0673 34.2045
29.2517 33.9233
29.4361 33.8816
29.6207 32.706
29.8053 32.5504
29.99 32.1787
30.1748 32.0993
30.3597 31.8081
30.5447 31.7484
30.7297 31.8785
30.915 31.2869
31.1002 30.7735
31.2855 30.5206
31.4708 30.5094
31.6563 30.014
31.8418 29.6841
32.0275 29.4958
32.2132 29.0229
32.399 28.5719
32.5848 28.0948
32.7708 27.7706
32.9569 27.6264
33.143 27.4776
33.3293 27.0305
33.5158 26.6592
33.7022 26.3032
33.8887 25.9059
34.0753 25.6255
34.262 25.2712
34.4488 24.9768
34.6357 24.6774
34.8227 24.4283
35.0098 24.2325
35.1969 23.9869
35.3842 23.7244
35.5716 23.514
35.759 23.2059
35.9468 22.8134
36.1345 22.6449
36.3222 22.3624
36.5101 22.1783
36.6981 21.8594
36.8861 21.5114
37.0743 21.152
37.2626 21.0239
37.451 20.7485
37.6395 20.5274
37.8281 20.1993
38.0168 19.9586
38.2056 19.7108
38.3945 19.439
38.5837 19.1941
38.7728 19.0026
38.9621 18.6833
39.1514 18.384
39.3409 18.1957
39.5304 18.0186
39.7201 17.9298
39.9099 17.6618
40.0999 17.3531
40.2899 17.1435
40.48 16.8866
40.6703 16.7195
40.8607 16.5471
41.0512 16.2755
41.242 16.0998
41.4327 15.857
41.6236 15.7089
41.8146 15.4325
42.0057 15.2871
42.1969 15.0314
42.3882 14.8333
42.5797 14.6728
42.7713 14.4478
42.963 14.2853
43.1549 14.0957
43.3468 13.9154
43.5389 13.6878
43.7312 13.5183
43.9237 13.2747
44.1162 13.1317
44.3088 12.9222
44.5016 12.7615
44.6945 12.5579
44.8875 12.4484
45.0806 12.2341
45.2739 12.0886
45.4673 11.9007
45.6609 11.6985
45.8546 11.6119
46.0484 11.4226
46.2424 11.2325
46.4365 11.0772
46.631 10.9051
46.8254 10.7566
47.0199 10.6256
47.2146 10.4613
47.4095 10.2771
47.6044 10.1253
47.7996 9.9898
47.9948 9.82465
48.1902 9.69074
48.3858 9.56746
48.5815 9.41934
48.7774 9.30547
48.9734 9.14417
49.1696 9.00019
49.3661 8.86093
49.5626 8.72432
49.7592 8.60137
49.956 8.45546
50.153 8.33344
50.3501 8.20364
50.5474 8.10061
50.7448 7.98105
50.9424 7.8326
51.1402 7.71473
51.3381 7.62291
51.5362 7.47313
51.7344 7.33323
51.9328 7.23846
52.1316 7.09564
52.3304 7.00661
52.5293 6.89618
52.7284 6.7931
52.9276 6.61754
53.1271 6.52812
53.3267 6.45456
53.5265 6.29635
53.7264 6.20601
53.9266 6.09172
54.1269 5.98558
54.3274 5.89391
54.528 5.79554
54.7289 5.60094
54.9301 5.41771
55.1314 5.3059
55.3328 5.07515
55.5344 4.88253
55.7361 4.75588