File: XRD/Ni3Fe_FD0338.xy
TT I
1.27165 7.12784
1.45013 6.79977
1.62863 5.55426
1.80712 5.2156
1.98562 5.09961
2.16411 4.82773
2.34263 5.00542
2.52115 6.14008
2.69965 7.27415
2.87818 7.95793
3.05672 11.4667
3.23527 14.8534
3.4138 18.8564
3.59237 23.6685
3.77094 26.7049
3.9495 29.907
4.12809 35.3899
4.30669 152.03
4.4853 60.2851
4.6639 56.9087
4.84253 70.0554
5.02118 91.6343
5.19981 579.104
5.37848 226.569
5.55716 106.408
5.73586 96.0533
5.91455 101.64
6.09328 4081.48
6.27201 86.345
6.45075 69.7517
6.62952 64.198
6.8083 60.0706
6.98711 57.2153
7.16591 56.551
7.34475 80.0716
7.5236 55.7568
7.70247 57.593
7.88135 59.1461
8.06026 63.9695
8.23919 72.02
8.41812 88.7116
8.59709 1168.65
8.77609 104.656
8.9551 92.0237
9.13412 84.5928
9.31318 85.9367
9.49226 87.7435
9.67134 98.5192
9.85047 103.77
10.0296 432.617
10.2088 485.751
10.388 109.787
10.5672 482.414
10.7465 89.7018
10.9257 80.2535
11.105 74.0679
11.2844 71.6505
11.4637 66.8796
11.6431 65.2464
11.8225 64.2421
12.002 66.3009
12.1814 149.339
12.3609 71.5072
12.5405 66.4634
12.72 70.9251
12.8996 73.5436
13.0792 82.6935
13.2589 244.984
13.4386 133.251
13.6183 242.538
13.7981 102.676
13.9779 78.2132
14.1577 74.3117
14.3376 73.3944
14.5175 71.0366
14.6974 72.8852
14.8774 119.16
15.0574 155.834
15.2374 72.5117
15.4175 68.5405
15.5976 68.1363
15.7778 102.596
15.958 165.055
16.1382 63.9518
16.3185 59.9167
16.4988 57.1514
16.6792 56.092
16.8596 56.6874
17.04 57.8534
17.2205 68.9226
17.401 74.2915
17.5815 61.0603
17.7622 63.3162
17.9428 78.941
18.1237 139.904
18.3044 91.5703
18.4852 80.3375
18.666 62.1919
18.8469 59.6336
19.0278 58.4446
19.2088 62.0122
19.3898 77.1306
19.5709 55.9415
19.752 55.049
19.9332 58.3273
20.1144 71.3654
20.2957 64.4395
20.477 55.5307
20.6586 51.1453
20.84 50.4563
21.0215 50.2691
21.203 52.0006
21.3846 50.7386
21.5662 50.5583
21.7479 54.6232
21.9297 66.2674
22.1115 57.4149
22.2933 51.5635
22.4753 50.3404
22.6572 50.5478
22.8393 53.6301
23.0214 59.0474
23.2037 50.276
23.3859 51.7055
23.5682 57.6039
23.7505 49.7774
23.9329 46.7087
24.1154 45.342
24.2979 44.7673
24.4805 44.2372
24.6631 44.1933
24.8458 43.4259
25.0286 44.1709
25.2114 45.9614
25.3943 45.9916
25.5773 42.0891
25.7605 41.7428
25.9436 42.1265
26.1268 42.9034
26.31 41.454
26.4933 42.0122
26.6767 43.4062
26.8601 41.7015
27.0437 40.0712
27.2272 39.6235
27.4109 39.5436
27.5946 39.5653
27.7784 39.1278
27.9623 39.496
28.1462 40.1077
28.3304 38.2357
28.5145 37.0948
28.6987 36.6845
28.8829 36.4425
29.0673 35.6903
29.2517 35.2696
29.4361 35.1394
29.6207 34.1816
29.8053 33.8304
29.99 33.6355
30.1748 33.3882
30.3597 33.2393
30.5447 33.0793
30.7297 33.234
30.915 32.5626
31.1002 32.0623
31.2855 31.8109
31.4708 31.6549
31.6563 31.2386
31.8418 31.1096
32.0275 30.8111
32.2132 30.2447
32.399 29.7885
32.5848 29.3058
32.7708 29.0609
32.9569 28.8024
33.143 28.617
33.3293 28.1941
33.5158 27.7945
33.7022 27.417
33.8887 27.1572
34.0753 26.7601
34.262 26.4387
34.4488 25.9628
34.6357 25.688
34.8227 25.3884
35.0098 25.2175
35.1969 24.9521
35.3842 24.715
35.5716 24.5113
35.759 24.192
35.9468 23.7844
36.1345 23.5599
36.3222 23.3622
36.5101 23.0762
36.6981 22.7314
36.8861 22.49
37.0743 22.1079
37.2626 21.8127
37.451 21.6265
37.6395 21.405
37.8281 21.1261
38.0168 20.7522
38.2056 20.5838
38.3945 20.3079
38.5837 20.0356
38.7728 19.8152
38.9621 19.4676
39.1514 19.272
39.3409 18.9482
39.5304 18.7879
39.7201 18.5316
39.9099 18.3606
40.0999 18.0766
40.2899 17.9212
40.48 17.6099
40.6703 17.428
40.8607 17.2192
41.0512 17.0006
41.242 16.7293
41.4327 16.5002
41.6236 16.3014
41.8146 16.1284
42.0057 15.8873
42.1969 15.6041
42.3882 15.4632
42.5797 15.2778
42.7713 15.0521
42.963 14.8448
43.1549 14.6638
43.3468 14.4513
43.5389 14.2197
43.7312 14.0337
43.9237 13.8175
44.1162 13.6152
44.3088 13.4694
44.5016 13.2504
44.6945 13.0866
44.8875 12.9063
45.0806 12.7336
45.2739 12.5568
45.4673 12.3623
45.6609 12.1726
45.8546 12.0523
46.0484 11.8458
46.2424 11.6456
46.4365 11.5232
46.631 11.3487
46.8254 11.1585
47.0199 11.0092
47.2146 10.8334
47.4095 10.6711
47.6044 10.5288
47.7996 10.3624
47.9948 10.1972
48.1902 10.0462
48.3858 9.95278
48.5815 9.79535
48.7774 9.67854
48.9734 9.51248
49.1696 9.35186
49.3661 9.25285
49.5626 9.05289
49.7592 8.97508
49.956 8.81679
50.153 8.68835
50.3501 8.51899
50.5474 8.41675
50.7448 8.31088
50.9424 8.15813
51.1402 8.02244
51.3381 7.88906
51.5362 7.76769
51.7344 7.64781
51.9328 7.50156
52.1316 7.40453
52.3304 7.27964
52.5293 7.1255
52.7284 7.06203
52.9276 6.96492
53.1271 6.76567
53.3267 6.68097
53.5265 6.58103
53.7264 6.43635
53.9266 6.33479
54.1269 6.23175
54.3274 6.14832
54.528 5.95758
54.7289 5.75324
54.9301 5.59428
55.1314 5.53974
55.3328 5.27721
55.5344 5.09726
55.7361 4.96895