File: XRD/Ni3Fe_FD0385.xy
TT I
1.27165 7.20354
1.45013 6.36705
1.62863 4.97801
1.80712 5.30228
1.98562 4.67827
2.16411 4.42118
2.34263 4.4171
2.52115 6.21468
2.69965 7.16883
2.87818 8.52805
3.05672 11.2467
3.23527 15.017
3.4138 19.0356
3.59237 24.5259
3.77094 26.5526
3.9495 29.9639
4.12809 35.4022
4.30669 207.856
4.4853 65.6766
4.6639 56.6518
4.84253 69.4541
5.02118 89.8377
5.19981 462.23
5.37848 227.342
5.55716 105.785
5.73586 95.1943
5.91455 99.434
6.09328 4030.42
6.27201 87.0833
6.45075 69.4306
6.62952 64.5446
6.8083 60.5453
6.98711 57.4139
7.16591 56.7719
7.34475 90.8884
7.5236 56.2347
7.70247 57.5346
7.88135 59.67
8.06026 64.147
8.23919 71.1424
8.41812 88.0619
8.59709 1152.09
8.77609 105.189
8.9551 94.0949
9.13412 84.3664
9.31318 85.3843
9.49226 86.989
9.67134 101.041
9.85047 103.174
10.0296 389.406
10.2088 505.901
10.388 108.568
10.5672 481.981
10.7465 89.4438
10.9257 80.4295
11.105 73.7764
11.2844 72.1636
11.4637 66.7072
11.6431 65.6539
11.8225 64.3233
12.002 65.7618
12.1814 148.84
12.3609 73.0613
12.5405 66.3843
12.72 71.8274
12.8996 72.67
13.0792 81.5218
13.2589 237.395
13.4386 140.743
13.6183 240.221
13.7981 106.314
13.9779 78.0706
14.1577 74.4444
14.3376 73.4204
14.5175 70.6077
14.6974 72.3774
14.8774 114.617
15.0574 162.754
15.2374 72.841
15.4175 68.1669
15.5976 67.6727
15.7778 98.4378
15.958 167.198
16.1382 64.4592
16.3185 60.3311
16.4988 57.1166
16.6792 55.8442
16.8596 56.8087
17.04 57.365
17.2205 68.1478
17.401 74.6754
17.5815 60.8208
17.7622 62.8156
17.9428 77.0188
18.1237 136.706
18.3044 91.1986
18.4852 81.9068
18.666 62.093
18.8469 59.6245
19.0278 58.5832
19.2088 61.5587
19.3898 76.6877
19.5709 55.851
19.752 54.6276
19.9332 58.1352
20.1144 70.716
20.2957 64.6888
20.477 55.8188
20.6586 51.1782
20.84 50.2177
21.0215 49.9892
21.203 51.8751
21.3846 50.6921
21.5662 50.1334
21.7479 54.0077
21.9297 65.4822
22.1115 57.0307
22.2933 51.6517
22.4753 50.1366
22.6572 50.3092
22.8393 53.2394
23.0214 58.7633
23.2037 50.0942
23.3859 51.2156
23.5682 57.3976
23.7505 50.1019
23.9329 46.5393
24.1154 45.4036
24.2979 44.5503
24.4805 43.9475
24.6631 43.938
24.8458 43.3862
25.0286 43.9932
25.2114 45.7041
25.3943 45.7518
25.5773 42.1272
25.7605 41.4657
25.9436 41.9827
26.1268 42.6957
26.31 41.3132
26.4933 41.7978
26.6767 43.1866
26.8601 41.5283
27.0437 39.9084
27.2272 39.5444
27.4109 39.3915
27.5946 39.3802
27.7784 38.8207
27.9623 39.2592
28.1462 39.8611
28.3304 38.159
28.5145 36.8809
28.6987 36.4485
28.8829 36.465
29.0673 35.6206
29.2517 35.2361
29.4361 34.8958
29.6207 34.0617
29.8053 33.805
29.99 33.4573
30.1748 33.3504
30.3597 33.2108
30.5447 33.0517
30.7297 33.0537
30.915 32.4183
31.1002 31.9192
31.2855 31.7117
31.4708 31.4759
31.6563 31.2274
31.8418 30.9704
32.0275 30.7487
32.2132 30.2196
32.399 29.7379
32.5848 29.194
32.7708 28.9221
32.9569 28.7753
33.143 28.4466
33.3293 28.1768
33.5158 27.7218
33.7022 27.2626
33.8887 27.0408
34.0753 26.717
34.262 26.3497
34.4488 26.0312
34.6357 25.5705
34.8227 25.314
35.0098 25.1443
35.1969 24.9108
35.3842 24.6727
35.5716 24.3895
35.759 24.1457
35.9468 23.6971
36.1345 23.4277
36.3222 23.3189
36.5101 22.9791
36.6981 22.7072
36.8861 22.3661
37.0743 22.095
37.2626 21.7944
37.451 21.5535
37.6395 21.2792
37.8281 21.0015
38.0168 20.6639
38.2056 20.5482
38.3945 20.2189
38.5837 19.9509
38.7728 19.6907
38.9621 19.4805
39.1514 19.1822
39.3409 18.9288
39.5304 18.6719
39.7201 18.5515
39.9099 18.3222
40.0999 18.0136
40.2899 17.842
40.48 17.5384
40.6703 17.3389
40.8607 17.1398
41.0512 16.9097
41.242 16.6659
41.4327 16.4661
41.6236 16.2675
41.8146 16.1091
42.0057 15.7874
42.1969 15.5927
42.3882 15.4233
42.5797 15.2056
42.7713 15.0495
42.963 14.8769
43.1549 14.5745
43.3468 14.363
43.5389 14.1588
43.7312 13.9696
43.9237 13.8393
44.1162 13.6526
44.3088 13.4367
44.5016 13.2353
44.6945 13.0114
44.8875 12.857
45.0806 12.7018
45.2739 12.4961
45.4673 12.331
45.6609 12.1441
45.8546 11.9738
46.0484 11.8267
46.2424 11.6522
46.4365 11.4738
46.631 11.2382
46.8254 11.1121
47.0199 10.9953
47.2146 10.8416
47.4095 10.6421
47.6044 10.491
47.7996 10.3316
47.9948 10.1924
48.1902 10.0547
48.3858 9.91607
48.5815 9.74429
48.7774 9.63224
48.9734 9.46346
49.1696 9.31962
49.3661 9.21138
49.5626 9.0395
49.7592 8.93733
49.956 8.77506
50.153 8.65885
50.3501 8.51966
50.5474 8.36671
50.7448 8.26191
50.9424 8.13256
51.1402 8.04458
51.3381 7.88164
51.5362 7.77212
51.7344 7.60087
51.9328 7.47458
52.1316 7.34359
52.3304 7.24862
52.5293 7.13381
52.7284 7.03421
52.9276 6.88645
53.1271 6.80341
53.3267 6.62777
53.5265 6.54072
53.7264 6.43275
53.9266 6.33068
54.1269 6.23999
54.3274 6.09264
54.528 5.89791
54.7289 5.76885
54.9301 5.6333
55.1314 5.51957
55.3328 5.24872
55.5344 5.05604
55.7361 4.88567