File: XRD/Ni3Fe_FD0973.xy
TT I
1.27165 6.9759
1.45013 5.75556
1.62863 5.4532
1.80712 4.83805
1.98562 4.86633
2.16411 5.10736
2.34263 5.51713
2.52115 7.8369
2.69965 9.37653
2.87818 8.74215
3.05672 11.4445
3.23527 15.135
3.4138 19.1659
3.59237 23.8402
3.77094 25.8516
3.9495 29.7672
4.12809 34.5195
4.30669 211.84
4.4853 64.2632
4.6639 54.6225
4.84253 66.273
5.02118 84.2807
5.19981 277.313
5.37848 171.849
5.55716 99.3177
5.73586 89.7745
5.91455 90.8271
6.09328 4606.69
6.27201 80.7741
6.45075 66.0893
6.62952 61.9132
6.8083 57.5017
6.98711 55.0355
7.16591 54.6791
7.34475 89.1546
7.5236 53.9968
7.70247 55.2598
7.88135 56.8355
8.06026 60.9125
8.23919 68.1298
8.41812 83.0908
8.59709 1138.12
8.77609 96.2458
8.9551 89.7866
9.13412 80.3001
9.31318 81.0028
9.49226 82.9872
9.67134 96.1517
9.85047 97.7216
10.0296 297.904
10.2088 355.523
10.388 101.952
10.5672 527.632
10.7465 84.8519
10.9257 76.8683
11.105 70.6925
11.2844 69.0168
11.4637 63.6382
11.6431 62.478
11.8225 61.4137
12.002 62.3769
12.1814 153.588
12.3609 68.9518
12.5405 63.3006
12.72 68.4187
12.8996 69.459
13.0792 76.7571
13.2589 233.003
13.4386 118.744
13.6183 247.292
13.7981 94.4225
13.9779 74.3009
14.1577 70.6071
14.3376 70.0408
14.5175 67.5766
14.6974 68.6602
14.8774 105.691
15.0574 145.486
15.2374 69.3528
15.4175 64.831
15.5976 64.3441
15.7778 90.7103
15.958 149.911
16.1382 60.9181
16.3185 57.5316
16.4988 54.2469
16.6792 53.4147
16.8596 53.9762
17.04 54.4125
17.2205 64.9733
17.401 68.6697
17.5815 57.9066
17.7622 59.7838
17.9428 70.5927
18.1237 137.503
18.3044 89.5284
18.4852 75.0058
18.666 59.1402
18.8469 56.8642
19.0278 55.6362
19.2088 57.8958
19.3898 75.0827
19.5709 53.0203
19.752 52.0774
19.9332 54.834
20.1144 68.6698
20.2957 63.2838
20.477 52.3434
20.6586 48.5537
20.84 47.862
21.0215 47.3902
21.203 50.0277
21.3846 47.9475
21.5662 47.7227
21.7479 51.319
21.9297 63.3666
22.1115 54.9793
22.2933 48.9454
22.4753 47.9076
22.6572 47.6789
22.8393 50.7397
23.0214 56.1038
23.2037 47.7117
23.3859 48.4597
23.5682 56.4386
23.7505 47.2621
23.9329 44.2088
24.1154 43.1961
24.2979 42.628
24.4805 42.1235
24.6631 41.8766
24.8458 41.2552
25.0286 41.9872
25.2114 43.6758
25.3943 43.7287
25.5773 40.1119
25.7605 39.6087
25.9436 40.0167
26.1268 40.9797
26.31 39.3229
26.4933 39.9225
26.6767 41.3479
26.8601 39.6306
27.0437 38.1504
27.2272 37.6489
27.4109 37.5689
27.5946 37.6729
27.7784 37.1338
27.9623 37.6664
28.1462 38.1149
28.3304 36.4089
28.5145 35.2238
28.6987 34.9578
28.8829 34.7264
29.0673 33.941
29.2517 33.7399
29.4361 33.5136
29.6207 32.6013
29.8053 32.2276
29.99 31.9353
30.1748 31.781
30.3597 31.595
30.5447 31.484
30.7297 31.571
30.915 30.9579
31.1002 30.4904
31.2855 30.2924
31.4708 30.2284
31.6563 29.8194
31.8418 29.6191
32.0275 29.3294
32.2132 28.81
32.399 28.2823
32.5848 27.9548
32.7708 27.6369
32.9569 27.5349
33.143 27.2886
33.3293 26.8186
33.5158 26.5556
33.7022 26.0459
33.8887 25.8013
34.0753 25.5385
34.262 25.2153
34.4488 24.8597
34.6357 24.5184
34.8227 24.2044
35.0098 23.9647
35.1969 23.7747
35.3842 23.5107
35.5716 23.3687
35.759 22.9908
35.9468 22.6677
36.1345 22.4234
36.3222 22.2344
36.5101 22.014
36.6981 21.7003
36.8861 21.3546
37.0743 21.0582
37.2626 20.818
37.451 20.6423
37.6395 20.4565
37.8281 20.1273
38.0168 19.8645
38.2056 19.5828
38.3945 19.3575
38.5837 19.1454
38.7728 18.8914
38.9621 18.5795
39.1514 18.3283
39.3409 18.1895
39.5304 17.9158
39.7201 17.72
39.9099 17.5154
40.0999 17.2894
40.2899 17.0401
40.48 16.7848
40.6703 16.607
40.8607 16.4318
41.0512 16.2022
41.242 15.8906
41.4327 15.7276
41.6236 15.4986
41.8146 15.357
42.0057 15.167
42.1969 15.0076
42.3882 14.7599
42.5797 14.5297
42.7713 14.3692
42.963 14.1704
43.1549 13.9747
43.3468 13.8031
43.5389 13.5877
43.7312 13.4108
43.9237 13.217
44.1162 12.97
44.3088 12.84
44.5016 12.7019
44.6945 12.4997
44.8875 12.3828
45.0806 12.1643
45.2739 11.9674
45.4673 11.8048
45.6609 11.6035
45.8546 11.4811
46.0484 11.3574
46.2424 11.1453
46.4365 10.9885
46.631 10.8102
46.8254 10.6864
47.0199 10.4927
47.2146 10.3644
47.4095 10.21
47.6044 10.0641
47.7996 9.91081
47.9948 9.74141
48.1902 9.62654
48.3858 9.46317
48.5815 9.38623
48.7774 9.25056
48.9734 9.07995
49.1696 8.953
49.3661 8.77653
49.5626 8.65858
49.7592 8.4947
49.956 8.42032
50.153 8.27638
50.3501 8.17076
50.5474 8.03534
50.7448 7.91642
50.9424 7.78925
51.1402 7.67753
51.3381 7.55697
51.5362 7.42608
51.7344 7.29016
51.9328 7.1601
52.1316 7.03012
52.3304 6.94783
52.5293 6.79393
52.7284 6.73716
52.9276 6.62286
53.1271 6.52681
53.3267 6.42966
53.5265 6.26811
53.7264 6.13316
53.9266 6.04708
54.1269 5.9727
54.3274 5.83041
54.528 5.69608
54.7289 5.53561
54.9301 5.37713
55.1314 5.25197
55.3328 5.07533
55.5344 4.87671
55.7361 4.65683