File: XRD/Ni3Fe_FD0655.xy
TT I
1.27165 7.40957
1.45013 5.97346
1.62863 5.47822
1.80712 5.15422
1.98562 4.76468
2.16411 4.35006
2.34263 5.51777
2.52115 7.05344
2.69965 7.59303
2.87818 8.5294
3.05672 10.9767
3.23527 15.4709
3.4138 19.2179
3.59237 24.7899
3.77094 26.5252
3.9495 29.9048
4.12809 35.6197
4.30669 293.462
4.4853 72.8627
4.6639 55.4955
4.84253 67.0675
5.02118 86.4216
5.19981 327.951
5.37848 196.944
5.55716 101.944
5.73586 91.8895
5.91455 93.1089
6.09328 4300.0
6.27201 84.3493
6.45075 67.9342
6.62952 64.0754
6.8083 59.3087
6.98711 56.4869
7.16591 56.1351
7.34475 108.257
7.5236 55.3336
7.70247 56.6167
7.88135 58.3674
8.06026 62.5309
8.23919 69.8098
8.41812 85.5851
8.59709 1072.68
8.77609 100.516
8.9551 94.2143
9.13412 81.8542
9.31318 82.4335
9.49226 84.5284
9.67134 102.038
9.85047 99.937
10.0296 313.848
10.2088 453.688
10.388 105.807
10.5672 482.726
10.7465 87.0205
10.9257 79.011
11.105 72.2604
11.2844 71.7583
11.4637 65.3379
11.6431 64.0515
11.8225 62.9399
12.002 63.4573
12.1814 145.07
12.3609 73.6612
12.5405 64.8627
12.72 71.7991
12.8996 70.8267
13.0792 78.355
13.2589 223.242
13.4386 130.416
13.6183 232.476
13.7981 100.421
13.9779 76.103
14.1577 72.8388
14.3376 72.7983
14.5175 68.9296
14.6974 70.3596
14.8774 106.093
15.0574 157.488
15.2374 72.1221
15.4175 66.5031
15.5976 65.9185
15.7778 91.837
15.958 165.552
16.1382 64.0987
16.3185 59.354
16.4988 55.7627
16.6792 54.6962
16.8596 55.5185
17.04 55.8293
17.2205 65.7852
17.401 72.4244
17.5815 59.2314
17.7622 61.3823
17.9428 72.5627
18.1237 138.651
18.3044 88.7449
18.4852 79.9379
18.666 60.7337
18.8469 58.0409
19.0278 57.3315
19.2088 59.4319
19.3898 77.2091
19.5709 54.5847
19.752 53.4616
19.9332 56.2062
20.1144 69.6951
20.2957 63.1098
20.477 54.3206
20.6586 49.9474
20.84 48.9833
21.0215 48.7818
21.203 50.9099
21.3846 49.3429
21.5662 48.8082
21.7479 52.3674
21.9297 64.7622
22.1115 56.0188
22.2933 50.243
22.4753 49.2012
22.6572 48.9071
22.8393 51.7467
23.0214 58.1009
23.2037 48.9527
23.3859 49.7129
23.5682 56.7201
23.7505 48.7244
23.9329 45.3691
24.1154 44.252
24.2979 43.6584
24.4805 42.9568
24.6631 43.0602
24.8458 42.3617
25.0286 42.9152
25.2114 44.7854
25.3943 44.904
25.5773 41.1446
25.7605 40.5878
25.9436 40.92
26.1268 41.762
26.31 40.1912
26.4933 40.689
26.6767 42.3544
26.8601 40.5909
27.0437 39.0221
27.2272 38.7018
27.4109 38.5777
27.5946 38.5599
27.7784 37.9702
27.9623 38.3826
28.1462 38.9937
28.3304 37.318
28.5145 36.0903
28.6987 35.8458
28.8829 35.4987
29.0673 34.9208
29.2517 34.4333
29.4361 34.246
29.6207 33.3905
29.8053 32.9629
29.99 32.6722
30.1748 32.517
30.3597 32.3509
30.5447 32.1436
30.7297 32.3498
30.915 31.7502
31.1002 31.2218
31.2855 31.0617
31.4708 30.9164
31.6563 30.5173
31.8418 30.2596
32.0275 30.0942
32.2132 29.4783
32.399 29.0017
32.5848 28.5689
32.7708 28.2544
32.9569 28.0222
33.143 27.8394
33.3293 27.4656
33.5158 27.1172
33.7022 26.7427
33.8887 26.4282
34.0753 26.1208
34.262 25.8279
34.4488 25.4483
34.6357 25.0616
34.8227 24.7819
35.0098 24.5746
35.1969 24.376
35.3842 24.1819
35.5716 23.9186
35.759 23.5543
35.9468 23.2319
36.1345 22.9659
36.3222 22.7519
36.5101 22.4988
36.6981 22.2677
36.8861 21.8382
37.0743 21.6091
37.2626 21.3489
37.451 21.0196
37.6395 20.828
37.8281 20.5587
38.0168 20.2893
38.2056 20.0467
38.3945 19.8224
38.5837 19.5274
38.7728 19.2654
38.9621 19.0392
39.1514 18.8113
39.3409 18.564
39.5304 18.3336
39.7201 18.0776
39.9099 17.9194
40.0999 17.6506
40.2899 17.4598
40.48 17.2012
40.6703 16.9679
40.8607 16.8085
41.0512 16.5613
41.242 16.3516
41.4327 16.1182
41.6236 15.9184
41.8146 15.7096
42.0057 15.5097
42.1969 15.3157
42.3882 15.1182
42.5797 14.9285
42.7713 14.7061
42.963 14.5053
43.1549 14.321
43.3468 14.0523
43.5389 13.9287
43.7312 13.7603
43.9237 13.5245
44.1162 13.3696
44.3088 13.1735
44.5016 12.9631
44.6945 12.8205
44.8875 12.6302
45.0806 12.4339
45.2739 12.2785
45.4673 12.1068
45.6609 11.9003
45.8546 11.7499
46.0484 11.5596
46.2424 11.4313
46.4365 11.2989
46.631 11.0578
46.8254 10.9182
47.0199 10.7433
47.2146 10.6275
47.4095 10.4151
47.6044 10.2992
47.7996 10.1242
47.9948 9.98403
48.1902 9.86647
48.3858 9.73639
48.5815 9.60403
48.7774 9.46258
48.9734 9.30008
49.1696 9.16901
49.3661 9.00251
49.5626 8.88141
49.7592 8.76488
49.956 8.62239
50.153 8.50087
50.3501 8.35242
50.5474 8.21242
50.7448 8.07711
50.9424 7.9735
51.1402 7.85375
51.3381 7.70791
51.5362 7.57634
51.7344 7.42388
51.9328 7.34986
52.1316 7.22002
52.3304 7.13064
52.5293 6.96855
52.7284 6.88307
52.9276 6.76699
53.1271 6.64431
53.3267 6.55308
53.5265 6.46298
53.7264 6.30522
53.9266 6.19258
54.1269 6.09859
54.3274 6.03339
54.528 5.85463
54.7289 5.69241
54.9301 5.50508
55.1314 5.40733
55.3328 5.17327
55.5344 4.97247
55.7361 4.83896