File: XRD/Ni3Fe_FD1060.xy
TT I
1.27165 7.16279
1.45013 5.66884
1.62863 4.85145
1.80712 4.71642
1.98562 4.0693
2.16411 4.37304
2.34263 5.07736
2.52115 7.32916
2.69965 9.03366
2.87818 8.64477
3.05672 11.0984
3.23527 14.4877
3.4138 17.7218
3.59237 21.2186
3.77094 24.7075
3.9495 27.9078
4.12809 32.1516
4.30669 56.9385
4.4853 46.0657
4.6639 52.848
4.84253 64.0791
5.02118 83.0027
5.19981 231.469
5.37848 210.949
5.55716 97.4853
5.73586 87.8429
5.91455 89.1839
6.09328 4551.41
6.27201 75.8978
6.45075 63.7757
6.62952 58.1723
6.8083 54.7858
6.98711 52.5648
7.16591 51.6056
7.34475 56.0257
7.5236 58.6643
7.70247 53.3785
7.88135 54.9621
8.06026 59.0421
8.23919 65.7476
8.41812 77.9399
8.59709 1099.6
8.77609 95.0953
8.9551 82.5855
9.13412 79.0289
9.31318 89.0865
9.49226 81.052
9.67134 86.531
9.85047 94.0534
10.0296 351.0
10.2088 443.421
10.388 97.7971
10.5672 509.519
10.7465 86.4481
10.9257 73.8065
11.105 68.4075
11.2844 64.9297
11.4637 62.079
11.6431 60.9143
11.8225 59.806
12.002 66.5442
12.1814 146.468
12.3609 65.0504
12.5405 61.6432
12.72 64.3055
12.8996 67.9375
13.0792 76.8455
13.2589 229.959
13.4386 127.67
13.6183 237.995
13.7981 100.551
13.9779 73.5382
14.1577 75.2133
14.3376 67.348
14.5175 66.695
14.6974 67.6932
14.8774 110.441
15.0574 161.004
15.2374 66.5878
15.4175 64.1435
15.5976 63.529
15.7778 94.9884
15.958 169.493
16.1382 60.0273
16.3185 55.643
16.4988 53.5231
16.6792 52.4904
16.8596 52.9173
17.04 54.0643
17.2205 64.8742
17.401 72.2783
17.5815 57.3485
17.7622 60.2754
17.9428 73.6168
18.1237 142.991
18.3044 89.16
18.4852 79.3391
18.666 59.0713
18.8469 56.4646
19.0278 55.1925
19.2088 58.2461
19.3898 76.232
19.5709 52.9934
19.752 51.8104
19.9332 55.407
20.1144 70.5466
20.2957 63.7069
20.477 53.013
20.6586 48.4876
20.84 47.7685
21.0215 47.4085
21.203 49.8492
21.3846 48.0222
21.5662 47.7728
21.7479 51.8985
21.9297 65.4506
22.1115 56.0357
22.2933 49.2691
22.4753 47.6278
22.6572 47.7806
22.8393 51.3158
23.0214 57.5534
23.2037 47.8683
23.3859 49.4035
23.5682 57.4489
23.7505 48.1637
23.9329 44.4234
24.1154 43.0956
24.2979 42.5795
24.4805 42.0777
24.6631 42.0666
24.8458 41.3611
25.0286 42.1189
25.2114 44.2972
25.3943 44.3879
25.5773 40.3299
25.7605 39.5479
25.9436 40.1639
26.1268 41.4373
26.31 39.4782
26.4933 40.0936
26.6767 42.0133
26.8601 40.1044
27.0437 38.3406
27.2272 38.0007
27.4109 37.7516
27.5946 37.9385
27.7784 37.2787
27.9623 38.049
28.1462 38.6215
28.3304 36.8871
28.5145 35.4169
28.6987 35.0544
28.8829 34.9234
29.0673 34.1466
29.2517 33.8878
29.4361 33.7725
29.6207 32.7117
29.8053 32.3021
29.99 32.1263
30.1748 31.9689
30.3597 31.7168
30.5447 31.7568
30.7297 31.956
30.915 31.3101
31.1002 30.7131
31.2855 30.3942
31.4708 30.5102
31.6563 29.9986
31.8418 29.7874
32.0275 29.6302
32.2132 29.031
32.399 28.5371
32.5848 28.0207
32.7708 27.8546
32.9569 27.6457
33.143 27.5201
33.3293 27.1241
33.5158 26.7781
33.7022 26.2118
33.8887 26.0096
34.0753 25.674
34.262 25.2982
34.4488 25.0037
34.6357 24.6252
34.8227 24.2957
35.0098 24.2002
35.1969 23.8591
35.3842 23.7268
35.5716 23.4823
35.759 23.2301
35.9468 22.8356
36.1345 22.7003
36.3222 22.4056
36.5101 22.1721
36.6981 21.8905
36.8861 21.5352
37.0743 21.2763
37.2626 20.9791
37.451 20.6978
37.6395 20.6352
37.8281 20.1863
38.0168 19.9192
38.2056 19.6789
38.3945 19.4155
38.5837 19.2031
38.7728 18.9487
38.9621 18.6619
39.1514 18.4305
39.3409 18.2252
39.5304 17.9921
39.7201 17.8091
39.9099 17.6037
40.0999 17.3953
40.2899 17.0962
40.48 16.897
40.6703 16.6911
40.8607 16.5244
41.0512 16.3029
41.242 16.0718
41.4327 15.8726
41.6236 15.6259
41.8146 15.4805
42.0057 15.2125
42.1969 15.0148
42.3882 14.8145
42.5797 14.6404
42.7713 14.4683
42.963 14.2799
43.1549 14.0693
43.3468 13.8377
43.5389 13.6966
43.7312 13.4293
43.9237 13.2472
44.1162 13.094
44.3088 12.9581
44.5016 12.7326
44.6945 12.5715
44.8875 12.373
45.0806 12.2145
45.2739 12.0258
45.4673 11.8799
45.6609 11.7193
45.8546 11.5714
46.0484 11.4065
46.2424 11.2105
46.4365 11.0747
46.631 10.883
46.8254 10.7211
47.0199 10.5661
47.2146 10.4064
47.4095 10.2262
47.6044 10.0918
47.7996 9.97004
47.9948 9.78529
48.1902 9.66687
48.3858 9.52559
48.5815 9.40142
48.7774 9.30091
48.9734 9.12837
49.1696 8.96864
49.3661 8.87265
49.5626 8.68336
49.7592 8.59608
49.956 8.45989
50.153 8.31707
50.3501 8.20156
50.5474 8.07008
50.7448 7.94882
50.9424 7.82691
51.1402 7.70519
51.3381 7.54948
51.5362 7.43143
51.7344 7.33079
51.9328 7.2098
52.1316 7.08485
52.3304 6.96377
52.5293 6.86647
52.7284 6.72295
52.9276 6.66885
53.1271 6.50225
53.3267 6.40176
53.5265 6.27156
53.7264 6.20214
53.9266 6.10014
54.1269 5.97831
54.3274 5.89632
54.528 5.71871
54.7289 5.59515
54.9301 5.42297
55.1314 5.37485
55.3328 5.06483
55.5344 4.84582
55.7361 4.76075