File: XRD/Ni3Fe_FD0829.xy
TT I
1.27165 7.63052
1.45013 6.4273
1.62863 5.27379
1.80712 5.40379
1.98562 3.82493
2.16411 4.49189
2.34263 5.31105
2.52115 7.20234
2.69965 8.97149
2.87818 8.80813
3.05672 11.0249
3.23527 15.2471
3.4138 18.8161
3.59237 23.3175
3.77094 25.8256
3.9495 29.8145
4.12809 34.1735
4.30669 93.0509
4.4853 52.2858
4.6639 55.1285
4.84253 68.595
5.02118 86.9701
5.19981 407.14
5.37848 195.585
5.55716 101.217
5.73586 92.3801
5.91455 95.1011
6.09328 4554.13
6.27201 79.4877
6.45075 69.9052
6.62952 62.8001
6.8083 59.2643
6.98711 55.0209
7.16591 56.1236
7.34475 64.2729
7.5236 53.5552
7.70247 57.113
7.88135 57.1619
8.06026 62.3427
8.23919 68.9281
8.41812 83.1371
8.59709 1218.52
8.77609 97.1321
8.9551 88.8939
9.13412 82.6446
9.31318 85.041
9.49226 84.8828
9.67134 95.0482
9.85047 101.284
10.0296 345.036
10.2088 349.9
10.388 104.313
10.5672 538.091
10.7465 85.464
10.9257 77.1784
11.105 70.784
11.2844 67.4567
11.4637 64.1551
11.6431 62.8231
11.8225 62.2966
12.002 64.0676
12.1814 161.743
12.3609 65.7418
12.5405 64.433
12.72 67.3476
12.8996 71.0201
13.0792 79.6918
13.2589 249.729
13.4386 117.262
13.6183 259.425
13.7981 93.4526
13.9779 75.0789
14.1577 71.187
14.3376 69.5411
14.5175 68.2985
14.6974 69.9969
14.8774 112.143
15.0574 139.902
15.2374 68.4883
15.4175 65.4006
15.5976 65.2907
15.7778 95.7675
15.958 146.141
16.1382 60.6342
16.3185 57.2916
16.4988 54.8049
16.6792 53.7658
16.8596 54.4667
17.04 55.3119
17.2205 66.8746
17.401 68.4244
17.5815 58.736
17.7622 60.7988
17.9428 73.1867
18.1237 141.396
18.3044 91.5894
18.4852 73.4816
18.666 59.5969
18.8469 57.5524
19.0278 56.1278
19.2088 58.5863
19.3898 75.3188
19.5709 53.4789
19.752 52.8477
19.9332 55.8981
20.1144 69.807
20.2957 64.1409
20.477 52.4367
20.6586 49.1146
20.84 48.3143
21.0215 47.9998
21.203 50.4099
21.3846 48.2753
21.5662 48.4872
21.7479 52.2088
21.9297 63.8623
22.1115 55.61
22.2933 49.1625
22.4753 48.2076
22.6572 48.6159
22.8393 51.7448
23.0214 56.4807
23.2037 48.308
23.3859 49.3248
23.5682 56.967
23.7505 47.3942
23.9329 44.7245
24.1154 43.7012
24.2979 42.8137
24.4805 42.4459
24.6631 42.2764
24.8458 41.7648
25.0286 42.4683
25.2114 44.1858
25.3943 43.9467
25.5773 40.4485
25.7605 39.9761
25.9436 40.5572
26.1268 41.279
26.31 39.5678
26.4933 40.3722
26.6767 41.797
26.8601 40.0113
27.0437 38.4695
27.2272 38.0903
27.4109 38.0322
27.5946 37.8835
27.7784 37.4649
27.9623 38.0509
28.1462 38.4037
28.3304 36.6356
28.5145 35.5869
28.6987 35.2629
28.8829 35.069
29.0673 34.2597
29.2517 33.9321
29.4361 33.7494
29.6207 32.6721
29.8053 32.5112
29.99 32.1818
30.1748 32.0569
30.3597 31.8531
30.5447 31.8008
30.7297 31.8718
30.915 31.2736
31.1002 30.7844
31.2855 30.5635
31.4708 30.517
31.6563 29.956
31.8418 29.782
32.0275 29.605
32.2132 29.0291
32.399 28.6443
32.5848 28.1158
32.7708 27.8162
32.9569 27.7035
33.143 27.5799
33.3293 27.0652
33.5158 26.7129
33.7022 26.2507
33.8887 25.9892
34.0753 25.7033
34.262 25.2771
34.4488 24.8761
34.6357 24.6777
34.8227 24.3985
35.0098 24.1681
35.1969 23.9496
35.3842 23.7546
35.5716 23.5238
35.759 23.2313
35.9468 22.894
36.1345 22.6118
36.3222 22.4433
36.5101 22.1777
36.6981 21.8201
36.8861 21.5334
37.0743 21.269
37.2626 20.9308
37.451 20.7225
37.6395 20.5728
37.8281 20.2257
38.0168 20.0009
38.2056 19.7286
38.3945 19.4236
38.5837 19.2897
38.7728 18.9964
38.9621 18.6821
39.1514 18.4967
39.3409 18.1641
39.5304 18.0667
39.7201 17.8413
39.9099 17.6017
40.0999 17.3799
40.2899 17.2011
40.48 16.8979
40.6703 16.7024
40.8607 16.5513
41.0512 16.3143
41.242 16.1238
41.4327 15.8676
41.6236 15.6565
41.8146 15.4616
42.0057 15.2411
42.1969 15.0662
42.3882 14.8435
42.5797 14.6217
42.7713 14.4306
42.963 14.2558
43.1549 14.033
43.3468 13.8552
43.5389 13.6665
43.7312 13.4538
43.9237 13.2992
44.1162 13.1009
44.3088 12.9127
44.5016 12.737
44.6945 12.6102
44.8875 12.4438
45.0806 12.241
45.2739 12.0318
45.4673 11.8769
45.6609 11.7104
45.8546 11.5881
46.0484 11.3949
46.2424 11.2533
46.4365 11.0934
46.631 10.8863
46.8254 10.7409
47.0199 10.6011
47.2146 10.4016
47.4095 10.2521
47.6044 10.1134
47.7996 9.93032
47.9948 9.83057
48.1902 9.68677
48.3858 9.5406
48.5815 9.39557
48.7774 9.29327
48.9734 9.12036
49.1696 9.01278
49.3661 8.83535
49.5626 8.67403
49.7592 8.61072
49.956 8.45902
50.153 8.3421
50.3501 8.20924
50.5474 8.09005
50.7448 7.98219
50.9424 7.83682
51.1402 7.76482
51.3381 7.58599
51.5362 7.46612
51.7344 7.31941
51.9328 7.22213
52.1316 7.09157
52.3304 6.96161
52.5293 6.84583
52.7284 6.77505
52.9276 6.64699
53.1271 6.5345
53.3267 6.44095
53.5265 6.29291
53.7264 6.20865
53.9266 6.11446
54.1269 5.98613
54.3274 5.91066
54.528 5.73707
54.7289 5.58148
54.9301 5.39882
55.1314 5.29591
55.3328 5.15388
55.5344 4.91585
55.7361 4.74238