File: XRD/Ni3Fe_FD0942.xy
TT I
1.27165 7.18475
1.45013 6.32631
1.62863 5.38917
1.80712 4.42982
1.98562 4.7282
2.16411 4.65598
2.34263 5.54406
2.52115 7.5668
2.69965 7.96864
2.87818 8.85365
3.05672 10.477
3.23527 15.1266
3.4138 18.7628
3.59237 22.8553
3.77094 25.5564
3.9495 29.5116
4.12809 33.2994
4.30669 86.2991
4.4853 51.8219
4.6639 55.264
4.84253 68.2415
5.02118 86.1638
5.19981 374.266
5.37848 196.845
5.55716 101.278
5.73586 92.3219
5.91455 94.0893
6.09328 4678.75
6.27201 78.8557
6.45075 70.0894
6.62952 62.3826
6.8083 59.4878
6.98711 54.9936
7.16591 56.1506
7.34475 63.3394
7.5236 53.594
7.70247 56.7159
7.88135 56.7342
8.06026 62.1085
8.23919 68.5079
8.41812 82.6387
8.59709 1205.52
8.77609 95.7887
8.9551 88.9515
9.13412 82.2125
9.31318 85.1032
9.49226 83.887
9.67134 94.9913
9.85047 100.773
10.0296 330.941
10.2088 325.593
10.388 103.681
10.5672 552.327
10.7465 84.913
10.9257 77.2405
11.105 70.6416
11.2844 67.0906
11.4637 63.9244
11.6431 62.2328
11.8225 61.6979
12.002 63.3673
12.1814 160.312
12.3609 65.3032
12.5405 64.1694
12.72 66.8241
12.8996 70.6332
13.0792 79.5728
13.2589 247.578
13.4386 114.079
13.6183 261.049
13.7981 91.3759
13.9779 74.6645
14.1577 70.3377
14.3376 68.8304
14.5175 68.0392
14.6974 69.5854
14.8774 111.158
15.0574 135.225
15.2374 68.3962
15.4175 65.3628
15.5976 65.0411
15.7778 94.303
15.958 143.848
16.1382 60.1438
16.3185 56.7106
16.4988 54.5147
16.6792 53.5399
16.8596 53.9461
17.04 55.0529
17.2205 66.2387
17.401 67.5326
17.5815 58.078
17.7622 60.3125
17.9428 72.235
18.1237 140.6
18.3044 90.7469
18.4852 72.779
18.666 59.1365
18.8469 57.0797
19.0278 55.6455
19.2088 58.1342
19.3898 75.0917
19.5709 53.0978
19.752 52.3941
19.9332 55.142
20.1144 69.3065
20.2957 64.1748
20.477 51.7895
20.6586 48.8074
20.84 47.9172
21.0215 47.6224
21.203 50.1846
21.3846 47.9442
21.5662 48.153
21.7479 51.9049
21.9297 64.0608
22.1115 55.5915
22.2933 48.7043
22.4753 47.7828
22.6572 47.9113
22.8393 51.2377
23.0214 55.9424
23.2037 47.8888
23.3859 48.8897
23.5682 57.0394
23.7505 46.9642
23.9329 44.4437
24.1154 43.3586
24.2979 42.7573
24.4805 42.3348
24.6631 42.1543
24.8458 41.5095
25.0286 42.1183
25.2114 44.0021
25.3943 43.6426
25.5773 40.1156
25.7605 39.7986
25.9436 40.2333
26.1268 41.1245
26.31 39.3997
26.4933 40.1284
26.6767 41.5622
26.8601 39.628
27.0437 38.2339
27.2272 37.8153
27.4109 37.7521
27.5946 37.8573
27.7784 37.2323
27.9623 37.834
28.1462 38.1273
28.3304 36.4983
28.5145 35.2315
28.6987 35.0435
28.8829 34.8632
29.0673 34.1141
29.2517 33.7935
29.4361 33.5081
29.6207 32.5602
29.8053 32.3513
29.99 32.1157
30.1748 31.9968
30.3597 31.6656
30.5447 31.5853
30.7297 31.7234
30.915 31.0823
31.1002 30.6084
31.2855 30.3145
31.4708 30.2842
31.6563 29.7956
31.8418 29.6671
32.0275 29.3261
32.2132 28.9257
32.399 28.4428
32.5848 27.9762
32.7708 27.7193
32.9569 27.5778
33.143 27.3593
33.3293 26.838
33.5158 26.5499
33.7022 26.1658
33.8887 25.8863
34.0753 25.5402
34.262 25.1955
34.4488 24.8846
34.6357 24.488
34.8227 24.2542
35.0098 24.1102
35.1969 23.7675
35.3842 23.6093
35.5716 23.3468
35.759 23.0094
35.9468 22.8182
36.1345 22.5494
36.3222 22.3345
36.5101 22.0815
36.6981 21.7534
36.8861 21.4382
37.0743 21.0973
37.2626 20.8634
37.451 20.6141
37.6395 20.4843
37.8281 20.1345
38.0168 19.8781
38.2056 19.6
38.3945 19.3871
38.5837 19.0806
38.7728 18.9319
38.9621 18.6709
39.1514 18.3983
39.3409 18.1568
39.5304 17.9628
39.7201 17.8241
39.9099 17.5489
40.0999 17.2822
40.2899 17.0795
40.48 16.7949
40.6703 16.5869
40.8607 16.4329
41.0512 16.2199
41.242 15.9641
41.4327 15.7501
41.6236 15.5486
41.8146 15.3471
42.0057 15.1495
42.1969 14.9793
42.3882 14.8016
42.5797 14.5765
42.7713 14.4139
42.963 14.1692
43.1549 13.993
43.3468 13.7924
43.5389 13.6235
43.7312 13.4117
43.9237 13.2497
44.1162 13.0035
44.3088 12.8058
44.5016 12.697
44.6945 12.5219
44.8875 12.348
45.0806 12.1837
45.2739 12.0112
45.4673 11.8182
45.6609 11.6139
45.8546 11.5434
46.0484 11.3434
46.2424 11.152
46.4365 11.0317
46.631 10.8355
46.8254 10.6835
47.0199 10.5319
47.2146 10.385
47.4095 10.2219
47.6044 10.0419
47.7996 9.91426
47.9948 9.74364
48.1902 9.60652
48.3858 9.45934
48.5815 9.36423
48.7774 9.23195
48.9734 9.11273
49.1696 8.95642
49.3661 8.79248
49.5626 8.64109
49.7592 8.53127
49.956 8.42242
50.153 8.2848
50.3501 8.16209
50.5474 8.03783
50.7448 7.90068
50.9424 7.79597
51.1402 7.6867
51.3381 7.54183
51.5362 7.43041
51.7344 7.35223
51.9328 7.18822
52.1316 7.07301
52.3304 6.93156
52.5293 6.81246
52.7284 6.7399
52.9276 6.62233
53.1271 6.51389
53.3267 6.38465
53.5265 6.25961
53.7264 6.14533
53.9266 6.0356
54.1269 5.95053
54.3274 5.84206
54.528 5.75045
54.7289 5.47887
54.9301 5.38466
55.1314 5.25508
55.3328 5.07228
55.5344 4.8531
55.7361 4.72458