File: XRD/Ni3Fe_FD0789.xy
TT I
1.27165 7.25671
1.45013 6.46628
1.62863 5.87647
1.80712 4.93939
1.98562 4.6734
2.16411 4.81472
2.34263 5.6779
2.52115 7.57376
2.69965 7.6791
2.87818 8.76386
3.05672 11.3685
3.23527 14.9598
3.4138 18.5323
3.59237 23.4001
3.77094 25.7985
3.9495 29.6135
4.12809 34.5398
4.30669 154.539
4.4853 59.1079
4.6639 54.7367
4.84253 67.436
5.02118 86.518
5.19981 357.31
5.37848 178.06
5.55716 100.641
5.73586 91.1827
5.91455 93.878
6.09328 4533.66
6.27201 80.0783
6.45075 67.1167
6.62952 61.9577
6.8083 57.8031
6.98711 55.1744
7.16591 54.6853
7.34475 77.6093
7.5236 54.0343
7.70247 55.9009
7.88135 57.0038
8.06026 61.488
8.23919 68.906
8.41812 83.9741
8.59709 1209.71
8.77609 96.816
8.9551 88.9538
9.13412 81.7345
9.31318 81.8761
9.49226 84.052
9.67134 95.1569
9.85047 98.9125
10.0296 342.795
10.2088 345.979
10.388 103.676
10.5672 536.888
10.7465 84.8949
10.9257 77.1858
11.105 70.965
11.2844 68.4934
11.4637 64.3564
11.6431 62.8542
11.8225 61.871
12.002 63.2837
12.1814 157.307
12.3609 67.6113
12.5405 63.6387
12.72 68.2742
12.8996 70.2913
13.0792 78.8579
13.2589 245.282
13.4386 117.584
13.6183 255.229
13.7981 92.2956
13.9779 75.0127
14.1577 71.6721
14.3376 70.06
14.5175 68.1736
14.6974 69.8635
14.8774 110.545
15.0574 141.542
15.2374 69.327
15.4175 65.6965
15.5976 65.1851
15.7778 94.3114
15.958 147.135
16.1382 61.3319
16.3185 57.8529
16.4988 54.7757
16.6792 53.9025
16.8596 54.3158
17.04 55.1801
17.2205 66.8348
17.401 68.9105
17.5815 58.6951
17.7622 60.7543
17.9428 73.0813
18.1237 141.403
18.3044 90.8198
18.4852 74.1581
18.666 59.6174
18.8469 57.4972
19.0278 56.2269
19.2088 58.7603
19.3898 75.8556
19.5709 53.4189
19.752 52.6751
19.9332 55.5835
20.1144 69.6139
20.2957 64.045
20.477 52.3053
20.6586 49.0853
20.84 48.2864
21.0215 48.1032
21.203 50.4691
21.3846 48.4224
21.5662 48.3545
21.7479 52.253
21.9297 64.1713
22.1115 55.8501
22.2933 49.1184
22.4753 48.3098
22.6572 48.3089
22.8393 51.6252
23.0214 56.4401
23.2037 48.2084
23.3859 49.3874
23.5682 56.9605
23.7505 47.449
23.9329 44.8179
24.1154 43.7711
24.2979 42.964
24.4805 42.5292
24.6631 42.2076
24.8458 41.6888
25.0286 42.5967
25.2114 44.3552
25.3943 43.9679
25.5773 40.4928
25.7605 39.8816
25.9436 40.4223
26.1268 41.2554
26.31 39.6584
26.4933 40.2997
26.6767 41.766
26.8601 40.0177
27.0437 38.4943
27.2272 38.0524
27.4109 37.9671
27.5946 37.974
27.7784 37.4548
27.9623 38.1596
28.1462 38.474
28.3304 36.7066
28.5145 35.5218
28.6987 35.3019
28.8829 35.0701
29.0673 34.2721
29.2517 33.9967
29.4361 33.8515
29.6207 32.8336
29.8053 32.537
29.99 32.1496
30.1748 32.17
30.3597 31.9032
30.5447 31.8683
30.7297 31.911
30.915 31.2543
31.1002 30.8453
31.2855 30.6158
31.4708 30.501
31.6563 30.136
31.8418 29.8123
32.0275 29.5809
32.2132 29.0793
32.399 28.6296
32.5848 28.1206
32.7708 27.8583
32.9569 27.7769
33.143 27.4993
33.3293 27.0676
33.5158 26.7714
33.7022 26.293
33.8887 26.1191
34.0753 25.7199
34.262 25.3624
34.4488 25.0258
34.6357 24.6583
34.8227 24.4205
35.0098 24.2457
35.1969 23.9555
35.3842 23.7316
35.5716 23.577
35.759 23.2185
35.9468 22.8766
36.1345 22.6962
36.3222 22.4789
36.5101 22.2697
36.6981 21.89
36.8861 21.5284
37.0743 21.2806
37.2626 20.999
37.451 20.7779
37.6395 20.5823
37.8281 20.2766
38.0168 19.9942
38.2056 19.7488
38.3945 19.493
38.5837 19.2896
38.7728 19.0003
38.9621 18.766
39.1514 18.5198
39.3409 18.2835
39.5304 18.0879
39.7201 17.8224
39.9099 17.6354
40.0999 17.3912
40.2899 17.1188
40.48 16.9939
40.6703 16.7355
40.8607 16.6088
41.0512 16.37
41.242 16.069
41.4327 15.9335
41.6236 15.6662
41.8146 15.496
42.0057 15.2388
42.1969 14.9855
42.3882 14.8715
42.5797 14.6371
42.7713 14.4607
42.963 14.273
43.1549 14.071
43.3468 13.8243
43.5389 13.6697
43.7312 13.468
43.9237 13.3034
44.1162 13.0996
44.3088 12.947
44.5016 12.7111
44.6945 12.6097
44.8875 12.4282
45.0806 12.2535
45.2739 12.0614
45.4673 11.9341
45.6609 11.7299
45.8546 11.5745
46.0484 11.4118
46.2424 11.2753
46.4365 11.0878
46.631 10.8814
46.8254 10.697
47.0199 10.5775
47.2146 10.4619
47.4095 10.271
47.6044 10.1128
47.7996 9.95009
47.9948 9.81135
48.1902 9.67558
48.3858 9.55635
48.5815 9.42701
48.7774 9.2652
48.9734 9.16685
49.1696 9.01682
49.3661 8.86965
49.5626 8.73292
49.7592 8.61514
49.956 8.45893
50.153 8.36269
50.3501 8.18951
50.5474 8.11852
50.7448 7.96858
50.9424 7.83545
51.1402 7.74811
51.3381 7.56977
51.5362 7.46342
51.7344 7.35223
51.9328 7.18235
52.1316 7.11829
52.3304 7.0233
52.5293 6.88811
52.7284 6.73109
52.9276 6.66325
53.1271 6.56586
53.3267 6.4296
53.5265 6.28736
53.7264 6.21231
53.9266 6.09944
54.1269 6.015
54.3274 5.88067
54.528 5.71312
54.7289 5.58154
54.9301 5.44563
55.1314 5.29309
55.3328 5.12821
55.5344 4.96029
55.7361 4.81227