File: XRD/Ni3Fe_FD0625.xy
TT I
1.27165 7.9998
1.45013 6.43415
1.62863 4.32425
1.80712 4.27493
1.98562 4.17722
2.16411 5.23061
2.34263 6.07229
2.52115 6.82021
2.69965 8.14091
2.87818 8.751
3.05672 11.1663
3.23527 15.0764
3.4138 19.1911
3.59237 24.1652
3.77094 26.0335
3.9495 29.8938
4.12809 35.394
4.30669 222.292
4.4853 67.1541
4.6639 55.9774
4.84253 67.5331
5.02118 87.5456
5.19981 348.14
5.37848 194.546
5.55716 102.477
5.73586 92.4111
5.91455 93.9429
6.09328 4377.95
6.27201 84.4742
6.45075 67.2554
6.62952 63.1493
6.8083 59.3618
6.98711 56.537
7.16591 55.867
7.34475 93.4266
7.5236 55.0967
7.70247 56.3655
7.88135 58.1951
8.06026 62.6109
8.23919 69.8787
8.41812 85.8456
8.59709 1168.52
8.77609 100.701
8.9551 92.0912
9.13412 82.1775
9.31318 82.9009
9.49226 84.8997
9.67134 99.2028
9.85047 99.8316
10.0296 336.005
10.2088 421.119
10.388 105.23
10.5672 504.954
10.7465 87.1275
10.9257 79.0664
11.105 72.2661
11.2844 71.0011
11.4637 65.3933
11.6431 64.0413
11.8225 63.1514
12.002 63.5217
12.1814 151.48
12.3609 71.3216
12.5405 64.9622
12.72 70.5972
12.8996 71.1408
13.0792 79.2556
13.2589 235.426
13.4386 128.394
13.6183 246.231
13.7981 99.8394
13.9779 76.1271
14.1577 72.9409
14.3376 72.0755
14.5175 69.2143
14.6974 70.801
14.8774 110.387
15.0574 151.039
15.2374 71.4969
15.4175 66.7182
15.5976 66.0019
15.7778 94.8566
15.958 156.376
16.1382 63.1484
16.3185 59.2223
16.4988 55.8844
16.6792 54.8007
16.8596 55.6192
17.04 56.2419
17.2205 66.8987
17.401 72.5859
17.5815 59.5754
17.7622 61.4756
17.9428 73.6918
18.1237 138.602
18.3044 90.9099
18.4852 78.73
18.666 60.7613
18.8469 58.3639
19.0278 57.2747
19.2088 59.8348
19.3898 76.5612
19.5709 54.4393
19.752 53.4046
19.9332 56.5816
20.1144 69.5893
20.2957 63.8584
20.477 54.2466
20.6586 50.0236
20.84 49.0288
21.0215 48.9549
21.203 51.0392
21.3846 49.2859
21.5662 48.9688
21.7479 52.8198
21.9297 64.472
22.1115 56.2583
22.2933 50.4607
22.4753 49.0942
22.6572 48.8993
22.8393 52.0203
23.0214 57.5598
23.2037 49.1865
23.3859 50.0122
23.5682 57.0337
23.7505 48.8032
23.9329 45.404
24.1154 44.3825
24.2979 43.633
24.4805 43.2735
24.6631 43.0766
24.8458 42.3816
25.0286 43.0755
25.2114 44.7741
25.3943 44.8906
25.5773 41.221
25.7605 40.4595
25.9436 41.12
26.1268 41.8537
26.31 40.3969
26.4933 40.9374
26.6767 42.2958
26.8601 40.6479
27.0437 39.1202
27.2272 38.7031
27.4109 38.6076
27.5946 38.5767
27.7784 37.9649
27.9623 38.5137
28.1462 38.9736
28.3304 37.3336
28.5145 36.0722
28.6987 35.8989
28.8829 35.6157
29.0673 34.8711
29.2517 34.387
29.4361 34.3051
29.6207 33.3548
29.8053 33.081
29.99 32.8517
30.1748 32.609
30.3597 32.459
30.5447 32.3662
30.7297 32.4538
30.915 31.8658
31.1002 31.3391
31.2855 30.9212
31.4708 31.006
31.6563 30.5547
31.8418 30.3048
32.0275 30.0806
32.2132 29.5502
32.399 29.0202
32.5848 28.748
32.7708 28.3141
32.9569 28.173
33.143 27.9145
33.3293 27.5238
33.5158 27.212
33.7022 26.7846
33.8887 26.4517
34.0753 26.2027
34.262 25.7791
34.4488 25.4634
34.6357 25.1753
34.8227 24.8609
35.0098 24.6425
35.1969 24.3506
35.3842 24.1378
35.5716 23.8902
35.759 23.6519
35.9468 23.2486
36.1345 22.9193
36.3222 22.8169
36.5101 22.52
36.6981 22.2002
36.8861 21.8969
37.0743 21.574
37.2626 21.3655
37.451 21.075
37.6395 20.959
37.8281 20.6099
38.0168 20.3674
38.2056 20.077
38.3945 19.7764
38.5837 19.5603
38.7728 19.325
38.9621 19.0942
39.1514 18.8413
39.3409 18.5633
39.5304 18.3857
39.7201 18.2089
39.9099 17.9304
40.0999 17.7037
40.2899 17.4735
40.48 17.2236
40.6703 16.9822
40.8607 16.8441
41.0512 16.6338
41.242 16.4053
41.4327 16.1823
41.6236 15.8899
41.8146 15.7402
42.0057 15.4723
42.1969 15.2946
42.3882 15.1282
42.5797 14.8915
42.7713 14.7054
42.963 14.5048
43.1549 14.2767
43.3468 14.0679
43.5389 13.9144
43.7312 13.6923
43.9237 13.5211
44.1162 13.3031
44.3088 13.2068
44.5016 12.9734
44.6945 12.8102
44.8875 12.6705
45.0806 12.4493
45.2739 12.2703
45.4673 12.1011
45.6609 11.8952
45.8546 11.7589
46.0484 11.6008
46.2424 11.4187
46.4365 11.269
46.631 11.0539
46.8254 10.926
47.0199 10.7774
47.2146 10.6388
47.4095 10.4471
47.6044 10.2859
47.7996 10.1092
47.9948 10.0131
48.1902 9.85924
48.3858 9.73174
48.5815 9.60496
48.7774 9.43265
48.9734 9.30563
49.1696 9.13898
49.3661 9.03545
49.5626 8.87107
49.7592 8.74933
49.956 8.60988
50.153 8.4666
50.3501 8.34655
50.5474 8.22363
50.7448 8.09795
50.9424 7.98946
51.1402 7.85384
51.3381 7.69681
51.5362 7.61698
51.7344 7.47842
51.9328 7.3354
52.1316 7.23482
52.3304 7.09869
52.5293 6.97525
52.7284 6.89042
52.9276 6.72995
53.1271 6.65808
53.3267 6.54475
53.5265 6.44436
53.7264 6.32077
53.9266 6.17183
54.1269 6.05345
54.3274 5.97123
54.528 5.84974
54.7289 5.6796
54.9301 5.50752
55.1314 5.39796
55.3328 5.20472
55.5344 4.96064
55.7361 4.88898