File: XRD/Ni3Fe_FD0939.xy
TT I
1.27165 7.26419
1.45013 6.12396
1.62863 5.84519
1.80712 4.50641
1.98562 5.37566
2.16411 4.66444
2.34263 5.59003
2.52115 7.12568
2.69965 8.69178
2.87818 9.29365
3.05672 11.5401
3.23527 15.3331
3.4138 18.2444
3.59237 23.2065
3.77094 25.509
3.9495 28.7814
4.12809 33.8461
4.30669 88.3609
4.4853 52.0553
4.6639 55.0259
4.84253 67.7253
5.02118 86.4022
5.19981 370.593
5.37848 197.592
5.55716 100.836
5.73586 91.5356
5.91455 94.1461
6.09328 4677.75
6.27201 78.8919
6.45075 69.7928
6.62952 62.4088
6.8083 59.2762
6.98711 54.7979
7.16591 55.8464
7.34475 63.9692
7.5236 53.3324
7.70247 56.7417
7.88135 56.6219
8.06026 62.3357
8.23919 68.3448
8.41812 82.1835
8.59709 1202.12
8.77609 95.6071
8.9551 88.6719
9.13412 81.773
9.31318 84.6154
9.49226 83.7696
9.67134 94.2793
9.85047 100.53
10.0296 329.63
10.2088 325.689
10.388 103.042
10.5672 548.059
10.7465 84.8986
10.9257 76.9157
11.105 70.4838
11.2844 67.2186
11.4637 63.557
11.6431 62.5578
11.8225 61.8446
12.002 63.5231
12.1814 159.531
12.3609 65.2452
12.5405 64.4518
12.72 66.8575
12.8996 70.4635
13.0792 79.4015
13.2589 246.652
13.4386 114.032
13.6183 259.563
13.7981 91.7549
13.9779 74.4707
14.1577 70.6338
14.3376 68.8492
14.5175 67.8245
14.6974 69.7156
14.8774 110.521
15.0574 136.207
15.2374 68.0391
15.4175 65.2959
15.5976 64.7506
15.7778 93.7481
15.958 145.148
16.1382 60.1737
16.3185 56.6829
16.4988 54.4251
16.6792 53.5915
16.8596 53.8914
17.04 55.1018
17.2205 66.2233
17.401 67.7422
17.5815 58.2659
17.7622 60.302
17.9428 72.2212
18.1237 140.814
18.3044 91.0193
18.4852 72.9405
18.666 59.0391
18.8469 57.0637
19.0278 55.6937
19.2088 58.2365
19.3898 74.9893
19.5709 53.0833
19.752 52.5466
19.9332 55.2966
20.1144 69.5123
20.2957 64.2257
20.477 51.6167
20.6586 48.73
20.84 47.9751
21.0215 47.8016
21.203 50.1515
21.3846 48.0399
21.5662 48.2253
21.7479 51.8787
21.9297 64.1964
22.1115 55.6018
22.2933 48.581
22.4753 47.8156
22.6572 48.0475
22.8393 51.4506
23.0214 56.1176
23.2037 47.7904
23.3859 49.0191
23.5682 57.0744
23.7505 47.0751
23.9329 44.37
24.1154 43.3396
24.2979 42.5504
24.4805 42.1836
24.6631 42.0963
24.8458 41.4832
25.0286 42.0494
25.2114 43.8951
25.3943 43.8384
25.5773 40.2209
25.7605 39.7175
25.9436 40.1459
26.1268 41.2415
26.31 39.3792
26.4933 40.0077
26.6767 41.4681
26.8601 39.6959
27.0437 38.2038
27.2272 37.7724
27.4109 37.7593
27.5946 37.8181
27.7784 37.3003
27.9623 37.8409
28.1462 38.2221
28.3304 36.4746
28.5145 35.2839
28.6987 35.1342
28.8829 34.7631
29.0673 34.0733
29.2517 33.7237
29.4361 33.5909
29.6207 32.5222
29.8053 32.3091
29.99 32.0513
30.1748 31.8373
30.3597 31.7276
30.5447 31.7179
30.7297 31.7448
30.915 31.052
31.1002 30.6004
31.2855 30.3313
31.4708 30.3053
31.6563 29.8437
31.8418 29.5864
32.0275 29.4049
32.2132 28.8526
32.399 28.4229
32.5848 28.008
32.7708 27.6483
32.9569 27.5353
33.143 27.3468
33.3293 26.951
33.5158 26.5886
33.7022 26.0463
33.8887 25.9056
34.0753 25.5544
34.262 25.2366
34.4488 24.9184
34.6357 24.4726
34.8227 24.2545
35.0098 24.0727
35.1969 23.8449
35.3842 23.6145
35.5716 23.3514
35.759 23.1144
35.9468 22.7751
36.1345 22.4472
36.3222 22.3448
36.5101 22.0896
36.6981 21.7176
36.8861 21.4249
37.0743 21.1107
37.2626 20.933
37.451 20.6399
37.6395 20.5251
37.8281 20.073
38.0168 19.8844
38.2056 19.6589
38.3945 19.2963
38.5837 19.0824
38.7728 18.7955
38.9621 18.6772
39.1514 18.3419
39.3409 18.1334
39.5304 17.8753
39.7201 17.8187
39.9099 17.4954
40.0999 17.3076
40.2899 17.0486
40.48 16.8169
40.6703 16.6204
40.8607 16.4604
41.0512 16.1893
41.242 15.9391
41.4327 15.7909
41.6236 15.5465
41.8146 15.3818
42.0057 15.1257
42.1969 14.9681
42.3882 14.8044
42.5797 14.5535
42.7713 14.3885
42.963 14.1367
43.1549 13.9588
43.3468 13.8225
43.5389 13.6024
43.7312 13.3588
43.9237 13.2216
44.1162 13.0651
44.3088 12.8397
44.5016 12.6474
44.6945 12.4877
44.8875 12.3095
45.0806 12.1467
45.2739 11.9629
45.4673 11.8332
45.6609 11.6579
45.8546 11.4748
46.0484 11.3421
46.2424 11.1497
46.4365 11.0052
46.631 10.8427
46.8254 10.6295
47.0199 10.4956
47.2146 10.3575
47.4095 10.2199
47.6044 10.0704
47.7996 9.89337
47.9948 9.77168
48.1902 9.65224
48.3858 9.49515
48.5815 9.37822
48.7774 9.26279
48.9734 9.10108
49.1696 8.93668
49.3661 8.81455
49.5626 8.64149
49.7592 8.56073
49.956 8.39324
50.153 8.31218
50.3501 8.11151
50.5474 7.99014
50.7448 7.92228
50.9424 7.81883
51.1402 7.66582
51.3381 7.51462
51.5362 7.41488
51.7344 7.30907
51.9328 7.18125
52.1316 7.04683
52.3304 6.94417
52.5293 6.8421
52.7284 6.7149
52.9276 6.6324
53.1271 6.56582
53.3267 6.38835
53.5265 6.24716
53.7264 6.15115
53.9266 6.07419
54.1269 5.96649
54.3274 5.83666
54.528 5.71466
54.7289 5.52679
54.9301 5.40109
55.1314 5.25029
55.3328 5.06388
55.5344 4.89005
55.7361 4.72525