File: XRD/Ni3Fe_FD0225.xy
TT I
1.27165 7.39947
1.45013 6.63357
1.62863 5.81339
1.80712 5.23584
1.98562 5.35338
2.16411 4.06982
2.34263 4.3438
2.52115 4.67104
2.69965 5.73046
2.87818 8.28462
3.05672 10.3932
3.23527 15.3324
3.4138 18.8773
3.59237 22.8759
3.77094 25.6359
3.9495 30.2533
4.12809 34.8201
4.30669 40.7029
4.4853 48.7465
4.6639 58.6705
4.84253 71.5613
5.02118 96.5435
5.19981 885.013
5.37848 272.633
5.55716 111.951
5.73586 101.037
5.91455 110.591
6.09328 3643.67
6.27201 89.2743
6.45075 71.3563
6.62952 64.0553
6.8083 60.1354
6.98711 57.5656
7.16591 56.6563
7.34475 55.8862
7.5236 56.1748
7.70247 58.3829
7.88135 60.3902
8.06026 65.3804
8.23919 73.2314
8.41812 90.3016
8.59709 1060.41
8.77609 111.033
8.9551 91.0739
9.13412 86.7632
9.31318 88.3118
9.49226 89.557
9.67134 95.9133
9.85047 106.97
10.0296 519.535
10.2088 547.945
10.388 114.882
10.5672 442.649
10.7465 92.4085
10.9257 80.9816
11.105 75.2992
11.2844 70.8472
11.4637 67.6265
11.6431 66.383
11.8225 65.1585
12.002 68.7046
12.1814 140.222
12.3609 70.3151
12.5405 67.4927
12.72 69.8343
12.8996 75.0073
13.0792 86.3307
13.2589 228.908
13.4386 150.309
13.6183 225.6
13.7981 112.177
13.9779 80.1284
14.1577 75.2577
14.3376 73.1002
14.5175 72.7192
14.6974 74.5625
14.8774 119.543
15.0574 170.99
15.2374 72.5846
15.4175 69.7725
15.5976 70.0162
15.7778 103.175
15.958 177.485
16.1382 64.2242
16.3185 60.3347
16.4988 57.9975
16.6792 57.0492
16.8596 57.1749
17.04 59.3933
17.2205 68.8689
17.401 76.9958
17.5815 61.9872
17.7622 64.5388
17.9428 82.9119
18.1237 138.755
18.3044 90.2995
18.4852 84.0314
18.666 63.4216
18.8469 60.9237
19.0278 59.6005
19.2088 63.0641
19.3898 76.2602
19.5709 57.0475
19.752 56.2623
19.9332 59.6432
20.1144 72.44
20.2957 64.4957
20.477 56.7974
20.6586 52.1506
20.84 51.3905
21.0215 51.2579
21.203 52.638
21.3846 51.7729
21.5662 51.8795
21.7479 55.49
21.9297 66.6688
22.1115 57.8266
22.2933 52.7492
22.4753 50.8486
22.6572 51.9782
22.8393 54.2091
23.0214 59.9937
23.2037 51.4782
23.3859 52.7066
23.5682 57.5321
23.7505 51.4661
23.9329 47.3871
24.1154 46.234
24.2979 45.5278
24.4805 44.8296
24.6631 44.8931
24.8458 44.4449
25.0286 45.0436
25.2114 46.5092
25.3943 46.5006
25.5773 42.9195
25.7605 42.3431
25.9436 42.676
26.1268 43.4902
26.31 42.2702
26.4933 42.6307
26.6767 44.0137
26.8601 42.3405
27.0437 40.8185
27.2272 40.4901
27.4109 40.1133
27.5946 40.2897
27.7784 39.7893
27.9623 40.0253
28.1462 40.5222
28.3304 38.8788
28.5145 37.6902
28.6987 37.2512
28.8829 37.0393
29.0673 36.3068
29.2517 35.8131
29.4361 35.7482
29.6207 34.701
29.8053 34.3947
29.99 34.1732
30.1748 33.8717
30.3597 33.8061
30.5447 33.7256
30.7297 33.756
30.915 33.0697
31.1002 32.6811
31.2855 32.2236
31.4708 32.2758
31.6563 31.8244
31.8418 31.4952
32.0275 31.3205
32.2132 30.752
32.399 30.4221
32.5848 29.8352
32.7708 29.579
32.9569 29.3465
33.143 29.1211
33.3293 28.6247
33.5158 28.3232
33.7022 27.8217
33.8887 27.5204
34.0753 27.2375
34.262 26.8202
34.4488 26.5031
34.6357 26.0928
34.8227 25.8852
35.0098 25.6116
35.1969 25.3431
35.3842 25.0285
35.5716 24.8868
35.759 24.5137
35.9468 24.1611
36.1345 23.9269
36.3222 23.6925
36.5101 23.3907
36.6981 23.1222
36.8861 22.7894
37.0743 22.5139
37.2626 22.2711
37.451 21.9345
37.6395 21.7551
37.8281 21.4393
38.0168 21.1655
38.2056 20.9284
38.3945 20.5687
38.5837 20.3446
38.7728 20.0888
38.9621 19.8384
39.1514 19.5342
39.3409 19.3565
39.5304 19.0485
39.7201 18.8575
39.9099 18.6671
40.0999 18.3962
40.2899 18.1842
40.48 17.9392
40.6703 17.7291
40.8607 17.4968
41.0512 17.2252
41.242 16.9934
41.4327 16.7509
41.6236 16.5444
41.8146 16.3754
42.0057 16.1511
42.1969 15.9137
42.3882 15.7161
42.5797 15.5213
42.7713 15.2821
42.963 15.0678
43.1549 14.8441
43.3468 14.6097
43.5389 14.4764
43.7312 14.2303
43.9237 14.0429
44.1162 13.8807
44.3088 13.6529
44.5016 13.5051
44.6945 13.2511
44.8875 13.1049
45.0806 12.9011
45.2739 12.7288
45.4673 12.5572
45.6609 12.3677
45.8546 12.2377
46.0484 12.0608
46.2424 11.8611
46.4365 11.6824
46.631 11.5151
46.8254 11.3378
47.0199 11.183
47.2146 11.0242
47.4095 10.833
47.6044 10.67
47.7996 10.4922
47.9948 10.3354
48.1902 10.2017
48.3858 10.0546
48.5815 9.95939
48.7774 9.81307
48.9734 9.64604
49.1696 9.48204
49.3661 9.34388
49.5626 9.20407
49.7592 9.07981
49.956 8.949
50.153 8.7891
50.3501 8.65456
50.5474 8.50323
50.7448 8.38104
50.9424 8.31459
51.1402 8.13551
51.3381 7.98527
51.5362 7.85992
51.7344 7.7351
51.9328 7.6431
52.1316 7.50024
52.3304 7.40228
52.5293 7.28212
52.7284 7.16788
52.9276 7.02032
53.1271 6.91724
53.3267 6.768
53.5265 6.60873
53.7264 6.5876
53.9266 6.43454
54.1269 6.33617
54.3274 6.15826
54.528 6.10505
54.7289 5.86042
54.9301 5.69359
55.1314 5.5679
55.3328 5.31511
55.5344 5.12154
55.7361 4.96672