File: XRD/Ni3Fe_FD0599.xy
TT I
1.27165 7.74257
1.45013 6.54929
1.62863 5.17439
1.80712 4.76173
1.98562 4.99485
2.16411 4.28898
2.34263 5.61504
2.52115 6.67606
2.69965 7.65567
2.87818 8.72035
3.05672 10.7261
3.23527 15.3777
3.4138 18.9836
3.59237 22.8046
3.77094 26.0282
3.9495 29.4834
4.12809 34.2247
4.30669 102.712
4.4853 54.1855
4.6639 56.0927
4.84253 68.8409
5.02118 88.4913
5.19981 482.771
5.37848 203.779
5.55716 103.938
5.73586 94.4571
5.91455 97.7118
6.09328 4402.52
6.27201 81.7494
6.45075 69.6688
6.62952 63.1306
6.8083 59.5446
6.98711 55.9753
7.16591 56.1097
7.34475 67.5389
7.5236 54.948
7.70247 57.0734
7.88135 58.0946
8.06026 63.0399
8.23919 70.0747
8.41812 85.1045
8.59709 1259.98
8.77609 99.6469
8.9551 90.0156
9.13412 83.956
9.31318 85.3838
9.49226 85.5715
9.67134 95.5834
9.85047 102.387
10.0296 384.085
10.2088 359.265
10.388 107.47
10.5672 518.495
10.7465 87.1382
10.9257 78.4237
11.105 71.8143
11.2844 68.8135
11.4637 65.2964
11.6431 63.9172
11.8225 63.3561
12.002 65.2387
12.1814 157.804
12.3609 67.3504
12.5405 65.523
12.72 68.5025
12.8996 72.0472
13.0792 81.7056
13.2589 254.543
13.4386 121.763
13.6183 256.783
13.7981 96.6318
13.9779 76.3543
14.1577 72.5057
14.3376 70.8631
14.5175 69.6519
14.6974 71.3366
14.8774 117.037
15.0574 143.041
15.2374 70.2097
15.4175 66.7889
15.5976 66.8193
15.7778 99.9824
15.958 148.399
16.1382 61.7304
16.3185 58.4205
16.4988 55.7149
16.6792 54.9179
16.8596 55.3869
17.04 56.6156
17.2205 68.3619
17.401 70.862
17.5815 59.7295
17.7622 62.0325
17.9428 75.8969
18.1237 141.365
18.3044 92.3346
18.4852 76.3709
18.666 60.7616
18.8469 58.5858
19.0278 57.2402
19.2088 60.031
19.3898 75.9134
19.5709 54.4339
19.752 53.6754
19.9332 56.7024
20.1144 70.056
20.2957 64.2005
20.477 53.5634
20.6586 50.0534
20.84 49.0488
21.0215 49.0211
21.203 51.2281
21.3846 49.1469
21.5662 49.3738
21.7479 53.4528
21.9297 64.9416
22.1115 56.3027
22.2933 50.0075
22.4753 49.1815
22.6572 49.3221
22.8393 52.656
23.0214 57.177
23.2037 49.1043
23.3859 50.3755
23.5682 57.3962
23.7505 48.2961
23.9329 45.391
24.1154 44.3818
24.2979 43.674
24.4805 43.1307
24.6631 43.003
24.8458 42.465
25.0286 43.3023
25.2114 45.1154
25.3943 44.6498
25.5773 41.1077
25.7605 40.675
25.9436 41.0915
26.1268 42.0095
26.31 40.2387
26.4933 41.0595
26.6767 42.4431
26.8601 40.5402
27.0437 39.1811
27.2272 38.9385
27.4109 38.7874
27.5946 38.6478
27.7784 38.203
27.9623 38.7132
28.1462 39.1229
28.3304 37.2928
28.5145 36.239
28.6987 35.7898
28.8829 35.5865
29.0673 34.8348
29.2517 34.5941
29.4361 34.2861
29.6207 33.2569
29.8053 33.0889
29.99 32.7211
30.1748 32.6654
30.3597 32.4912
30.5447 32.3809
30.7297 32.3022
30.915 31.7976
31.1002 31.2728
31.2855 30.9712
31.4708 30.9288
31.6563 30.4759
31.8418 30.2893
32.0275 30.1799
32.2132 29.4898
32.399 29.0974
32.5848 28.5694
32.7708 28.3164
32.9569 28.186
33.143 27.994
33.3293 27.5217
33.5158 27.166
33.7022 26.7283
33.8887 26.4189
34.0753 26.1511
34.262 25.8657
34.4488 25.4662
34.6357 25.1776
34.8227 24.7812
35.0098 24.6786
35.1969 24.4688
35.3842 24.1329
35.5716 23.9349
35.759 23.6089
35.9468 23.2282
36.1345 23.0224
36.3222 22.7665
36.5101 22.5684
36.6981 22.2703
36.8861 21.8841
37.0743 21.5929
37.2626 21.3947
37.451 21.0676
37.6395 20.9546
37.8281 20.591
38.0168 20.3126
38.2056 20.0351
38.3945 19.7453
38.5837 19.5849
38.7728 19.26
38.9621 19.0329
39.1514 18.7882
39.3409 18.5496
39.5304 18.2963
39.7201 18.1326
39.9099 17.9198
40.0999 17.7215
40.2899 17.4412
40.48 17.1897
40.6703 16.9897
40.8607 16.7957
41.0512 16.5978
41.242 16.3691
41.4327 16.1625
41.6236 15.919
41.8146 15.7126
42.0057 15.498
42.1969 15.286
42.3882 15.1442
42.5797 14.9175
42.7713 14.7311
42.963 14.4674
43.1549 14.3256
43.3468 14.0517
43.5389 13.8851
43.7312 13.7133
43.9237 13.5032
44.1162 13.3699
44.3088 13.1731
44.5016 12.9557
44.6945 12.7685
44.8875 12.6463
45.0806 12.4702
45.2739 12.2622
45.4673 12.0553
45.6609 11.8964
45.8546 11.7115
46.0484 11.5871
46.2424 11.4328
46.4365 11.203
46.631 11.0736
46.8254 10.9113
47.0199 10.7575
47.2146 10.6598
47.4095 10.4385
47.6044 10.2742
47.7996 10.1042
47.9948 9.96804
48.1902 9.81913
48.3858 9.70936
48.5815 9.55951
48.7774 9.42508
48.9734 9.26468
49.1696 9.15476
49.3661 9.02957
49.5626 8.86493
49.7592 8.7432
49.956 8.58801
50.153 8.49113
50.3501 8.36057
50.5474 8.23032
50.7448 8.07613
50.9424 7.98076
51.1402 7.8119
51.3381 7.7075
51.5362 7.58279
51.7344 7.43889
51.9328 7.31697
52.1316 7.18181
52.3304 7.08037
52.5293 7.03505
52.7284 6.85137
52.9276 6.74584
53.1271 6.66689
53.3267 6.53658
53.5265 6.42562
53.7264 6.33443
53.9266 6.20567
54.1269 6.05038
54.3274 5.99119
54.528 5.82966
54.7289 5.66915
54.9301 5.49465
55.1314 5.38825
55.3328 5.17924
55.5344 4.98594
55.7361 4.81857