File: XRD/Ni3Fe_FD0558.xy
TT I
1.27165 7.27335
1.45013 5.91769
1.62863 5.23198
1.80712 4.80138
1.98562 4.83304
2.16411 5.10633
2.34263 4.8503
2.52115 6.90836
2.69965 7.36434
2.87818 8.84956
3.05672 11.2995
3.23527 15.0096
3.4138 19.1337
3.59237 23.5273
3.77094 26.3078
3.9495 29.8932
4.12809 35.3111
4.30669 160.179
4.4853 59.9513
4.6639 56.1104
4.84253 68.2522
5.02118 88.0145
5.19981 422.337
5.37848 196.529
5.55716 103.165
5.73586 93.885
5.91455 96.2129
6.09328 4443.2
6.27201 83.5522
6.45075 67.6464
6.62952 62.5839
6.8083 58.8629
6.98711 56.1792
7.16591 55.3642
7.34475 80.7435
7.5236 54.9536
7.70247 56.3029
7.88135 58.3369
8.06026 62.9392
8.23919 70.0835
8.41812 85.6177
8.59709 1221.3
8.77609 99.9719
8.9551 90.5619
9.13412 82.4103
9.31318 83.2432
9.49226 85.1083
9.67134 96.7425
9.85047 101.112
10.0296 375.913
10.2088 382.563
10.388 105.698
10.5672 518.11
10.7465 86.5465
10.9257 78.2531
11.105 72.3551
11.2844 69.8904
11.4637 65.3394
11.6431 63.9887
11.8225 62.732
12.002 64.3273
12.1814 155.265
12.3609 69.3544
12.5405 64.6514
12.72 69.3941
12.8996 71.4183
13.0792 80.1659
13.2589 247.86
13.4386 122.322
13.6183 254.178
13.7981 96.4132
13.9779 76.269
14.1577 72.814
14.3376 71.4062
14.5175 69.3315
14.6974 71.0408
14.8774 114.859
15.0574 144.519
15.2374 71.0261
15.4175 66.9291
15.5976 66.553
15.7778 97.9519
15.958 153.551
16.1382 62.5821
16.3185 58.5563
16.4988 55.9911
16.6792 54.8997
16.8596 55.4338
17.04 56.313
17.2205 67.6308
17.401 71.1716
17.5815 59.7657
17.7622 61.6132
17.9428 75.371
18.1237 141.693
18.3044 91.5481
18.4852 76.8603
18.666 60.7043
18.8469 58.4871
19.0278 57.1226
19.2088 60.0577
19.3898 76.1741
19.5709 54.62
19.752 53.6964
19.9332 56.8286
20.1144 70.3048
20.2957 64.16
20.477 53.7422
20.6586 49.9186
20.84 49.1616
21.0215 48.9863
21.203 51.2296
21.3846 49.1968
21.5662 49.2568
21.7479 53.2976
21.9297 65.1786
22.1115 56.2988
22.2933 50.0076
22.4753 49.1772
22.6572 49.2976
22.8393 52.5892
23.0214 57.5652
23.2037 49.2299
23.3859 50.2495
23.5682 57.4413
23.7505 48.3899
23.9329 45.5575
24.1154 44.4533
24.2979 43.7541
24.4805 43.2858
24.6631 43.1687
24.8458 42.6275
25.0286 43.1064
25.2114 44.9993
25.3943 44.8784
25.5773 41.1655
25.7605 40.6584
25.9436 41.1448
26.1268 42.0538
26.31 40.304
26.4933 41.1323
26.6767 42.5161
26.8601 40.5048
27.0437 39.1178
27.2272 38.7154
27.4109 38.7855
27.5946 38.6208
27.7784 38.1398
27.9623 38.7585
28.1462 39.0374
28.3304 37.3969
28.5145 36.2425
28.6987 35.8414
28.8829 35.5665
29.0673 34.8923
29.2517 34.5939
29.4361 34.3801
29.6207 33.3844
29.8053 33.1044
29.99 32.787
30.1748 32.6362
30.3597 32.4494
30.5447 32.3854
30.7297 32.4809
30.915 31.7957
31.1002 31.3648
31.2855 31.0635
31.4708 31.1517
31.6563 30.4981
31.8418 30.3448
32.0275 30.1483
32.2132 29.5275
32.399 29.0502
32.5848 28.6379
32.7708 28.3028
32.9569 28.2753
33.143 28.1291
33.3293 27.63
33.5158 27.2051
33.7022 26.7275
33.8887 26.5175
34.0753 26.2364
34.262 25.7921
34.4488 25.3989
34.6357 25.1406
34.8227 24.844
35.0098 24.6356
35.1969 24.3827
35.3842 24.0625
35.5716 23.8859
35.759 23.603
35.9468 23.1856
36.1345 23.0427
36.3222 22.8414
36.5101 22.592
36.6981 22.2536
36.8861 22.0209
37.0743 21.596
37.2626 21.3597
37.451 21.1383
37.6395 20.9258
37.8281 20.6391
38.0168 20.3489
38.2056 20.0754
38.3945 19.8306
38.5837 19.5679
38.7728 19.3104
38.9621 19.1193
39.1514 18.8359
39.3409 18.5578
39.5304 18.3945
39.7201 18.1906
39.9099 17.9139
40.0999 17.6843
40.2899 17.4601
40.48 17.2031
40.6703 16.9843
40.8607 16.8434
41.0512 16.5747
41.242 16.3251
41.4327 16.1665
41.6236 15.9223
41.8146 15.7363
42.0057 15.5409
42.1969 15.3206
42.3882 15.2034
42.5797 14.9001
42.7713 14.7266
42.963 14.5264
43.1549 14.3484
43.3468 14.1772
43.5389 13.9299
43.7312 13.7042
43.9237 13.53
44.1162 13.3695
44.3088 13.1882
44.5016 12.95
44.6945 12.7863
44.8875 12.6581
45.0806 12.4623
45.2739 12.2635
45.4673 12.0908
45.6609 11.8889
45.8546 11.7343
46.0484 11.5963
46.2424 11.3966
46.4365 11.2498
46.631 11.0619
46.8254 10.9399
47.0199 10.7848
47.2146 10.6297
47.4095 10.4308
47.6044 10.2991
47.7996 10.1615
47.9948 10.0265
48.1902 9.8384
48.3858 9.70298
48.5815 9.61939
48.7774 9.44704
48.9734 9.32109
49.1696 9.15865
49.3661 8.99615
49.5626 8.84195
49.7592 8.756
49.956 8.61548
50.153 8.46235
50.3501 8.34044
50.5474 8.22509
50.7448 8.11863
50.9424 7.96197
51.1402 7.86813
51.3381 7.69765
51.5362 7.59608
51.7344 7.4455
51.9328 7.33166
52.1316 7.22267
52.3304 7.10478
52.5293 6.98739
52.7284 6.88004
52.9276 6.78397
53.1271 6.68083
53.3267 6.55831
53.5265 6.38804
53.7264 6.30367
53.9266 6.21288
54.1269 6.11765
54.3274 6.01114
54.528 5.86682
54.7289 5.69229
54.9301 5.49282
55.1314 5.36025
55.3328 5.15795
55.5344 4.99044
55.7361 4.86793