File: XRD/Ni3Fe_FD0651.xy
TT I
1.27165 7.46654
1.45013 6.31656
1.62863 5.53126
1.80712 4.80505
1.98562 4.59237
2.16411 4.67827
2.34263 5.82382
2.52115 7.14188
2.69965 7.92661
2.87818 8.48545
3.05672 11.3357
3.23527 15.165
3.4138 18.9355
3.59237 24.6333
3.77094 26.8246
3.9495 30.1796
4.12809 35.2338
4.30669 284.548
4.4853 72.4881
4.6639 54.9542
4.84253 66.7124
5.02118 86.8414
5.19981 330.266
5.37848 196.692
5.55716 102.283
5.73586 92.1834
5.91455 93.3028
6.09328 4346.86
6.27201 84.2591
6.45075 67.8085
6.62952 63.523
6.8083 59.3929
6.98711 56.3962
7.16591 56.1105
7.34475 106.551
7.5236 55.6216
7.70247 56.618
7.88135 58.4262
8.06026 62.7074
8.23919 69.8211
8.41812 85.7184
8.59709 1088.64
8.77609 100.033
8.9551 93.8958
9.13412 82.2609
9.31318 82.6922
9.49226 84.7338
9.67134 101.634
9.85047 99.9069
10.0296 317.586
10.2088 445.658
10.388 105.587
10.5672 494.414
10.7465 86.7473
10.9257 79.3394
11.105 72.5732
11.2844 71.895
11.4637 65.3154
11.6431 64.1135
11.8225 62.9405
12.002 63.6763
12.1814 145.891
12.3609 73.1411
12.5405 64.8833
12.72 71.8175
12.8996 71.226
13.0792 78.5951
13.2589 224.397
13.4386 129.63
13.6183 235.647
13.7981 100.299
13.9779 75.6549
14.1577 73.0233
14.3376 72.7075
14.5175 68.9995
14.6974 70.4946
14.8774 106.116
15.0574 154.153
15.2374 72.5007
15.4175 66.6381
15.5976 65.9702
15.7778 92.0108
15.958 163.112
16.1382 63.5759
16.3185 59.2346
16.4988 55.6817
16.6792 54.5975
16.8596 55.5905
17.04 55.9404
17.2205 66.1241
17.401 72.3324
17.5815 59.4208
17.7622 61.5335
17.9428 72.6013
18.1237 138.428
18.3044 89.2215
18.4852 79.9317
18.666 60.8267
18.8469 58.1486
19.0278 57.0803
19.2088 59.4886
19.3898 77.1038
19.5709 54.6932
19.752 53.5203
19.9332 56.0725
20.1144 69.7856
20.2957 63.3803
20.477 54.1624
20.6586 49.9731
20.84 48.9935
21.0215 48.7465
21.203 50.9657
21.3846 49.2501
21.5662 48.8075
21.7479 52.4224
21.9297 64.6117
22.1115 56.222
22.2933 50.1835
22.4753 49.0806
22.6572 48.7844
22.8393 51.7962
23.0214 57.9804
23.2037 49.0416
23.3859 49.6922
23.5682 56.9008
23.7505 48.714
23.9329 45.4457
24.1154 44.3467
24.2979 43.7003
24.4805 43.0219
24.6631 43.0138
24.8458 42.3613
25.0286 42.8989
25.2114 44.8309
25.3943 44.8121
25.5773 41.0011
25.7605 40.6619
25.9436 40.9469
26.1268 41.8128
26.31 40.2422
26.4933 40.8494
26.6767 42.4104
26.8601 40.5929
27.0437 38.9588
27.2272 38.6406
27.4109 38.6056
27.5946 38.5644
27.7784 37.9247
27.9623 38.4731
28.1462 38.8846
28.3304 37.3701
28.5145 36.0867
28.6987 35.7481
28.8829 35.516
29.0673 34.8898
29.2517 34.4196
29.4361 34.3492
29.6207 33.2482
29.8053 33.0991
29.99 32.7418
30.1748 32.6219
30.3597 32.5139
30.5447 32.1826
30.7297 32.3781
30.915 31.8339
31.1002 31.3215
31.2855 31.0113
31.4708 30.9792
31.6563 30.4154
31.8418 30.2595
32.0275 30.0532
32.2132 29.5138
32.399 29.0256
32.5848 28.6411
32.7708 28.2613
32.9569 28.0505
33.143 27.8708
33.3293 27.5154
33.5158 27.138
33.7022 26.7218
33.8887 26.4264
34.0753 26.1975
34.262 25.6858
34.4488 25.4127
34.6357 25.0436
34.8227 24.8492
35.0098 24.6266
35.1969 24.2958
35.3842 24.0423
35.5716 23.8497
35.759 23.5781
35.9468 23.1976
36.1345 23.0604
36.3222 22.8294
36.5101 22.471
36.6981 22.1804
36.8861 21.8765
37.0743 21.5934
37.2626 21.3525
37.451 21.0559
37.6395 20.9806
37.8281 20.5192
38.0168 20.3331
38.2056 20.0468
38.3945 19.732
38.5837 19.5588
38.7728 19.3392
38.9621 19.0613
39.1514 18.7658
39.3409 18.562
39.5304 18.3078
39.7201 18.1604
39.9099 17.853
40.0999 17.6488
40.2899 17.4499
40.48 17.2062
40.6703 16.9434
40.8607 16.7993
41.0512 16.55
41.242 16.3088
41.4327 16.1759
41.6236 15.9306
41.8146 15.7166
42.0057 15.4923
42.1969 15.2832
42.3882 15.1032
42.5797 14.8911
42.7713 14.6473
42.963 14.5234
43.1549 14.2799
43.3468 14.0843
43.5389 13.9054
43.7312 13.6971
43.9237 13.534
44.1162 13.347
44.3088 13.1603
44.5016 12.9321
44.6945 12.8071
44.8875 12.632
45.0806 12.4248
45.2739 12.2514
45.4673 12.0617
45.6609 11.9219
45.8546 11.7847
46.0484 11.6336
46.2424 11.4076
46.4365 11.291
46.631 11.0864
46.8254 10.8603
47.0199 10.7531
47.2146 10.6287
47.4095 10.4227
47.6044 10.284
47.7996 10.1376
47.9948 9.97809
48.1902 9.84759
48.3858 9.69354
48.5815 9.56615
48.7774 9.41184
48.9734 9.32064
49.1696 9.14174
49.3661 9.0117
49.5626 8.85619
49.7592 8.76068
49.956 8.60787
50.153 8.48171
50.3501 8.35335
50.5474 8.20816
50.7448 8.09958
50.9424 7.99449
51.1402 7.85022
51.3381 7.6924
51.5362 7.58006
51.7344 7.43757
51.9328 7.31306
52.1316 7.17547
52.3304 7.14143
52.5293 6.96073
52.7284 6.89816
52.9276 6.76142
53.1271 6.64981
53.3267 6.54138
53.5265 6.40227
53.7264 6.26155
53.9266 6.20024
54.1269 6.09762
54.3274 6.01308
54.528 5.86335
54.7289 5.66148
54.9301 5.52548
55.1314 5.37213
55.3328 5.175
55.5344 4.97074
55.7361 4.86632