File: XRD/Ni3Fe_FD0298.xy
TT I
1.27165 7.89446
1.45013 5.75696
1.62863 5.50062
1.80712 5.29587
1.98562 4.62019
2.16411 5.17176
2.34263 5.50018
2.52115 5.54303
2.69965 7.07414
2.87818 8.48145
3.05672 11.1515
3.23527 15.2498
3.4138 19.4044
3.59237 25.2905
3.77094 26.9183
3.9495 30.9586
4.12809 36.0262
4.30669 299.061
4.4853 74.8239
4.6639 56.8224
4.84253 69.2579
5.02118 90.7717
5.19981 498.656
5.37848 257.213
5.55716 107.404
5.73586 96.6306
5.91455 100.353
6.09328 3656.36
6.27201 90.1638
6.45075 70.4192
6.62952 66.0219
6.8083 61.7176
6.98711 58.1064
7.16591 57.8715
7.34475 110.755
7.5236 56.9303
7.70247 58.4011
7.88135 60.0501
8.06026 64.8249
8.23919 71.8092
8.41812 89.9206
8.59709 993.158
8.77609 108.518
8.9551 97.9567
9.13412 84.7086
9.31318 85.7936
9.49226 87.4603
9.67134 105.561
9.85047 104.272
10.0296 378.6
10.2088 573.308
10.388 110.426
10.5672 446.154
10.7465 90.5907
10.9257 82.0444
11.105 74.6779
11.2844 74.3922
11.4637 67.395
11.6431 66.0628
11.8225 64.9112
12.002 66.2419
12.1814 137.559
12.3609 76.9874
12.5405 67.0735
12.72 74.0243
12.8996 73.5151
13.0792 81.7339
13.2589 211.702
13.4386 149.172
13.6183 214.213
13.7981 113.141
13.9779 78.6221
14.1577 75.5195
14.3376 75.2933
14.5175 71.0458
14.6974 73.3729
14.8774 108.9
15.0574 176.265
15.2374 74.8137
15.4175 68.6522
15.5976 68.0777
15.7778 95.3478
15.958 180.083
16.1382 66.4246
16.3185 61.365
16.4988 57.7385
16.6792 56.7528
16.8596 57.4638
17.04 58.172
17.2205 67.0397
17.401 77.2803
17.5815 61.2533
17.7622 63.5655
17.9428 76.9619
18.1237 137.553
18.3044 88.5592
18.4852 85.6793
18.666 62.8781
18.8469 60.1138
19.0278 59.0879
19.2088 61.8436
19.3898 78.33
19.5709 56.4659
19.752 55.2496
19.9332 58.4642
20.1144 71.5684
20.2957 63.7875
20.477 57.021
20.6586 51.7109
20.84 50.701
21.0215 50.435
21.203 51.9527
21.3846 51.1101
21.5662 50.5964
21.7479 54.1605
21.9297 66.217
22.1115 57.3593
22.2933 52.1109
22.4753 50.9277
22.6572 50.6151
22.8393 53.0562
23.0214 59.9945
23.2037 50.8484
23.3859 51.4107
23.5682 57.2328
23.7505 51.1092
23.9329 47.1052
24.1154 45.8815
24.2979 45.1906
24.4805 44.5172
24.6631 44.4992
24.8458 43.826
25.0286 44.2469
25.2114 46.1232
25.3943 46.4197
25.5773 42.4277
25.7605 41.8728
25.9436 42.149
26.1268 43.1561
26.31 41.7068
26.4933 42.1643
26.6767 43.5072
26.8601 41.9784
27.0437 40.1842
27.2272 39.9331
27.4109 39.79
27.5946 39.8224
27.7784 39.1712
27.9623 39.4821
28.1462 40.2016
28.3304 38.6326
28.5145 37.3187
28.6987 36.9244
28.8829 36.7153
29.0673 36.1098
29.2517 35.4815
29.4361 35.3667
29.6207 34.4083
29.8053 34.055
29.99 33.7778
30.1748 33.5397
30.3597 33.4718
30.5447 33.254
30.7297 33.3634
30.915 32.9038
31.1002 32.2802
31.2855 31.8963
31.4708 31.7946
31.6563 31.5606
31.8418 31.2354
32.0275 31.0774
32.2132 30.4734
32.399 30.0437
32.5848 29.5781
32.7708 29.193
32.9569 29.0287
33.143 28.6966
33.3293 28.4295
33.5158 28.0512
33.7022 27.6862
33.8887 27.2857
34.0753 26.9516
34.262 26.5995
34.4488 26.2603
34.6357 25.8153
34.8227 25.6157
35.0098 25.3108
35.1969 25.0916
35.3842 24.8923
35.5716 24.6647
35.759 24.3709
35.9468 23.9236
36.1345 23.7024
36.3222 23.4636
36.5101 23.2425
36.6981 22.9317
36.8861 22.5856
37.0743 22.256
37.2626 22.1117
37.451 21.8185
37.6395 21.6123
37.8281 21.2225
38.0168 20.9628
38.2056 20.6885
38.3945 20.4124
38.5837 20.1651
38.7728 19.919
38.9621 19.6669
39.1514 19.3623
39.3409 19.1947
39.5304 18.8899
39.7201 18.7793
39.9099 18.5053
40.0999 18.2264
40.2899 17.9926
40.48 17.7784
40.6703 17.5754
40.8607 17.3125
41.0512 17.1381
41.242 16.8808
41.4327 16.6827
41.6236 16.4624
41.8146 16.2414
42.0057 16.0111
42.1969 15.7843
42.3882 15.5417
42.5797 15.4121
42.7713 15.1712
42.963 14.9928
43.1549 14.759
43.3468 14.4801
43.5389 14.3299
43.7312 14.1326
43.9237 13.9778
44.1162 13.7321
44.3088 13.5151
44.5016 13.4028
44.6945 13.1912
44.8875 13.0285
45.0806 12.8433
45.2739 12.594
45.4673 12.4267
45.6609 12.3267
45.8546 12.1175
46.0484 11.9402
46.2424 11.8116
46.4365 11.6242
46.631 11.457
46.8254 11.2141
47.0199 11.0847
47.2146 10.9416
47.4095 10.728
47.6044 10.6197
47.7996 10.4766
47.9948 10.3061
48.1902 10.1579
48.3858 10.0091
48.5815 9.8841
48.7774 9.74994
48.9734 9.59672
49.1696 9.45351
49.3661 9.31232
49.5626 9.13394
49.7592 9.01373
49.956 8.90541
50.153 8.75465
50.3501 8.59783
50.5474 8.45618
50.7448 8.3974
50.9424 8.22644
51.1402 8.10964
51.3381 7.99054
51.5362 7.83778
51.7344 7.69437
51.9328 7.57102
52.1316 7.4324
52.3304 7.33485
52.5293 7.19212
52.7284 7.07095
52.9276 6.95487
53.1271 6.89596
53.3267 6.72019
53.5265 6.60001
53.7264 6.51523
53.9266 6.39352
54.1269 6.30041
54.3274 6.13909
54.528 6.03072
54.7289 5.8723
54.9301 5.67457
55.1314 5.51022
55.3328 5.30988
55.5344 5.10938
55.7361 4.98755