File: XRD/Ni3Fe_FD0854.xy
TT I
1.27165 6.93084
1.45013 6.24154
1.62863 5.43532
1.80712 5.06469
1.98562 4.86143
2.16411 5.38834
2.34263 5.21032
2.52115 7.54072
2.69965 8.51031
2.87818 9.09231
3.05672 10.6887
3.23527 15.1267
3.4138 18.5932
3.59237 23.9737
3.77094 26.2566
3.9495 29.742
4.12809 34.5488
4.30669 209.866
4.4853 64.1038
4.6639 54.9109
4.84253 66.1799
5.02118 85.3748
5.19981 296.876
5.37848 176.59
5.55716 100.727
5.73586 90.6092
5.91455 91.8125
6.09328 4446.24
6.27201 81.0506
6.45075 66.401
6.62952 62.0154
6.8083 57.8219
6.98711 55.1174
7.16591 54.8437
7.34475 88.4824
7.5236 54.4621
7.70247 55.575
7.88135 57.2717
8.06026 61.2422
8.23919 68.7638
8.41812 83.6714
8.59709 1135.41
8.77609 97.4494
8.9551 90.3204
9.13412 81.1078
9.31318 81.7352
9.49226 83.461
9.67134 96.9542
9.85047 98.1926
10.0296 311.025
10.2088 395.017
10.388 102.234
10.5672 536.264
10.7465 85.3497
10.9257 77.4753
11.105 70.8138
11.2844 69.4067
11.4637 64.1807
11.6431 62.7686
11.8225 61.7181
12.002 62.2952
12.1814 153.634
12.3609 69.4503
12.5405 63.5534
12.72 68.9449
12.8996 69.8108
13.0792 77.4764
13.2589 233.727
13.4386 121.321
13.6183 248.982
13.7981 95.8429
13.9779 74.8556
14.1577 71.418
14.3376 70.5141
14.5175 67.8924
14.6974 69.2311
14.8774 106.782
15.0574 147.424
15.2374 70.1145
15.4175 65.2912
15.5976 64.8209
15.7778 91.7449
15.958 152.958
16.1382 61.9396
16.3185 57.8145
16.4988 54.671
16.6792 53.7578
16.8596 54.5855
17.04 54.7214
17.2205 65.75
17.401 69.9936
17.5815 58.4835
17.7622 60.1354
17.9428 71.3969
18.1237 137.64
18.3044 89.9576
18.4852 76.1505
18.666 59.5548
18.8469 57.2092
19.0278 56.1678
19.2088 58.4047
19.3898 75.7906
19.5709 53.5482
19.752 52.6224
19.9332 55.3792
20.1144 68.7917
20.2957 63.7843
20.477 52.9948
20.6586 48.9891
20.84 48.1792
21.0215 47.9611
21.203 50.3727
21.3846 48.4172
21.5662 47.9931
21.7479 51.7613
21.9297 63.5136
22.1115 55.5746
22.2933 49.3019
22.4753 48.2665
22.6572 48.2757
22.8393 51.2695
23.0214 56.6646
23.2037 48.1067
23.3859 49.0069
23.5682 56.5738
23.7505 47.62
23.9329 44.591
24.1154 43.6789
24.2979 42.8758
24.4805 42.4289
24.6631 42.2996
24.8458 41.6937
25.0286 42.2501
25.2114 44.0778
25.3943 44.092
25.5773 40.3467
25.7605 39.9678
25.9436 40.3872
26.1268 41.1872
26.31 39.501
26.4933 40.2777
26.6767 41.6238
26.8601 39.8366
27.0437 38.573
27.2272 38.0444
27.4109 37.9437
27.5946 37.952
27.7784 37.4032
27.9623 37.9165
28.1462 38.4138
28.3304 36.7397
28.5145 35.5209
28.6987 35.1312
28.8829 34.9852
29.0673 34.2794
29.2517 33.8642
29.4361 33.7433
29.6207 32.8056
29.8053 32.6043
29.99 32.2113
30.1748 31.9523
30.3597 31.8102
30.5447 31.7029
30.7297 31.8729
30.915 31.2385
31.1002 30.7176
31.2855 30.5055
31.4708 30.4655
31.6563 30.031
31.8418 29.7926
32.0275 29.5786
32.2132 28.9946
32.399 28.5973
32.5848 28.0898
32.7708 27.8362
32.9569 27.6538
33.143 27.396
33.3293 26.9571
33.5158 26.68
33.7022 26.2354
33.8887 26.0819
34.0753 25.6389
34.262 25.3447
34.4488 24.9737
34.6357 24.6832
34.8227 24.3421
35.0098 24.2641
35.1969 23.8901
35.3842 23.704
35.5716 23.498
35.759 23.1929
35.9468 22.913
36.1345 22.6787
36.3222 22.3849
36.5101 22.1699
36.6981 21.8602
36.8861 21.5531
37.0743 21.1986
37.2626 20.9024
37.451 20.7808
37.6395 20.6117
37.8281 20.2646
38.0168 19.9365
38.2056 19.7847
38.3945 19.4692
38.5837 19.1841
38.7728 18.9993
38.9621 18.6783
39.1514 18.431
39.3409 18.3505
39.5304 18.0522
39.7201 17.8201
39.9099 17.6247
40.0999 17.3901
40.2899 17.1447
40.48 16.9699
40.6703 16.729
40.8607 16.5119
41.0512 16.3146
41.242 16.0506
41.4327 15.868
41.6236 15.6609
41.8146 15.5209
42.0057 15.2133
42.1969 15.0685
42.3882 14.9243
42.5797 14.6103
42.7713 14.4721
42.963 14.2839
43.1549 14.0605
43.3468 13.8857
43.5389 13.6589
43.7312 13.4876
43.9237 13.313
44.1162 13.1149
44.3088 12.9439
44.5016 12.6913
44.6945 12.6258
44.8875 12.399
45.0806 12.2399
45.2739 12.0695
45.4673 11.9063
45.6609 11.6941
45.8546 11.5387
46.0484 11.4078
46.2424 11.2091
46.4365 11.0758
46.631 10.9272
46.8254 10.7282
47.0199 10.5943
47.2146 10.4487
47.4095 10.2785
47.6044 10.1201
47.7996 9.96506
47.9948 9.83415
48.1902 9.65546
48.3858 9.57312
48.5815 9.40487
48.7774 9.25956
48.9734 9.13637
49.1696 9.04189
49.3661 8.86587
49.5626 8.69392
49.7592 8.61037
49.956 8.46441
50.153 8.34598
50.3501 8.22383
50.5474 8.09411
50.7448 7.99279
50.9424 7.84162
51.1402 7.7114
51.3381 7.58036
51.5362 7.45149
51.7344 7.35943
51.9328 7.23239
52.1316 7.06532
52.3304 6.99062
52.5293 6.84344
52.7284 6.72224
52.9276 6.64628
53.1271 6.54099
53.3267 6.47332
53.5265 6.29208
53.7264 6.19389
53.9266 6.09924
54.1269 5.99332
54.3274 5.85221
54.528 5.74944
54.7289 5.53953
54.9301 5.45479
55.1314 5.31812
55.3328 5.08814
55.5344 4.88219
55.7361 4.75925