File: XRD/Ni3Fe_FD0803.xy
TT I
1.27165 6.8186
1.45013 6.30883
1.62863 5.63033
1.80712 4.94632
1.98562 4.53341
2.16411 4.92698
2.34263 5.94465
2.52115 7.01877
2.69965 8.04157
2.87818 9.20214
3.05672 10.9728
3.23527 15.1571
3.4138 18.5623
3.59237 23.4095
3.77094 26.1246
3.9495 29.4901
4.12809 33.9589
4.30669 121.549
4.4853 55.662
4.6639 55.4546
4.84253 68.2164
5.02118 86.4453
5.19981 389.061
5.37848 184.153
5.55716 101.555
5.73586 92.084
5.91455 94.6166
6.09328 4595.11
6.27201 79.9016
6.45075 68.5326
6.62952 62.2541
6.8083 58.4822
6.98711 55.6207
7.16591 55.4363
7.34475 71.2223
7.5236 54.3027
7.70247 55.9939
7.88135 57.1934
8.06026 62.0642
8.23919 68.9254
8.41812 83.5656
8.59709 1215.41
8.77609 96.9465
8.9551 88.9824
9.13412 82.3367
9.31318 83.5193
9.49226 84.009
9.67134 94.9876
9.85047 99.8887
10.0296 344.937
10.2088 339.247
10.388 104.09
10.5672 539.637
10.7465 85.3338
10.9257 77.398
11.105 70.8653
11.2844 68.4625
11.4637 64.2428
11.6431 62.8103
11.8225 61.8526
12.002 63.5788
12.1814 158.193
12.3609 66.5447
12.5405 64.256
12.72 67.5697
12.8996 70.9073
13.0792 79.3734
13.2589 249.282
13.4386 116.623
13.6183 258.275
13.7981 92.3032
13.9779 75.2772
14.1577 71.1715
14.3376 69.7616
14.5175 68.5405
14.6974 70.1853
14.8774 111.745
15.0574 139.438
15.2374 69.0757
15.4175 65.7191
15.5976 65.272
15.7778 95.1885
15.958 144.267
16.1382 60.8441
16.3185 57.4924
16.4988 54.7641
16.6792 53.8088
16.8596 54.5391
17.04 55.6931
17.2205 66.757
17.401 68.5667
17.5815 58.5573
17.7622 60.6903
17.9428 73.2017
18.1237 141.201
18.3044 91.4753
18.4852 73.7078
18.666 59.638
18.8469 57.4118
19.0278 56.1804
19.2088 58.6804
19.3898 75.3316
19.5709 53.5661
19.752 52.7507
19.9332 55.8557
20.1144 69.5577
20.2957 64.05
20.477 52.5087
20.6586 49.1226
20.84 48.2432
21.0215 48.1695
21.203 50.4536
21.3846 48.2498
21.5662 48.6498
21.7479 52.2937
21.9297 64.3581
22.1115 55.6675
22.2933 49.1034
22.4753 48.2287
22.6572 48.4599
22.8393 51.7051
23.0214 56.2948
23.2037 48.3266
23.3859 49.2311
23.5682 56.9989
23.7505 47.3278
23.9329 44.6529
24.1154 43.4881
24.2979 43.036
24.4805 42.5985
24.6631 42.2621
24.8458 41.8009
25.0286 42.4659
25.2114 44.1263
25.3943 44.0653
25.5773 40.3311
25.7605 39.995
25.9436 40.4238
26.1268 41.2665
26.31 39.5971
26.4933 40.4177
26.6767 41.7164
26.8601 40.0193
27.0437 38.4635
27.2272 38.1625
27.4109 37.9493
27.5946 37.9621
27.7784 37.4556
27.9623 38.0398
28.1462 38.3793
28.3304 36.6727
28.5145 35.5199
28.6987 35.283
28.8829 35.108
29.0673 34.3979
29.2517 34.0389
29.4361 33.8227
29.6207 32.7473
29.8053 32.6029
29.99 32.2386
30.1748 32.1071
30.3597 31.9346
30.5447 31.9322
30.7297 31.9319
30.915 31.2551
31.1002 30.8326
31.2855 30.5767
31.4708 30.5555
31.6563 29.9762
31.8418 29.7467
32.0275 29.5766
32.2132 28.9747
32.399 28.6014
32.5848 28.1532
32.7708 27.8295
32.9569 27.7668
33.143 27.5013
33.3293 27.1632
33.5158 26.7424
33.7022 26.2251
33.8887 26.002
34.0753 25.6709
34.262 25.4052
34.4488 24.988
34.6357 24.7226
34.8227 24.4852
35.0098 24.1775
35.1969 23.9861
35.3842 23.6795
35.5716 23.4725
35.759 23.2229
35.9468 22.8928
36.1345 22.6275
36.3222 22.4705
36.5101 22.2246
36.6981 21.8438
36.8861 21.5351
37.0743 21.2783
37.2626 21.0319
37.451 20.7636
37.6395 20.6027
37.8281 20.3087
38.0168 20.0203
38.2056 19.8096
38.3945 19.4624
38.5837 19.2039
38.7728 18.988
38.9621 18.7149
39.1514 18.5058
39.3409 18.2926
39.5304 18.043
39.7201 17.8114
39.9099 17.5963
40.0999 17.4768
40.2899 17.1693
40.48 16.8856
40.6703 16.7474
40.8607 16.5677
41.0512 16.3205
41.242 16.0761
41.4327 15.8643
41.6236 15.6401
41.8146 15.4666
42.0057 15.2271
42.1969 14.9916
42.3882 14.8843
42.5797 14.6832
42.7713 14.4756
42.963 14.2737
43.1549 14.1102
43.3468 13.8701
43.5389 13.6946
43.7312 13.5036
43.9237 13.3362
44.1162 13.1022
44.3088 12.9787
44.5016 12.765
44.6945 12.5693
44.8875 12.4345
45.0806 12.269
45.2739 12.0609
45.4673 11.8988
45.6609 11.7161
45.8546 11.5911
46.0484 11.3726
46.2424 11.2192
46.4365 11.1071
46.631 10.875
46.8254 10.7341
47.0199 10.5992
47.2146 10.4198
47.4095 10.2781
47.6044 10.1494
47.7996 9.93355
47.9948 9.82756
48.1902 9.67523
48.3858 9.55275
48.5815 9.4144
48.7774 9.3166
48.9734 9.13801
49.1696 9.01531
49.3661 8.8625
49.5626 8.71282
49.7592 8.60217
49.956 8.47176
50.153 8.34258
50.3501 8.20572
50.5474 8.07426
50.7448 7.9748
50.9424 7.86266
51.1402 7.72127
51.3381 7.56835
51.5362 7.48538
51.7344 7.35647
51.9328 7.21899
52.1316 7.07455
52.3304 7.00229
52.5293 6.86115
52.7284 6.75667
52.9276 6.62198
53.1271 6.58433
53.3267 6.45026
53.5265 6.30459
53.7264 6.20464
53.9266 6.09436
54.1269 6.02382
54.3274 5.88201
54.528 5.80335
54.7289 5.57899
54.9301 5.4195
55.1314 5.27482
55.3328 5.12395
55.5344 4.93559
55.7361 4.78359