File: XRD/Ni3Fe_FD0808.xy
TT I
1.27165 7.2057
1.45013 6.26121
1.62863 5.33079
1.80712 4.70209
1.98562 5.12177
2.16411 4.79679
2.34263 5.77534
2.52115 6.62966
2.69965 7.76453
2.87818 9.13677
3.05672 11.1059
3.23527 14.873
3.4138 18.5301
3.59237 23.2588
3.77094 25.7172
3.9495 29.6131
4.12809 33.9285
4.30669 115.238
4.4853 54.7635
4.6639 55.0377
4.84253 67.9066
5.02118 86.3925
5.19981 393.025
5.37848 188.107
5.55716 101.43
5.73586 91.7266
5.91455 94.2933
6.09328 4529.65
6.27201 79.5226
6.45075 68.7845
6.62952 62.3532
6.8083 58.5032
6.98711 54.9584
7.16591 55.4843
7.34475 70.1073
7.5236 53.9106
7.70247 56.1758
7.88135 56.8876
8.06026 62.0038
8.23919 68.5542
8.41812 82.9044
8.59709 1212.06
8.77609 97.2179
8.9551 88.7119
9.13412 82.2346
9.31318 84.0107
9.49226 84.0788
9.67134 94.8295
9.85047 100.189
10.0296 343.514
10.2088 350.688
10.388 103.977
10.5672 532.769
10.7465 85.3928
10.9257 77.1122
11.105 70.7483
11.2844 68.1296
11.4637 63.8093
11.6431 62.7284
11.8225 62.1477
12.002 63.5041
12.1814 158.071
12.3609 66.4093
12.5405 64.2313
12.72 67.5569
12.8996 70.7254
13.0792 79.4966
13.2589 248.089
13.4386 118.43
13.6183 257.227
13.7981 92.6336
13.9779 74.7223
14.1577 71.2565
14.3376 69.5242
14.5175 68.2381
14.6974 70.0365
14.8774 111.818
15.0574 140.264
15.2374 69.0216
15.4175 65.6924
15.5976 65.0312
15.7778 95.2403
15.958 146.758
16.1382 60.7796
16.3185 57.2448
16.4988 54.8989
16.6792 53.7225
16.8596 54.4211
17.04 55.5056
17.2205 66.7339
17.401 68.4851
17.5815 58.5955
17.7622 60.8315
17.9428 73.0187
18.1237 141.835
18.3044 90.9247
18.4852 74.3909
18.666 59.7559
18.8469 57.4209
19.0278 56.1946
19.2088 58.6619
19.3898 75.4696
19.5709 53.5682
19.752 52.8056
19.9332 55.7478
20.1144 69.9452
20.2957 64.0432
20.477 52.3316
20.6586 49.0175
20.84 48.189
21.0215 48.169
21.203 50.4454
21.3846 48.1425
21.5662 48.5003
21.7479 52.3759
21.9297 64.346
22.1115 55.8416
22.2933 49.0344
22.4753 48.2467
22.6572 48.4937
22.8393 51.5916
23.0214 56.374
23.2037 48.3803
23.3859 49.2374
23.5682 57.2179
23.7505 47.4152
23.9329 44.6587
24.1154 43.5965
24.2979 42.8139
24.4805 42.5868
24.6631 42.4313
24.8458 41.8028
25.0286 42.4873
25.2114 44.2298
25.3943 44.081
25.5773 40.4872
25.7605 39.9247
25.9436 40.3903
26.1268 41.3042
26.31 39.6791
26.4933 40.2089
26.6767 41.7816
26.8601 40.025
27.0437 38.4964
27.2272 38.1215
27.4109 38.0295
27.5946 38.1278
27.7784 37.4398
27.9623 38.1962
28.1462 38.427
28.3304 36.7909
28.5145 35.5803
28.6987 35.1853
28.8829 35.0568
29.0673 34.1556
29.2517 33.9693
29.4361 33.8304
29.6207 32.8271
29.8053 32.4725
29.99 32.2594
30.1748 32.1802
30.3597 31.9995
30.5447 31.8606
30.7297 31.9246
30.915 31.3111
31.1002 30.7538
31.2855 30.5759
31.4708 30.5083
31.6563 30.0905
31.8418 29.7858
32.0275 29.6392
32.2132 29.0405
32.399 28.7146
32.5848 28.232
32.7708 27.8695
32.9569 27.7089
33.143 27.5141
33.3293 27.17
33.5158 26.7237
33.7022 26.3435
33.8887 26.0251
34.0753 25.676
34.262 25.3917
34.4488 25.0241
34.6357 24.7122
34.8227 24.4661
35.0098 24.25
35.1969 23.8679
35.3842 23.7678
35.5716 23.5932
35.759 23.1841
35.9468 22.848
36.1345 22.6827
36.3222 22.472
36.5101 22.1609
36.6981 21.9145
36.8861 21.601
37.0743 21.337
37.2626 21.0717
37.451 20.7386
37.6395 20.6699
37.8281 20.2103
38.0168 19.9564
38.2056 19.7339
38.3945 19.5415
38.5837 19.2792
38.7728 19.0241
38.9621 18.7222
39.1514 18.5798
39.3409 18.2683
39.5304 18.0985
39.7201 17.8807
39.9099 17.7082
40.0999 17.3874
40.2899 17.1355
40.48 16.9186
40.6703 16.7363
40.8607 16.5553
41.0512 16.3158
41.242 16.0807
41.4327 15.903
41.6236 15.6545
41.8146 15.5406
42.0057 15.2643
42.1969 15.0439
42.3882 14.9084
42.5797 14.6667
42.7713 14.4795
42.963 14.2697
43.1549 14.0565
43.3468 13.8508
43.5389 13.6736
43.7312 13.4713
43.9237 13.3142
44.1162 13.0773
44.3088 12.9456
44.5016 12.7712
44.6945 12.5782
44.8875 12.4301
45.0806 12.2593
45.2739 12.1062
45.4673 11.9039
45.6609 11.707
45.8546 11.5591
46.0484 11.4383
46.2424 11.2505
46.4365 11.096
46.631 10.89
46.8254 10.7518
47.0199 10.616
47.2146 10.3971
47.4095 10.291
47.6044 10.1513
47.7996 9.95516
47.9948 9.80595
48.1902 9.71249
48.3858 9.59128
48.5815 9.39795
48.7774 9.2774
48.9734 9.14349
49.1696 8.98861
49.3661 8.83216
49.5626 8.73534
49.7592 8.61222
49.956 8.48635
50.153 8.33843
50.3501 8.20764
50.5474 8.11223
50.7448 7.96723
50.9424 7.80312
51.1402 7.70082
51.3381 7.58524
51.5362 7.43832
51.7344 7.33551
51.9328 7.21343
52.1316 7.10805
52.3304 7.00736
52.5293 6.84092
52.7284 6.76154
52.9276 6.68002
53.1271 6.56348
53.3267 6.42127
53.5265 6.31868
53.7264 6.18582
53.9266 6.12525
54.1269 5.97294
54.3274 5.89996
54.528 5.73136
54.7289 5.5722
54.9301 5.39115
55.1314 5.30837
55.3328 5.06543
55.5344 4.88852
55.7361 4.80338