File: XRD/Ni3Fe_FD0568.xy
TT I
1.27165 7.43885
1.45013 6.14954
1.62863 5.40001
1.80712 4.72497
1.98562 4.44551
2.16411 4.60079
2.34263 5.34096
2.52115 6.28527
2.69965 7.35961
2.87818 8.28581
3.05672 11.1491
3.23527 14.7735
3.4138 18.9263
3.59237 23.3683
3.77094 26.1101
3.9495 29.7614
4.12809 34.1122
4.30669 139.772
4.4853 57.8613
4.6639 55.6546
4.84253 67.9939
5.02118 88.8492
5.19981 446.793
5.37848 198.613
5.55716 102.665
5.73586 93.6243
5.91455 97.5865
6.09328 4446.36
6.27201 82.3883
6.45075 68.0955
6.62952 62.4227
6.8083 58.7798
6.98711 56.0034
7.16591 55.3654
7.34475 77.0622
7.5236 54.6648
7.70247 56.5101
7.88135 58.0093
8.06026 62.6192
8.23919 69.5557
8.41812 85.6154
8.59709 1237.08
8.77609 100.306
8.9551 89.7042
9.13412 82.9488
9.31318 83.579
9.49226 85.0876
9.67134 96.3602
9.85047 100.966
10.0296 379.026
10.2088 377.228
10.388 106.492
10.5672 522.624
10.7465 86.9464
10.9257 78.4353
11.105 72.2074
11.2844 69.4536
11.4637 65.2339
11.6431 63.7684
11.8225 62.7728
12.002 64.8866
12.1814 155.692
12.3609 68.4643
12.5405 65.046
12.72 69.1991
12.8996 71.5848
13.0792 80.757
13.2589 250.234
13.4386 122.348
13.6183 254.81
13.7981 96.4335
13.9779 76.1343
14.1577 72.617
14.3376 71.2464
14.5175 69.6992
14.6974 71.2197
14.8774 115.617
15.0574 144.633
15.2374 70.6958
15.4175 66.822
15.5976 66.3388
15.7778 98.9709
15.958 152.681
16.1382 62.2719
16.3185 58.5083
16.4988 55.8202
16.6792 54.7408
16.8596 55.3779
17.04 56.5654
17.2205 67.8252
17.401 70.8507
17.5815 59.5676
17.7622 61.9123
17.9428 75.4643
18.1237 141.526
18.3044 92.0155
18.4852 77.1901
18.666 60.7515
18.8469 58.3973
19.0278 57.1406
19.2088 60.177
19.3898 76.2917
19.5709 54.4444
19.752 53.7191
19.9332 56.8391
20.1144 70.2971
20.2957 64.3237
20.477 53.6753
20.6586 49.912
20.84 49.2447
21.0215 48.9324
21.203 51.0678
21.3846 49.3639
21.5662 49.3651
21.7479 53.5687
21.9297 65.2819
22.1115 56.2802
22.2933 50.1123
22.4753 49.024
22.6572 49.3375
22.8393 52.5878
23.0214 57.5297
23.2037 49.1636
23.3859 50.1556
23.5682 57.3399
23.7505 48.3608
23.9329 45.4359
24.1154 44.3122
24.2979 43.6118
24.4805 43.1014
24.6631 43.0472
24.8458 42.506
25.0286 43.194
25.2114 45.0094
25.3943 44.833
25.5773 41.2334
25.7605 40.7245
25.9436 41.1713
26.1268 42.1046
26.31 40.2399
26.4933 41.0222
26.6767 42.5333
26.8601 40.669
27.0437 39.03
27.2272 38.7962
27.4109 38.6503
27.5946 38.6667
27.7784 38.1441
27.9623 38.678
28.1462 39.0195
28.3304 37.3049
28.5145 36.2959
28.6987 35.7889
28.8829 35.6062
29.0673 34.8765
29.2517 34.5494
29.4361 34.3393
29.6207 33.3149
29.8053 33.1515
29.99 32.8912
30.1748 32.7063
30.3597 32.3972
30.5447 32.454
30.7297 32.46
30.915 31.7792
31.1002 31.3367
31.2855 31.0572
31.4708 31.0675
31.6563 30.5911
31.8418 30.3251
32.0275 30.126
32.2132 29.6302
32.399 29.0891
32.5848 28.6628
32.7708 28.3403
32.9569 28.2221
33.143 27.9377
33.3293 27.5906
33.5158 27.1798
33.7022 26.751
33.8887 26.4648
34.0753 26.1247
34.262 25.7865
34.4488 25.4814
34.6357 25.0929
34.8227 24.8576
35.0098 24.6471
35.1969 24.3541
35.3842 24.0606
35.5716 23.9949
35.759 23.6255
35.9468 23.2345
36.1345 23.0286
36.3222 22.7805
36.5101 22.6125
36.6981 22.2321
36.8861 21.9774
37.0743 21.662
37.2626 21.4408
37.451 21.1733
37.6395 20.9086
37.8281 20.5734
38.0168 20.2938
38.2056 20.1324
38.3945 19.8877
38.5837 19.6161
38.7728 19.3148
38.9621 19.1068
39.1514 18.8358
39.3409 18.5605
39.5304 18.4092
39.7201 18.1329
39.9099 17.9661
40.0999 17.7204
40.2899 17.528
40.48 17.1875
40.6703 16.991
40.8607 16.821
41.0512 16.6823
41.242 16.3994
41.4327 16.1257
41.6236 15.9072
41.8146 15.7339
42.0057 15.4696
42.1969 15.3308
42.3882 15.084
42.5797 14.8719
42.7713 14.6995
42.963 14.4884
43.1549 14.3219
43.3468 14.1043
43.5389 13.9441
43.7312 13.7016
43.9237 13.5468
44.1162 13.3231
44.3088 13.1559
44.5016 12.9639
44.6945 12.7565
44.8875 12.5722
45.0806 12.4331
45.2739 12.2441
45.4673 12.087
45.6609 11.9182
45.8546 11.785
46.0484 11.545
46.2424 11.4371
46.4365 11.2619
46.631 11.0799
46.8254 10.9499
47.0199 10.7337
47.2146 10.6327
47.4095 10.4086
47.6044 10.2815
47.7996 10.142
47.9948 9.99252
48.1902 9.8298
48.3858 9.71515
48.5815 9.58001
48.7774 9.46585
48.9734 9.30134
49.1696 9.17216
49.3661 9.01485
49.5626 8.8342
49.7592 8.77616
49.956 8.61901
50.153 8.47303
50.3501 8.33266
50.5474 8.24252
50.7448 8.13411
50.9424 8.00213
51.1402 7.86067
51.3381 7.70394
51.5362 7.57806
51.7344 7.46209
51.9328 7.33043
52.1316 7.16746
52.3304 7.09549
52.5293 6.98952
52.7284 6.90739
52.9276 6.7563
53.1271 6.66425
53.3267 6.54097
53.5265 6.44462
53.7264 6.32409
53.9266 6.18615
54.1269 6.10009
54.3274 5.99774
54.528 5.81903
54.7289 5.69949
54.9301 5.53802
55.1314 5.39809
55.3328 5.16405
55.5344 5.01322
55.7361 4.85909