File: XRD/Ni3Fe_FD0812.xy
TT I
1.27165 7.64838
1.45013 6.23154
1.62863 5.6502
1.80712 4.71657
1.98562 4.86676
2.16411 5.05033
2.34263 5.39891
2.52115 6.96318
2.69965 8.22898
2.87818 8.75833
3.05672 11.2808
3.23527 14.8633
3.4138 18.9227
3.59237 23.0093
3.77094 25.9823
3.9495 29.3133
4.12809 34.1401
4.30669 109.285
4.4853 54.3764
4.6639 55.2603
4.84253 67.9952
5.02118 87.0119
5.19981 399.033
5.37848 189.585
5.55716 101.644
5.73586 92.5343
5.91455 94.7874
6.09328 4567.84
6.27201 79.7107
6.45075 69.2876
6.62952 62.5351
6.8083 58.8525
6.98711 55.0873
7.16591 55.7609
7.34475 68.1682
7.5236 53.9657
7.70247 56.7324
7.88135 57.5066
8.06026 62.2137
8.23919 68.9556
8.41812 83.5934
8.59709 1220.6
8.77609 96.8958
8.9551 89.0342
9.13412 82.5642
9.31318 84.1316
9.49226 84.3717
9.67134 95.3883
9.85047 100.937
10.0296 345.673
10.2088 347.143
10.388 104.89
10.5672 538.277
10.7465 85.5567
10.9257 77.4704
11.105 70.9574
11.2844 68.1424
11.4637 64.4211
11.6431 62.7762
11.8225 62.353
12.002 64.2471
12.1814 159.324
12.3609 66.2061
12.5405 64.6878
12.72 67.5816
12.8996 70.8954
13.0792 80.0371
13.2589 250.718
13.4386 117.496
13.6183 259.05
13.7981 92.7398
13.9779 75.2414
14.1577 71.4636
14.3376 69.8075
14.5175 68.0376
14.6974 70.1591
14.8774 112.195
15.0574 138.656
15.2374 68.9501
15.4175 65.7245
15.5976 65.2349
15.7778 95.326
15.958 145.402
16.1382 61.0213
16.3185 57.288
16.4988 54.8748
16.6792 54.0435
16.8596 54.4751
17.04 55.6583
17.2205 66.9024
17.401 68.3006
17.5815 58.8086
17.7622 60.8493
17.9428 73.1904
18.1237 141.544
18.3044 91.2378
18.4852 73.9021
18.666 59.77
18.8469 57.4599
19.0278 56.4171
19.2088 58.6838
19.3898 75.5203
19.5709 53.5904
19.752 52.7362
19.9332 55.9547
20.1144 69.735
20.2957 64.2204
20.477 52.367
20.6586 48.9487
20.84 48.3894
21.0215 47.9723
21.203 50.4567
21.3846 48.2077
21.5662 48.4764
21.7479 52.4603
21.9297 64.0393
22.1115 55.6898
22.2933 49.1726
22.4753 48.0616
22.6572 48.411
22.8393 51.6506
23.0214 56.318
23.2037 48.3568
23.3859 49.4072
23.5682 57.0147
23.7505 47.304
23.9329 44.7605
24.1154 43.6653
24.2979 42.9178
24.4805 42.4891
24.6631 42.3427
24.8458 41.9338
25.0286 42.6302
25.2114 44.361
25.3943 44.2358
25.5773 40.5122
25.7605 40.0591
25.9436 40.5151
26.1268 41.3073
26.31 39.6613
26.4933 40.3551
26.6767 41.7198
26.8601 39.9624
27.0437 38.4375
27.2272 38.1541
27.4109 38.0944
27.5946 38.0017
27.7784 37.6242
27.9623 38.1148
28.1462 38.5234
28.3304 36.679
28.5145 35.6137
28.6987 35.2747
28.8829 35.0129
29.0673 34.216
29.2517 33.8634
29.4361 33.7046
29.6207 32.8642
29.8053 32.5963
29.99 32.27
30.1748 32.1747
30.3597 31.9364
30.5447 31.8571
30.7297 31.9423
30.915 31.2111
31.1002 30.8735
31.2855 30.582
31.4708 30.4857
31.6563 30.0577
31.8418 29.9336
32.0275 29.6209
32.2132 29.0357
32.399 28.6115
32.5848 28.2706
32.7708 27.825
32.9569 27.8082
33.143 27.55
33.3293 27.1159
33.5158 26.7382
33.7022 26.2745
33.8887 26.0279
34.0753 25.6745
34.262 25.3518
34.4488 25.0223
34.6357 24.8012
34.8227 24.44
35.0098 24.3083
35.1969 23.9347
35.3842 23.7524
35.5716 23.4323
35.759 23.2217
35.9468 22.894
36.1345 22.6731
36.3222 22.3563
36.5101 22.2207
36.6981 21.9032
36.8861 21.5966
37.0743 21.3194
37.2626 21.0202
37.451 20.7477
37.6395 20.6124
37.8281 20.2982
38.0168 20.0555
38.2056 19.7489
38.3945 19.4483
38.5837 19.2012
38.7728 19.0082
38.9621 18.7508
39.1514 18.5022
39.3409 18.2818
39.5304 18.0939
39.7201 17.8369
39.9099 17.7013
40.0999 17.4029
40.2899 17.1958
40.48 16.9546
40.6703 16.7199
40.8607 16.5591
41.0512 16.3857
41.242 16.0377
41.4327 15.9283
41.6236 15.6214
41.8146 15.4868
42.0057 15.2709
42.1969 15.0914
42.3882 14.9031
42.5797 14.6714
42.7713 14.4755
42.963 14.2895
43.1549 14.091
43.3468 13.8711
43.5389 13.6794
43.7312 13.5008
43.9237 13.3298
44.1162 13.0979
44.3088 12.9052
44.5016 12.7205
44.6945 12.549
44.8875 12.4304
45.0806 12.2492
45.2739 12.0556
45.4673 11.9178
45.6609 11.7156
45.8546 11.5987
46.0484 11.4146
46.2424 11.2537
46.4365 11.1143
46.631 10.8986
46.8254 10.7756
47.0199 10.5823
47.2146 10.4566
47.4095 10.2668
47.6044 10.1262
47.7996 9.97488
47.9948 9.85376
48.1902 9.69576
48.3858 9.55451
48.5815 9.40241
48.7774 9.29963
48.9734 9.16452
49.1696 9.01163
49.3661 8.90222
49.5626 8.68159
49.7592 8.60336
49.956 8.47623
50.153 8.32669
50.3501 8.19544
50.5474 8.09637
50.7448 7.95585
50.9424 7.87887
51.1402 7.73245
51.3381 7.58119
51.5362 7.449
51.7344 7.35308
51.9328 7.19969
52.1316 7.08604
52.3304 6.99691
52.5293 6.86604
52.7284 6.77146
52.9276 6.66983
53.1271 6.56503
53.3267 6.44575
53.5265 6.30195
53.7264 6.2425
53.9266 6.11895
54.1269 5.99246
54.3274 5.87455
54.528 5.74405
54.7289 5.55266
54.9301 5.45165
55.1314 5.27452
55.3328 5.125
55.5344 4.92787
55.7361 4.70661