File: XRD/Ni3Fe_FD0169.xy
TT I
1.27165 7.55078
1.45013 6.50002
1.62863 5.58267
1.80712 5.22802
1.98562 5.28321
2.16411 4.82138
2.34263 4.43701
2.52115 4.46405
2.69965 5.53043
2.87818 7.4041
3.05672 11.6721
3.23527 14.986
3.4138 18.9847
3.59237 21.761
3.77094 25.1901
3.9495 28.7739
4.12809 32.7217
4.30669 38.067
4.4853 44.907
4.6639 53.9321
4.84253 66.8579
5.02118 91.0773
5.19981 530.349
5.37848 418.735
5.55716 108.081
5.73586 95.7495
5.91455 104.914
6.09328 2856.06
6.27201 88.8922
6.45075 66.5347
6.62952 60.1186
6.8083 55.8265
6.98711 53.9465
7.16591 52.8334
7.34475 52.2355
7.5236 55.7467
7.70247 54.0167
7.88135 56.6445
8.06026 60.6514
8.23919 68.3787
8.41812 83.7865
8.59709 907.24
8.77609 115.88
8.9551 85.234
9.13412 82.0173
9.31318 86.0923
9.49226 84.0138
9.67134 89.0176
9.85047 99.3431
10.0296 539.477
10.2088 958.892
10.388 104.85
10.5672 343.984
10.7465 90.8394
10.9257 75.965
11.105 70.4727
11.2844 66.5026
11.4637 63.9968
11.6431 62.2763
11.8225 61.5918
12.002 65.209
12.1814 120.336
12.3609 74.8701
12.5405 63.2958
12.72 65.5858
12.8996 70.2266
13.0792 79.6671
13.2589 208.671
13.4386 205.917
13.6183 197.343
13.7981 150.574
13.9779 76.5393
14.1577 74.565
14.3376 69.2992
14.5175 68.718
14.6974 70.0983
14.8774 121.342
15.0574 205.594
15.2374 69.3585
15.4175 66.617
15.5976 65.8205
15.7778 107.637
15.958 187.049
16.1382 61.9209
16.3185 57.5966
16.4988 55.1996
16.6792 54.2649
16.8596 54.4522
17.04 55.5038
17.2205 65.6066
17.401 81.1641
17.5815 59.3026
17.7622 61.7761
17.9428 83.8648
18.1237 117.165
18.3044 89.1157
18.4852 94.7525
18.666 61.1796
18.8469 58.743
19.0278 57.2284
19.2088 61.9152
19.3898 69.8854
19.5709 56.4024
19.752 53.6591
19.9332 58.4697
20.1144 67.8106
20.2957 61.6322
20.477 58.8328
20.6586 50.2043
20.84 49.3279
21.0215 49.2414
21.203 50.1978
21.3846 50.6809
21.5662 49.2395
21.7479 54.3078
21.9297 62.8107
22.1115 56.5901
22.2933 52.4925
22.4753 49.2137
22.6572 49.3661
22.8393 52.5908
23.0214 57.7702
23.2037 50.0448
23.3859 51.8827
23.5682 54.2288
23.7505 53.2727
23.9329 45.8676
24.1154 44.7325
24.2979 43.7957
24.4805 43.2323
24.6631 43.4268
24.8458 42.7472
25.0286 43.285
25.2114 44.9496
25.3943 45.2047
25.5773 42.0346
25.7605 41.0005
25.9436 41.244
26.1268 42.0089
26.31 41.1089
26.4933 41.2311
26.6767 42.4122
26.8601 41.5309
27.0437 39.912
27.2272 39.2682
27.4109 38.8653
27.5946 39.1157
27.7784 38.8005
27.9623 38.766
28.1462 39.6788
28.3304 38.4058
28.5145 36.7377
28.6987 36.1852
28.8829 35.7723
29.0673 35.3999
29.2517 34.7976
29.4361 34.5101
29.6207 33.6962
29.8053 33.1762
29.99 33.1186
30.1748 32.6344
30.3597 32.9318
30.5447 32.5312
30.7297 32.6058
30.915 32.3306
31.1002 31.6716
31.2855 31.3073
31.4708 31.1869
31.6563 31.1351
31.8418 30.5375
32.0275 30.3352
32.2132 29.8944
32.399 29.3904
32.5848 28.9085
32.7708 28.5754
32.9569 28.4659
33.143 28.2048
33.3293 27.7635
33.5158 27.4847
33.7022 26.985
33.8887 26.6818
34.0753 26.4443
34.262 26.0635
34.4488 25.7013
34.6357 25.3934
34.8227 24.9801
35.0098 24.7983
35.1969 24.5807
35.3842 24.2782
35.5716 24.1299
35.759 23.7667
35.9468 23.4536
36.1345 23.2616
36.3222 23.0046
36.5101 22.7996
36.6981 22.4658
36.8861 22.089
37.0743 21.7894
37.2626 21.5783
37.451 21.2828
37.6395 21.198
37.8281 20.8298
38.0168 20.5724
38.2056 20.2258
38.3945 19.9378
38.5837 19.6963
38.7728 19.4411
38.9621 19.2829
39.1514 19.0036
39.3409 18.7166
39.5304 18.5198
39.7201 18.3912
39.9099 18.0846
40.0999 17.857
40.2899 17.6308
40.48 17.3929
40.6703 17.1418
40.8607 16.9671
41.0512 16.7596
41.242 16.505
41.4327 16.2979
41.6236 16.0687
41.8146 15.8605
42.0057 15.602
42.1969 15.4851
42.3882 15.2098
42.5797 15.0385
42.7713 14.8795
42.963 14.5796
43.1549 14.4106
43.3468 14.2352
43.5389 14.0073
43.7312 13.8361
43.9237 13.6297
44.1162 13.4647
44.3088 13.2687
44.5016 13.0413
44.6945 12.9246
44.8875 12.7497
45.0806 12.4999
45.2739 12.3653
45.4673 12.2075
45.6609 12.0169
45.8546 11.8621
46.0484 11.6737
46.2424 11.512
46.4365 11.3681
46.631 11.2407
46.8254 11.0352
47.0199 10.8897
47.2146 10.6995
47.4095 10.5408
47.6044 10.3877
47.7996 10.239
47.9948 10.0608
48.1902 9.90301
48.3858 9.78494
48.5815 9.64497
48.7774 9.53304
48.9734 9.42795
49.1696 9.21188
49.3661 9.10852
49.5626 8.91469
49.7592 8.81404
49.956 8.70669
50.153 8.58233
50.3501 8.38761
50.5474 8.29196
50.7448 8.14864
50.9424 8.05114
51.1402 7.9327
51.3381 7.77125
51.5362 7.64197
51.7344 7.56773
51.9328 7.40137
52.1316 7.25841
52.3304 7.16376
52.5293 7.08075
52.7284 6.93485
52.9276 6.78763
53.1271 6.70794
53.3267 6.59457
53.5265 6.47856
53.7264 6.33346
53.9266 6.23407
54.1269 6.14234
54.3274 5.96076
54.528 5.81588
54.7289 5.65595
54.9301 5.51143
55.1314 5.31263
55.3328 5.13479
55.5344 4.89425
55.7361 4.84243