File: XRD/Ni3Fe_FD0203.xy
TT I
1.27165 8.29831
1.45013 6.56304
1.62863 5.91084
1.80712 5.34473
1.98562 5.34793
2.16411 4.80884
2.34263 4.18083
2.52115 4.47832
2.69965 5.94939
2.87818 7.99203
3.05672 10.9551
3.23527 14.3129
3.4138 19.031
3.59237 22.5216
3.77094 26.1113
3.9495 30.4239
4.12809 35.2361
4.30669 40.4874
4.4853 48.8081
4.6639 58.402
4.84253 72.0497
5.02118 97.8313
5.19981 888.066
5.37848 296.639
5.55716 113.444
5.73586 101.691
5.91455 112.187
6.09328 3482.69
6.27201 90.3129
6.45075 71.0579
6.62952 64.428
6.8083 60.0504
6.98711 57.5419
7.16591 56.9372
7.34475 56.1895
7.5236 57.5504
7.70247 58.2128
7.88135 60.3634
8.06026 65.7464
8.23919 73.6418
8.41812 90.9561
8.59709 1031.38
8.77609 113.311
8.9551 90.9991
9.13412 87.4422
9.31318 89.0229
9.49226 89.9914
9.67134 95.3897
9.85047 107.076
10.0296 531.259
10.2088 628.22
10.388 114.484
10.5672 429.354
10.7465 93.1765
10.9257 80.9645
11.105 75.184
11.2844 70.9829
11.4637 68.296
11.6431 66.5506
11.8225 65.6492
12.002 68.9385
12.1814 136.994
12.3609 71.1589
12.5405 67.9312
12.72 69.9335
12.8996 74.9394
13.0792 86.4027
13.2589 224.452
13.4386 159.788
13.6183 220.049
13.7981 115.363
13.9779 80.2514
14.1577 76.4682
14.3376 73.6098
14.5175 72.6652
14.6974 74.7752
14.8774 118.994
15.0574 177.882
15.2374 72.7093
15.4175 70.1983
15.5976 70.0342
15.7778 103.562
15.958 179.067
16.1382 64.5343
16.3185 60.4957
16.4988 58.2294
16.6792 57.4335
16.8596 57.5492
17.04 59.2742
17.2205 68.9599
17.401 78.7497
17.5815 62.5912
17.7622 64.946
17.9428 83.459
18.1237 136.293
18.3044 89.9325
18.4852 85.7302
18.666 63.8247
18.8469 61.2514
19.0278 59.9379
19.2088 63.3162
19.3898 75.938
19.5709 57.4059
19.752 56.14
19.9332 59.7392
20.1144 72.2298
20.2957 64.321
20.477 57.3193
20.6586 52.2716
20.84 51.707
21.0215 51.4093
21.203 52.6967
21.3846 51.8732
21.5662 51.8758
21.7479 55.6736
21.9297 66.4111
22.1115 57.5897
22.2933 53.0161
22.4753 51.2188
22.6572 52.004
22.8393 54.4093
23.0214 59.9254
23.2037 51.5678
23.3859 52.7373
23.5682 57.3278
23.7505 51.8207
23.9329 47.5367
24.1154 46.3922
24.2979 45.6675
24.4805 45.014
24.6631 45.0513
24.8458 44.6552
25.0286 45.2226
25.2114 46.4576
25.3943 46.9091
25.5773 43.1556
25.7605 42.6801
25.9436 42.8894
26.1268 43.8239
26.31 42.3377
26.4933 42.7283
26.6767 43.9575
26.8601 42.5116
27.0437 40.867
27.2272 40.5523
27.4109 40.2901
27.5946 40.2745
27.7784 39.847
27.9623 40.0292
28.1462 40.7531
28.3304 39.2548
28.5145 37.7193
28.6987 37.4471
28.8829 37.0839
29.0673 36.4734
29.2517 35.9794
29.4361 35.7968
29.6207 34.9181
29.8053 34.4002
29.99 34.1674
30.1748 33.9857
30.3597 33.8185
30.5447 33.7181
30.7297 33.7422
30.915 33.1171
31.1002 32.6442
31.2855 32.4053
31.4708 32.2801
31.6563 31.9518
31.8418 31.6053
32.0275 31.3588
32.2132 30.89
32.399 30.3781
32.5848 29.9332
32.7708 29.6312
32.9569 29.4084
33.143 29.0103
33.3293 28.7647
33.5158 28.4094
33.7022 27.8839
33.8887 27.6251
34.0753 27.1859
34.262 26.9582
34.4488 26.5627
34.6357 26.1785
34.8227 25.934
35.0098 25.6138
35.1969 25.4136
35.3842 25.1339
35.5716 24.8926
35.759 24.584
35.9468 24.1814
36.1345 24.0115
36.3222 23.7602
36.5101 23.5936
36.6981 23.2455
36.8861 22.8002
37.0743 22.6648
37.2626 22.2588
37.451 22.0325
37.6395 21.8393
37.8281 21.4823
38.0168 21.1837
38.2056 20.992
38.3945 20.6215
38.5837 20.4262
38.7728 20.1838
38.9621 19.8852
39.1514 19.6475
39.3409 19.3715
39.5304 19.1124
39.7201 18.9447
39.9099 18.7298
40.0999 18.4283
40.2899 18.2196
40.48 17.9125
40.6703 17.7346
40.8607 17.4936
41.0512 17.2739
41.242 17.0746
41.4327 16.8142
41.6236 16.5892
41.8146 16.4201
42.0057 16.1698
42.1969 15.915
42.3882 15.774
42.5797 15.5256
42.7713 15.3056
42.963 15.1094
43.1549 14.9016
43.3468 14.6589
43.5389 14.4857
43.7312 14.2794
43.9237 14.1161
44.1162 13.8609
44.3088 13.6821
44.5016 13.4982
44.6945 13.3177
44.8875 13.1121
45.0806 12.9544
45.2739 12.8191
45.4673 12.5957
45.6609 12.4091
45.8546 12.2545
46.0484 12.0579
46.2424 11.8477
46.4365 11.7474
46.631 11.5217
46.8254 11.3635
47.0199 11.2043
47.2146 11.0516
47.4095 10.8296
47.6044 10.7235
47.7996 10.5638
47.9948 10.3996
48.1902 10.2511
48.3858 10.0959
48.5815 9.96978
48.7774 9.84249
48.9734 9.68383
49.1696 9.52582
49.3661 9.37976
49.5626 9.21067
49.7592 9.06362
49.956 8.95699
50.153 8.84584
50.3501 8.67768
50.5474 8.52787
50.7448 8.44528
50.9424 8.28322
51.1402 8.18196
51.3381 8.0187
51.5362 7.88048
51.7344 7.77738
51.9328 7.62283
52.1316 7.50289
52.3304 7.40935
52.5293 7.28728
52.7284 7.13232
52.9276 7.05425
53.1271 6.93084
53.3267 6.80977
53.5265 6.64782
53.7264 6.58162
53.9266 6.43467
54.1269 6.3346
54.3274 6.15875
54.528 6.01951
54.7289 5.83699
54.9301 5.66269
55.1314 5.56692
55.3328 5.32073
55.5344 5.11985
55.7361 5.05224