File: XRD/Ni3Fe_FD0529.xy
TT I
1.27165 7.46262
1.45013 6.83377
1.62863 5.14773
1.80712 4.79278
1.98562 4.87076
2.16411 5.20695
2.34263 5.18725
2.52115 6.33877
2.69965 8.2898
2.87818 8.4273
3.05672 11.4136
3.23527 15.1325
3.4138 19.3304
3.59237 24.603
3.77094 26.654
3.9495 30.4056
4.12809 35.0157
4.30669 271.767
4.4853 71.2515
4.6639 55.6507
4.84253 67.9537
5.02118 87.3029
5.19981 374.143
5.37848 205.952
5.55716 103.101
5.73586 93.293
5.91455 95.2522
6.09328 4135.08
6.27201 85.4325
6.45075 68.4027
6.62952 63.7575
6.8083 59.5872
6.98711 56.8618
7.16591 56.4152
7.34475 104.235
7.5236 55.6253
7.70247 57.0183
7.88135 58.5959
8.06026 62.9904
8.23919 70.1024
8.41812 86.521
8.59709 1101.92
8.77609 102.262
8.9551 94.1184
9.13412 82.6571
9.31318 83.3991
9.49226 85.2194
9.67134 102.183
9.85047 100.656
10.0296 334.625
10.2088 464.861
10.388 106.245
10.5672 494.409
10.7465 87.8721
10.9257 79.9602
11.105 72.8892
11.2844 72.113
11.4637 65.8842
11.6431 64.6328
11.8225 63.2201
12.002 64.1903
12.1814 146.899
12.3609 73.3433
12.5405 65.5018
12.72 72.0375
12.8996 71.8262
13.0792 79.4517
13.2589 226.486
13.4386 131.839
13.6183 237.185
13.7981 103.322
13.9779 76.7308
14.1577 73.4664
14.3376 72.9965
14.5175 69.3265
14.6974 71.2441
14.8774 108.941
15.0574 158.918
15.2374 72.7916
15.4175 67.2343
15.5976 66.498
15.7778 94.0807
15.958 164.589
16.1382 64.3425
16.3185 59.7382
16.4988 56.3878
16.6792 55.1916
16.8596 55.8874
17.04 56.5695
17.2205 66.231
17.401 73.4988
17.5815 60.0163
17.7622 61.9395
17.9428 74.0991
18.1237 137.638
18.3044 89.8916
18.4852 81.1558
18.666 61.2013
18.8469 58.8254
19.0278 57.7542
19.2088 60.1963
19.3898 76.9014
19.5709 55.0112
19.752 54.0736
19.9332 56.8441
20.1144 70.4208
20.2957 63.8198
20.477 54.713
20.6586 50.4696
20.84 49.3499
21.0215 49.2274
21.203 51.0883
21.3846 49.7269
21.5662 49.2455
21.7479 52.9374
21.9297 64.9622
22.1115 56.4762
22.2933 50.8117
22.4753 49.6971
22.6572 49.4071
22.8393 52.1962
23.0214 58.2622
23.2037 49.4059
23.3859 50.2331
23.5682 56.9201
23.7505 49.2499
23.9329 45.7243
24.1154 44.6138
24.2979 43.8755
24.4805 43.3898
24.6631 43.4712
24.8458 42.7402
25.0286 43.1191
25.2114 45.1168
25.3943 45.2702
25.5773 41.4469
25.7605 40.9412
25.9436 41.3637
26.1268 42.337
26.31 40.6162
26.4933 41.1295
26.6767 42.6039
26.8601 40.9522
27.0437 39.3197
27.2272 39.0086
27.4109 38.8384
27.5946 38.9676
27.7784 38.2768
27.9623 38.9181
28.1462 39.2341
28.3304 37.7457
28.5145 36.3501
28.6987 35.9983
28.8829 35.912
29.0673 35.0379
29.2517 34.7624
29.4361 34.5554
29.6207 33.6642
29.8053 33.265
29.99 32.9959
30.1748 32.8609
30.3597 32.7007
30.5447 32.463
30.7297 32.5997
30.915 32.02
31.1002 31.4985
31.2855 31.3138
31.4708 31.1174
31.6563 30.6571
31.8418 30.4126
32.0275 30.3465
32.2132 29.7824
32.399 29.2664
32.5848 28.8414
32.7708 28.5157
32.9569 28.3903
33.143 28.1811
33.3293 27.7474
33.5158 27.4001
33.7022 26.9598
33.8887 26.66
34.0753 26.4182
34.262 25.9669
34.4488 25.5958
34.6357 25.2871
34.8227 24.9699
35.0098 24.8656
35.1969 24.5041
35.3842 24.271
35.5716 24.0551
35.759 23.7696
35.9468 23.3526
36.1345 23.186
36.3222 22.9259
36.5101 22.699
36.6981 22.4233
36.8861 22.0452
37.0743 21.7519
37.2626 21.4235
37.451 21.2788
37.6395 21.1158
37.8281 20.7262
38.0168 20.4855
38.2056 20.2268
38.3945 19.8952
38.5837 19.6981
38.7728 19.4526
38.9621 19.2349
39.1514 18.949
39.3409 18.6941
39.5304 18.462
39.7201 18.2982
39.9099 18.12
40.0999 17.8125
40.2899 17.6043
40.48 17.3405
40.6703 17.1221
40.8607 16.9471
41.0512 16.6861
41.242 16.4641
41.4327 16.2876
41.6236 16.0299
41.8146 15.8682
42.0057 15.6155
42.1969 15.3958
42.3882 15.2196
42.5797 15.0577
42.7713 14.8095
42.963 14.5905
43.1549 14.3942
43.3468 14.2206
43.5389 13.9994
43.7312 13.8325
43.9237 13.6151
44.1162 13.4336
44.3088 13.2612
44.5016 13.0426
44.6945 12.9338
44.8875 12.7296
45.0806 12.5313
45.2739 12.3655
45.4673 12.1531
45.6609 12.0129
45.8546 11.8808
46.0484 11.6765
46.2424 11.5625
46.4365 11.3561
46.631 11.1795
46.8254 11.0215
47.0199 10.8557
47.2146 10.6941
47.4095 10.548
47.6044 10.3813
47.7996 10.2161
47.9948 10.0088
48.1902 9.91772
48.3858 9.75418
48.5815 9.66253
48.7774 9.50785
48.9734 9.37839
49.1696 9.25167
49.3661 9.06666
49.5626 8.93691
49.7592 8.79727
49.956 8.68182
50.153 8.53961
50.3501 8.40526
50.5474 8.27299
50.7448 8.16875
50.9424 8.05424
51.1402 7.87757
51.3381 7.76739
51.5362 7.6846
51.7344 7.49091
51.9328 7.38914
52.1316 7.27771
52.3304 7.17343
52.5293 7.03933
52.7284 6.93749
52.9276 6.79936
53.1271 6.69787
53.3267 6.59097
53.5265 6.44624
53.7264 6.36349
53.9266 6.21972
54.1269 6.13399
54.3274 5.99602
54.528 5.84985
54.7289 5.7132
54.9301 5.55782
55.1314 5.43219
55.3328 5.17368
55.5344 5.04905
55.7361 4.86356