File: XRD/Ni3Fe_FD0230.xy
TT I
1.27165 8.0792
1.45013 6.4554
1.62863 5.48958
1.80712 5.1108
1.98562 4.58967
2.16411 4.35433
2.34263 4.2217
2.52115 4.5887
2.69965 6.1085
2.87818 7.76633
3.05672 11.2983
3.23527 14.5911
3.4138 19.0289
3.59237 22.5598
3.77094 26.0765
3.9495 30.0027
4.12809 34.9266
4.30669 40.8
4.4853 48.6845
4.6639 58.086
4.84253 71.6308
5.02118 96.286
5.19981 884.092
5.37848 277.995
5.55716 112.456
5.73586 101.371
5.91455 110.031
6.09328 3657.85
6.27201 88.7829
6.45075 71.1983
6.62952 63.9377
6.8083 60.0871
6.98711 57.3174
7.16591 56.5311
7.34475 55.6352
7.5236 55.9384
7.70247 57.8453
7.88135 60.3586
8.06026 65.0808
8.23919 73.0353
8.41812 90.3043
8.59709 1063.62
8.77609 110.439
8.9551 90.618
9.13412 86.62
9.31318 88.2536
9.49226 89.5977
9.67134 95.628
9.85047 106.619
10.0296 516.715
10.2088 555.401
10.388 114.907
10.5672 445.027
10.7465 92.1831
10.9257 80.5888
11.105 74.7447
11.2844 70.6571
11.4637 67.6301
11.6431 66.4035
11.8225 65.1136
12.002 68.8532
12.1814 141.58
12.3609 70.0257
12.5405 67.2236
12.72 69.6492
12.8996 74.8213
13.0792 86.4172
13.2589 228.75
13.4386 150.568
13.6183 225.946
13.7981 111.532
13.9779 79.9148
14.1577 75.242
14.3376 73.0741
14.5175 72.6157
14.6974 74.5167
14.8774 119.512
15.0574 171.07
15.2374 72.358
15.4175 69.7391
15.5976 69.7826
15.7778 103.157
15.958 175.471
16.1382 63.8435
16.3185 60.1603
16.4988 58.0477
16.6792 56.7196
16.8596 57.4377
17.04 59.3487
17.2205 68.9376
17.401 77.1897
17.5815 62.0883
17.7622 64.7622
17.9428 82.594
18.1237 138.876
18.3044 90.1047
18.4852 83.6048
18.666 63.3295
18.8469 61.0025
19.0278 59.6879
19.2088 62.9523
19.3898 76.2959
19.5709 56.9401
19.752 55.927
19.9332 59.4245
20.1144 72.6308
20.2957 64.4894
20.477 56.7424
20.6586 52.0581
20.84 51.2412
21.0215 51.192
21.203 52.4467
21.3846 51.5651
21.5662 51.9256
21.7479 55.4179
21.9297 66.6346
22.1115 57.5753
22.2933 52.5706
22.4753 50.8104
22.6572 51.8974
22.8393 54.2518
23.0214 59.9865
23.2037 51.3772
23.3859 52.512
23.5682 57.7465
23.7505 51.3263
23.9329 47.4315
24.1154 46.18
24.2979 45.4231
24.4805 44.7502
24.6631 44.7859
24.8458 44.3058
25.0286 45.052
25.2114 46.5628
25.3943 46.682
25.5773 42.8934
25.7605 42.3587
25.9436 42.7051
26.1268 43.6615
26.31 42.1166
26.4933 42.5641
26.6767 44.0348
26.8601 42.2582
27.0437 40.7039
27.2272 40.411
27.4109 40.1299
27.5946 40.3564
27.7784 39.6712
27.9623 40.0723
28.1462 40.5248
28.3304 39.0316
28.5145 37.646
28.6987 37.1105
28.8829 36.956
29.0673 36.29
29.2517 35.9261
29.4361 35.6994
29.6207 34.6922
29.8053 34.4123
29.99 34.126
30.1748 33.9299
30.3597 33.8028
30.5447 33.6405
30.7297 33.6615
30.915 33.1398
31.1002 32.5998
31.2855 32.323
31.4708 32.085
31.6563 31.8006
31.8418 31.4652
32.0275 31.2293
32.2132 30.74
32.399 30.2379
32.5848 29.7433
32.7708 29.4297
32.9569 29.335
33.143 29.0759
33.3293 28.6091
33.5158 28.2954
33.7022 27.7794
33.8887 27.5591
34.0753 27.1906
34.262 26.8
34.4488 26.5127
34.6357 26.1222
34.8227 25.8458
35.0098 25.5748
35.1969 25.2838
35.3842 25.0364
35.5716 24.8478
35.759 24.5576
35.9468 24.1495
36.1345 23.9597
36.3222 23.6162
36.5101 23.4699
36.6981 23.1577
36.8861 22.8175
37.0743 22.5371
37.2626 22.2077
37.451 21.8933
37.6395 21.7823
37.8281 21.4972
38.0168 21.1278
38.2056 20.901
38.3945 20.5781
38.5837 20.3302
38.7728 20.0544
38.9621 19.8193
39.1514 19.5224
39.3409 19.2865
39.5304 19.1127
39.7201 18.8726
39.9099 18.6007
40.0999 18.3961
40.2899 18.1624
40.48 17.8963
40.6703 17.6754
40.8607 17.4669
41.0512 17.2503
41.242 17.0207
41.4327 16.7519
41.6236 16.5172
41.8146 16.3593
42.0057 16.1158
42.1969 15.9022
42.3882 15.6754
42.5797 15.4659
42.7713 15.2965
42.963 15.0776
43.1549 14.8275
43.3468 14.6431
43.5389 14.4392
43.7312 14.2345
43.9237 14.0566
44.1162 13.8527
44.3088 13.6471
44.5016 13.4639
44.6945 13.3028
44.8875 13.0798
45.0806 12.8989
45.2739 12.7694
45.4673 12.5396
45.6609 12.3652
45.8546 12.204
46.0484 12.0131
46.2424 11.8485
46.4365 11.6748
46.631 11.4803
46.8254 11.3249
47.0199 11.1465
47.2146 11.022
47.4095 10.8005
47.6044 10.7054
47.7996 10.5532
47.9948 10.3568
48.1902 10.239
48.3858 10.0262
48.5815 9.92599
48.7774 9.77547
48.9734 9.65279
49.1696 9.47717
49.3661 9.30472
49.5626 9.19288
49.7592 9.08564
49.956 8.93815
50.153 8.81055
50.3501 8.65135
50.5474 8.54197
50.7448 8.41005
50.9424 8.26153
51.1402 8.14177
51.3381 8.01162
51.5362 7.87265
51.7344 7.72525
51.9328 7.61542
52.1316 7.4701
52.3304 7.40323
52.5293 7.23975
52.7284 7.12904
52.9276 7.00261
53.1271 6.90717
53.3267 6.79923
53.5265 6.65037
53.7264 6.52121
53.9266 6.42509
54.1269 6.29313
54.3274 6.17416
54.528 6.04256
54.7289 5.88893
54.9301 5.67726
55.1314 5.53867
55.3328 5.32197
55.5344 5.11709
55.7361 4.96872