File: XRD/Ni3Fe_FD0003.xy
TT I
1.27165 35.8514
1.45013 31.9316
1.62863 27.9756
1.80712 25.9374
1.98562 25.2958
2.16411 25.9846
2.34263 26.691
2.52115 25.7679
2.69965 29.4655
2.87818 39.9854
3.05672 65.3667
3.23527 81.8167
3.4138 46.0633
3.59237 39.588
3.77094 41.7888
3.9495 43.6105
4.12809 54.046
4.30669 77.4469
4.4853 69.6731
4.6639 55.6711
4.84253 60.0413
5.02118 90.196
5.19981 246.068
5.37848 4182.12
5.55716 165.897
5.73586 98.8797
5.91455 105.414
6.09328 389.467
6.27201 395.12
6.45075 73.4353
6.62952 54.2537
6.8083 51.288
6.98711 47.7357
7.16591 51.4244
7.34475 69.2336
7.5236 63.7063
7.70247 53.7607
7.88135 39.0569
8.06026 39.0916
8.23919 43.2752
8.41812 53.4953
8.59709 135.3
8.77609 795.63
8.9551 82.2158
9.13412 57.5016
9.31318 226.066
9.49226 50.7693
9.67134 48.3816
9.85047 53.8915
10.0296 83.7887
10.2088 344.078
10.388 169.611
10.5672 86.8819
10.7465 306.072
10.9257 48.7391
11.105 40.4544
11.2844 39.0718
11.4637 37.5376
11.6431 36.6433
11.8225 36.18
12.002 58.897
12.1814 45.2329
12.3609 82.4749
12.5405 46.8602
12.72 38.4439
12.8996 38.2612
13.0792 39.9844
13.2589 61.0536
13.4386 111.175
13.6183 110.739
13.7981 118.873
13.9779 76.9664
14.1577 43.367
14.3376 57.8632
14.5175 35.0365
14.6974 34.9303
14.8774 38.8837
15.0574 52.8551
15.2374 126.376
15.4175 40.9849
15.5976 36.2464
15.7778 37.9993
15.958 49.4187
16.1382 140.846
16.3185 41.9043
16.4988 32.1919
16.6792 30.0392
16.8596 29.7723
17.04 36.8982
17.2205 31.533
17.401 33.4981
17.5815 53.2632
17.7622 33.4256
17.9428 41.7852
18.1237 41.3458
18.3044 72.6243
18.4852 65.2526
18.666 80.6601
18.8469 35.9619
19.0278 31.6601
19.2088 31.2903
19.3898 35.8969
19.5709 45.8379
19.752 39.8462
19.9332 30.493
20.1144 31.0451
20.2957 37.8765
20.477 42.0677
20.6586 45.7106
20.84 30.2539
21.0215 30.1956
21.203 27.0782
21.3846 27.1374
21.5662 32.4768
21.7479 28.3938
21.9297 29.8925
22.1115 36.8746
22.2933 51.117
22.4753 40.0717
22.6572 29.1997
22.8393 28.6863
23.0214 31.2118
23.2037 34.9965
23.3859 39.4157
23.5682 34.112
23.7505 32.6165
23.9329 49.3376
24.1154 29.8658
24.2979 26.8627
24.4805 25.2229
24.6631 25.0762
24.8458 27.5971
25.0286 25.3178
25.2114 25.1044
25.3943 27.5704
25.5773 31.2168
25.7605 32.963
25.9436 26.3032
26.1268 25.0433
26.31 25.3675
26.4933 29.8055
26.6767 25.5941
26.8601 26.2359
27.0437 33.0776
27.2272 29.1928
27.4109 24.2052
27.5946 23.6117
27.7784 24.1439
27.9623 25.8634
28.1462 25.1503
28.3304 26.4187
28.5145 30.4195
28.6987 27.0406
28.8829 22.9463
29.0673 21.9071
29.2517 22.8889
29.4361 22.2581
29.6207 21.3763
29.8053 23.1076
29.99 21.1382
30.1748 20.6885
30.3597 20.9774
30.5447 20.799
30.7297 21.3008
30.915 20.7375
31.1002 23.2817
31.2855 23.3623
31.4708 20.5995
31.6563 20.2077
31.8418 21.3673
32.0275 21.4699
32.2132 20.4982
32.399 21.7195
32.5848 20.3705
32.7708 18.8649
32.9569 18.4432
33.143 18.816
33.3293 18.1597
33.5158 18.5294
33.7022 19.6522
33.8887 18.6138
34.0753 17.6679
34.262 17.4502
34.4488 17.5675
34.6357 16.8608
34.8227 17.1975
35.0098 16.5264
35.1969 16.0748
35.3842 16.1988
35.5716 16.0997
35.759 16.4002
35.9468 17.4705
36.1345 16.6502
36.3222 15.7206
36.5101 15.5723
36.6981 15.8422
36.8861 15.2521
37.0743 15.4991
37.2626 15.1499
37.451 14.6052
37.6395 14.4534
37.8281 14.2521
38.0168 13.998
38.2056 14.1926
38.3945 13.7922
38.5837 13.4418
38.7728 13.4867
38.9621 13.4005
39.1514 13.2712
39.3409 13.0882
39.5304 12.707
39.7201 12.5561
39.9099 12.4872
40.0999 12.3202
40.2899 12.3662
40.48 12.3313
40.6703 12.0108
40.8607 11.9339
41.0512 11.7175
41.242 11.6941
41.4327 11.6392
41.6236 11.2557
41.8146 11.1606
42.0057 11.0159
42.1969 10.9809
42.3882 10.9961
42.5797 10.6289
42.7713 10.4129
42.963 10.3316
43.1549 10.1031
43.3468 9.97141
43.5389 9.8178
43.7312 9.68491
43.9237 9.5759
44.1162 9.54902
44.3088 9.44498
44.5016 9.27139
44.6945 9.10686
44.8875 9.11492
45.0806 9.00872
45.2739 8.86595
45.4673 8.73997
45.6609 8.53471
45.8546 8.49003
46.0484 8.38727
46.2424 8.29868
46.4365 8.10839
46.631 8.04609
46.8254 7.94352
47.0199 7.83021
47.2146 7.68732
47.4095 7.54891
47.6044 7.40592
47.7996 7.37911
47.9948 7.27483
48.1902 7.11566
48.3858 7.05087
48.5815 6.91479
48.7774 6.79839
48.9734 6.7549
49.1696 6.63427
49.3661 6.52681
49.5626 6.44022
49.7592 6.39614
49.956 6.30042
50.153 6.19835
50.3501 6.11029
50.5474 6.06555
50.7448 5.96467
50.9424 5.83089
51.1402 5.76751
51.3381 5.69037
51.5362 5.59502
51.7344 5.50614
51.9328 5.4295
52.1316 5.28603
52.3304 5.24619
52.5293 5.1764
52.7284 5.06473
52.9276 4.99038
53.1271 4.91628
53.3267 4.84695
53.5265 4.76312
53.7264 4.65183
53.9266 4.56808
54.1269 4.46756
54.3274 4.39807
54.528 4.28799
54.7289 4.16544
54.9301 4.0195
55.1314 3.9443
55.3328 3.74491
55.5344 3.58845
55.7361 3.53347