File: XRD/Ni3Fe_FD0244.xy
TT I
1.27165 8.07095
1.45013 6.97345
1.62863 5.40287
1.80712 4.67221
1.98562 4.873
2.16411 4.93124
2.34263 4.89129
2.52115 5.41252
2.69965 6.62646
2.87818 7.64233
3.05672 11.1053
3.23527 15.0253
3.4138 18.8619
3.59237 22.6908
3.77094 26.183
3.9495 30.148
4.12809 34.6567
4.30669 40.0413
4.4853 49.4614
4.6639 58.4102
4.84253 71.7063
5.02118 96.0579
5.19981 890.597
5.37848 267.861
5.55716 111.927
5.73586 100.769
5.91455 109.759
6.09328 3719.2
6.27201 88.4093
6.45075 70.8561
6.62952 63.8726
6.8083 59.8356
6.98711 57.4988
7.16591 56.8635
7.34475 55.8097
7.5236 56.1085
7.70247 58.2473
7.88135 60.1223
8.06026 65.6714
8.23919 72.8591
8.41812 90.0531
8.59709 1081.95
8.77609 110.482
8.9551 90.725
9.13412 86.7249
9.31318 87.9695
9.49226 89.6091
9.67134 95.141
9.85047 106.359
10.0296 511.779
10.2088 528.783
10.388 115.743
10.5672 449.465
10.7465 92.0412
10.9257 80.895
11.105 74.5112
11.2844 70.7687
11.4637 67.514
11.6431 66.5544
11.8225 65.5042
12.002 69.0252
12.1814 141.125
12.3609 69.6345
12.5405 67.3884
12.72 69.7353
12.8996 75.03
13.0792 86.5087
13.2589 231.5
13.4386 148.341
13.6183 228.649
13.7981 109.285
13.9779 79.8473
14.1577 74.9965
14.3376 73.0708
14.5175 72.3689
14.6974 74.4342
14.8774 120.302
15.0574 168.317
15.2374 72.2017
15.4175 69.946
15.5976 69.8333
15.7778 104.132
15.958 171.885
16.1382 63.8542
16.3185 60.0718
16.4988 57.9433
16.6792 56.9189
16.8596 57.2167
17.04 59.348
17.2205 68.996
17.401 76.9839
17.5815 62.0272
17.7622 64.4846
17.9428 82.3719
18.1237 139.349
18.3044 90.3999
18.4852 82.763
18.666 63.1931
18.8469 60.8572
19.0278 59.4085
19.2088 62.8805
19.3898 76.5954
19.5709 56.9935
19.752 55.8973
19.9332 59.4417
20.1144 72.8065
20.2957 64.541
20.477 56.396
20.6586 51.9689
20.84 51.0565
21.0215 50.9489
21.203 52.4412
21.3846 51.5968
21.5662 51.7337
21.7479 55.5638
21.9297 66.811
22.1115 57.7134
22.2933 52.3486
22.4753 50.8535
22.6572 51.799
22.8393 54.1518
23.0214 59.8906
23.2037 51.4571
23.3859 52.5723
23.5682 57.6034
23.7505 51.1171
23.9329 47.2494
24.1154 46.1612
24.2979 45.4311
24.4805 44.8964
24.6631 44.7041
24.8458 44.3051
25.0286 44.9146
25.2114 46.6565
25.3943 46.5614
25.5773 42.9323
25.7605 42.4077
25.9436 42.7238
26.1268 43.5724
26.31 41.9685
26.4933 42.4924
26.6767 43.8349
26.8601 42.2658
27.0437 40.7429
27.2272 40.3629
27.4109 40.1489
27.5946 40.2085
27.7784 39.5529
27.9623 39.983
28.1462 40.5356
28.3304 38.9232
28.5145 37.6482
28.6987 37.1637
28.8829 36.8953
29.0673 36.3179
29.2517 35.8469
29.4361 35.5786
29.6207 34.728
29.8053 34.2808
29.99 33.973
30.1748 33.887
30.3597 33.7468
30.5447 33.4611
30.7297 33.6453
30.915 33.0511
31.1002 32.4741
31.2855 32.2928
31.4708 32.1056
31.6563 31.8047
31.8418 31.3838
32.0275 31.188
32.2132 30.7063
32.399 30.2473
32.5848 29.8036
32.7708 29.413
32.9569 29.2521
33.143 29.0507
33.3293 28.5825
33.5158 28.2352
33.7022 27.8013
33.8887 27.487
34.0753 27.1291
34.262 26.7937
34.4488 26.3775
34.6357 26.0163
34.8227 25.7446
35.0098 25.516
35.1969 25.1527
35.3842 25.0112
35.5716 24.9089
35.759 24.513
35.9468 24.1402
36.1345 23.8713
36.3222 23.6401
36.5101 23.3106
36.6981 23.0419
36.8861 22.6661
37.0743 22.4239
37.2626 22.0876
37.451 21.924
37.6395 21.7483
37.8281 21.3934
38.0168 21.0792
38.2056 20.8076
38.3945 20.5203
38.5837 20.2569
38.7728 20.0368
38.9621 19.7554
39.1514 19.4652
39.3409 19.2489
39.5304 19.0137
39.7201 18.8085
39.9099 18.589
40.0999 18.3322
40.2899 18.1118
40.48 17.8665
40.6703 17.6179
40.8607 17.4793
41.0512 17.1966
41.242 16.9518
41.4327 16.7704
41.6236 16.5526
41.8146 16.3324
42.0057 16.024
42.1969 15.829
42.3882 15.6586
42.5797 15.4782
42.7713 15.2087
42.963 15.0395
43.1549 14.8212
43.3468 14.6467
43.5389 14.4818
43.7312 14.2179
43.9237 14.0183
44.1162 13.8085
44.3088 13.6219
44.5016 13.4154
44.6945 13.2026
44.8875 13.1178
45.0806 12.9092
45.2739 12.7282
45.4673 12.5411
45.6609 12.3409
45.8546 12.2092
46.0484 12.0394
46.2424 11.844
46.4365 11.6733
46.631 11.478
46.8254 11.2767
47.0199 11.1428
47.2146 11.0002
47.4095 10.8099
47.6044 10.6897
47.7996 10.5017
47.9948 10.3504
48.1902 10.2093
48.3858 10.0581
48.5815 9.96281
48.7774 9.74136
48.9734 9.61957
49.1696 9.46928
49.3661 9.33173
49.5626 9.15588
49.7592 9.0152
49.956 8.91182
50.153 8.81876
50.3501 8.60378
50.5474 8.49849
50.7448 8.38943
50.9424 8.27534
51.1402 8.13339
51.3381 7.97254
51.5362 7.87602
51.7344 7.68427
51.9328 7.5983
52.1316 7.45165
52.3304 7.31162
52.5293 7.19682
52.7284 7.10172
52.9276 7.00504
53.1271 6.90019
53.3267 6.74296
53.5265 6.64198
53.7264 6.52035
53.9266 6.38744
54.1269 6.3136
54.3274 6.1493
54.528 5.99883
54.7289 5.82221
54.9301 5.68531
55.1314 5.52533
55.3328 5.307
55.5344 5.10256
55.7361 4.92759