File: XRD/Ni3Fe_FD0562.xy
TT I
1.27165 7.65946
1.45013 6.45001
1.62863 5.12668
1.80712 4.89043
1.98562 5.2058
2.16411 4.52482
2.34263 5.17351
2.52115 6.39073
2.69965 7.8171
2.87818 8.32241
3.05672 11.1818
3.23527 15.2464
3.4138 18.802
3.59237 23.7902
3.77094 25.8059
3.9495 29.5154
4.12809 34.8843
4.30669 150.958
4.4853 59.1038
4.6639 55.6238
4.84253 68.158
5.02118 88.6362
5.19981 433.141
5.37848 197.634
5.55716 102.971
5.73586 93.2687
5.91455 96.7324
6.09328 4441.62
6.27201 83.1863
6.45075 67.6759
6.62952 62.676
6.8083 58.6536
6.98711 55.857
7.16591 55.5847
7.34475 78.9085
7.5236 54.8034
7.70247 56.1153
7.88135 58.2386
8.06026 62.8367
8.23919 70.1009
8.41812 85.7423
8.59709 1230.23
8.77609 100.237
8.9551 90.2011
9.13412 82.6466
9.31318 83.53
9.49226 85.372
9.67134 96.4876
9.85047 100.905
10.0296 378.348
10.2088 398.048
10.388 105.804
10.5672 518.585
10.7465 87.1455
10.9257 78.6051
11.105 71.9298
11.2844 69.895
11.4637 65.3881
11.6431 64.0655
11.8225 63.0289
12.002 64.4907
12.1814 155.319
12.3609 68.7942
12.5405 64.9303
12.72 69.1482
12.8996 71.5474
13.0792 80.5379
13.2589 248.735
13.4386 123.294
13.6183 254.351
13.7981 96.9951
13.9779 76.2058
14.1577 72.3133
14.3376 71.2959
14.5175 69.2705
14.6974 71.0258
14.8774 115.282
15.0574 144.356
15.2374 70.7249
15.4175 66.8399
15.5976 66.494
15.7778 98.6541
15.958 153.192
16.1382 62.4699
16.3185 58.5236
16.4988 55.8242
16.6792 54.8653
16.8596 55.6116
17.04 56.3935
17.2205 67.8805
17.401 71.2759
17.5815 59.5661
17.7622 61.8543
17.9428 75.508
18.1237 141.419
18.3044 91.9833
18.4852 77.2106
18.666 60.7042
18.8469 58.5689
19.0278 57.297
19.2088 60.2058
19.3898 76.4318
19.5709 54.4664
19.752 53.5753
19.9332 57.1167
20.1144 70.3554
20.2957 64.3252
20.477 53.5446
20.6586 49.9911
20.84 49.0802
21.0215 48.7875
21.203 51.1858
21.3846 49.2183
21.5662 49.0955
21.7479 53.3945
21.9297 65.008
22.1115 56.4567
22.2933 49.9369
22.4753 49.1207
22.6572 49.2461
22.8393 52.473
23.0214 57.6042
23.2037 49.0281
23.3859 50.3391
23.5682 57.4891
23.7505 48.3666
23.9329 45.4584
24.1154 44.3427
24.2979 43.7014
24.4805 43.1254
24.6631 42.9957
24.8458 42.4272
25.0286 43.145
25.2114 44.9247
25.3943 44.8435
25.5773 41.2866
25.7605 40.7133
25.9436 41.1879
26.1268 41.9171
26.31 40.5433
26.4933 41.0928
26.6767 42.4319
26.8601 40.5719
27.0437 39.0172
27.2272 38.7135
27.4109 38.5995
27.5946 38.5861
27.7784 38.192
27.9623 38.6974
28.1462 39.0843
28.3304 37.3421
28.5145 36.2277
28.6987 35.8635
28.8829 35.6391
29.0673 34.7988
29.2517 34.5609
29.4361 34.419
29.6207 33.3728
29.8053 33.1522
29.99 32.784
30.1748 32.6579
30.3597 32.4354
30.5447 32.4637
30.7297 32.346
30.915 31.8331
31.1002 31.3999
31.2855 31.0916
31.4708 31.0928
31.6563 30.556
31.8418 30.414
32.0275 30.076
32.2132 29.5637
32.399 29.0892
32.5848 28.7171
32.7708 28.2525
32.9569 28.1917
33.143 27.9461
33.3293 27.5877
33.5158 27.1766
33.7022 26.6309
33.8887 26.5633
34.0753 26.1607
34.262 25.8239
34.4488 25.4238
34.6357 25.0857
34.8227 24.7852
35.0098 24.6324
35.1969 24.3854
35.3842 24.1444
35.5716 23.9134
35.759 23.5468
35.9468 23.3062
36.1345 23.0245
36.3222 22.7831
36.5101 22.5224
36.6981 22.2031
36.8861 21.9163
37.0743 21.6169
37.2626 21.3699
37.451 21.0207
37.6395 20.9298
37.8281 20.5804
38.0168 20.2976
38.2056 20.0654
38.3945 19.7638
38.5837 19.5614
38.7728 19.3006
38.9621 19.036
39.1514 18.818
39.3409 18.553
39.5304 18.344
39.7201 18.1808
39.9099 17.9488
40.0999 17.7353
40.2899 17.4599
40.48 17.2173
40.6703 16.9774
40.8607 16.7988
41.0512 16.5781
41.242 16.3386
41.4327 16.1666
41.6236 15.9276
41.8146 15.7044
42.0057 15.5257
42.1969 15.2721
42.3882 15.1239
42.5797 14.9293
42.7713 14.7243
42.963 14.4604
43.1549 14.3417
43.3468 14.0814
43.5389 13.927
43.7312 13.7372
43.9237 13.5507
44.1162 13.315
44.3088 13.1242
44.5016 12.9547
44.6945 12.8091
44.8875 12.6287
45.0806 12.4182
45.2739 12.2461
45.4673 12.1066
45.6609 11.8606
45.8546 11.7828
46.0484 11.5988
46.2424 11.447
46.4365 11.328
46.631 11.0808
46.8254 10.8773
47.0199 10.7926
47.2146 10.5885
47.4095 10.4524
47.6044 10.3071
47.7996 10.1578
47.9948 9.99414
48.1902 9.85052
48.3858 9.71822
48.5815 9.60606
48.7774 9.42085
48.9734 9.3315
49.1696 9.14911
49.3661 8.98543
49.5626 8.85956
49.7592 8.75931
49.956 8.59703
50.153 8.48283
50.3501 8.34502
50.5474 8.21915
50.7448 8.12067
50.9424 7.98511
51.1402 7.85538
51.3381 7.72272
51.5362 7.59329
51.7344 7.45523
51.9328 7.32891
52.1316 7.22501
52.3304 7.13866
52.5293 6.96788
52.7284 6.92308
52.9276 6.74771
53.1271 6.6869
53.3267 6.53523
53.5265 6.42467
53.7264 6.26895
53.9266 6.20222
54.1269 6.09831
54.3274 5.9233
54.528 5.83192
54.7289 5.6462
54.9301 5.51275
55.1314 5.39897
55.3328 5.11068
55.5344 4.95569
55.7361 4.87627