File: XRD/Ni3Fe_FD0328.xy
TT I
1.27165 7.68734
1.45013 7.17429
1.62863 5.10607
1.80712 5.37477
1.98562 4.62211
2.16411 4.71317
2.34263 5.06859
2.52115 5.61786
2.69965 7.10154
2.87818 8.22289
3.05672 11.3863
3.23527 15.4687
3.4138 19.167
3.59237 23.8323
3.77094 26.5735
3.9495 30.3783
4.12809 35.4338
4.30669 179.934
4.4853 62.9604
4.6639 56.9968
4.84253 69.5983
5.02118 91.5382
5.19981 549.424
5.37848 230.047
5.55716 106.247
5.73586 96.5344
5.91455 101.345
6.09328 4024.11
6.27201 86.4417
6.45075 69.384
6.62952 64.3263
6.8083 59.9364
6.98711 57.5986
7.16591 56.6949
7.34475 86.1604
7.5236 56.2514
7.70247 57.5161
7.88135 59.2256
8.06026 64.1669
8.23919 71.8085
8.41812 88.6641
8.59709 1151.07
8.77609 104.897
8.9551 93.1482
9.13412 84.4561
9.31318 85.7962
9.49226 87.2762
9.67134 99.8322
9.85047 103.68
10.0296 418.23
10.2088 494.372
10.388 109.524
10.5672 480.877
10.7465 89.5789
10.9257 80.3595
11.105 73.6997
11.2844 71.976
11.4637 66.7969
11.6431 65.5497
11.8225 64.3433
12.002 66.059
12.1814 149.333
12.3609 72.1355
12.5405 66.396
12.72 71.6798
12.8996 73.4433
13.0792 82.3948
13.2589 241.025
13.4386 133.771
13.6183 239.184
13.7981 103.594
13.9779 78.2126
14.1577 74.4358
14.3376 73.5384
14.5175 70.9697
14.6974 72.8916
14.8774 117.331
15.0574 157.524
15.2374 72.8449
15.4175 68.5976
15.5976 68.2028
15.7778 101.47
15.958 167.174
16.1382 64.4217
16.3185 60.1797
16.4988 57.1485
16.6792 56.1752
16.8596 56.8517
17.04 57.7629
17.2205 68.9996
17.401 74.3864
17.5815 61.2807
17.7622 63.1389
17.9428 78.1211
18.1237 140.042
18.3044 91.2916
18.4852 81.2319
18.666 62.2301
18.8469 59.7674
19.0278 58.5858
19.2088 62.0252
19.3898 77.5986
19.5709 56.0151
19.752 54.9435
19.9332 58.4462
20.1144 71.2513
20.2957 64.3782
20.477 55.6254
20.6586 51.2551
20.84 50.3697
21.0215 50.3721
21.203 51.9621
21.3846 50.5055
21.5662 50.5059
21.7479 54.6922
21.9297 66.3794
22.1115 57.2189
22.2933 51.4228
22.4753 50.5503
22.6572 50.6735
22.8393 53.5529
23.0214 59.1343
23.2037 50.5043
23.3859 51.6419
23.5682 57.5093
23.7505 49.8272
23.9329 46.5324
24.1154 45.3214
24.2979 44.8326
24.4805 44.0979
24.6631 44.1496
24.8458 43.5753
25.0286 44.2155
25.2114 45.9007
25.3943 46.0446
25.5773 42.1078
25.7605 41.7345
25.9436 42.0898
26.1268 42.9308
26.31 41.3689
26.4933 42.0201
26.6767 43.4906
26.8601 41.6168
27.0437 40.0279
27.2272 39.6234
27.4109 39.3941
27.5946 39.5395
27.7784 39.0582
27.9623 39.5197
28.1462 39.9775
28.3304 38.3783
28.5145 37.1589
28.6987 36.6085
28.8829 36.4366
29.0673 35.6908
29.2517 35.3653
29.4361 35.1366
29.6207 34.0996
29.8053 34.0023
29.99 33.6969
30.1748 33.3852
30.3597 33.3005
30.5447 33.1359
30.7297 33.1979
30.915 32.5877
31.1002 32.0694
31.2855 31.773
31.4708 31.632
31.6563 31.3451
31.8418 31.1466
32.0275 30.7778
32.2132 30.2655
32.399 29.7692
32.5848 29.3478
32.7708 28.9172
32.9569 28.8147
33.143 28.6317
33.3293 28.2159
33.5158 27.7808
33.7022 27.3527
33.8887 27.1776
34.0753 26.7328
34.262 26.4245
34.4488 25.9993
34.6357 25.7455
34.8227 25.3996
35.0098 25.1511
35.1969 24.9092
35.3842 24.7001
35.5716 24.45
35.759 24.1666
35.9468 23.7702
36.1345 23.6225
36.3222 23.2908
36.5101 23.0845
36.6981 22.7999
36.8861 22.4586
37.0743 22.1007
37.2626 21.8924
37.451 21.5816
37.6395 21.386
37.8281 21.0119
38.0168 20.7693
38.2056 20.5688
38.3945 20.3251
38.5837 20.0712
38.7728 19.8443
38.9621 19.5174
39.1514 19.1756
39.3409 18.9976
39.5304 18.8
39.7201 18.5269
39.9099 18.4284
40.0999 18.0558
40.2899 17.9097
40.48 17.6333
40.6703 17.4552
40.8607 17.224
41.0512 16.9719
41.242 16.7659
41.4327 16.5903
41.6236 16.2957
41.8146 16.124
42.0057 15.871
42.1969 15.6828
42.3882 15.5272
42.5797 15.2431
42.7713 15.0897
42.963 14.8069
43.1549 14.6234
43.3468 14.453
43.5389 14.25
43.7312 14.0
43.9237 13.91
44.1162 13.6474
44.3088 13.4868
44.5016 13.2769
44.6945 13.1234
44.8875 12.9343
45.0806 12.7177
45.2739 12.6028
45.4673 12.3748
45.6609 12.1862
45.8546 12.0486
46.0484 11.8917
46.2424 11.698
46.4365 11.5517
46.631 11.3007
46.8254 11.1749
47.0199 11.0329
47.2146 10.8664
47.4095 10.6975
47.6044 10.5625
47.7996 10.3749
47.9948 10.2721
48.1902 10.0815
48.3858 9.94923
48.5815 9.82198
48.7774 9.65601
48.9734 9.51648
49.1696 9.38609
49.3661 9.20442
49.5626 9.04229
49.7592 8.98688
49.956 8.81019
50.153 8.64892
50.3501 8.53922
50.5474 8.41656
50.7448 8.31248
50.9424 8.17227
51.1402 8.04556
51.3381 7.87484
51.5362 7.81566
51.7344 7.63808
51.9328 7.51503
52.1316 7.34734
52.3304 7.25737
52.5293 7.16168
52.7284 6.9914
52.9276 6.90824
53.1271 6.81651
53.3267 6.68094
53.5265 6.53461
53.7264 6.46201
53.9266 6.33195
54.1269 6.24202
54.3274 6.06237
54.528 5.97528
54.7289 5.81101
54.9301 5.67154
55.1314 5.47465
55.3328 5.30529
55.5344 5.07199
55.7361 4.98914