File: XRD/Ni3Fe_FD0432.xy
TT I
1.27165 7.39732
1.45013 6.3288
1.62863 5.14842
1.80712 5.3725
1.98562 5.03135
2.16411 5.13409
2.34263 5.33087
2.52115 6.43023
2.69965 7.27146
2.87818 8.72303
3.05672 10.7839
3.23527 14.9967
3.4138 19.1244
3.59237 24.7043
3.77094 26.7458
3.9495 30.3463
4.12809 35.4799
4.30669 214.346
4.4853 66.086
4.6639 56.4309
4.84253 68.1184
5.02118 89.0628
5.19981 430.69
5.37848 207.609
5.55716 104.088
5.73586 94.2122
5.91455 97.4625
6.09328 4169.26
6.27201 84.9046
6.45075 68.7454
6.62952 63.727
6.8083 59.6763
6.98711 56.4109
7.16591 56.4439
7.34475 92.2989
7.5236 55.6268
7.70247 56.9592
7.88135 58.7469
8.06026 63.1973
8.23919 70.9274
8.41812 87.1537
8.59709 1179.54
8.77609 102.133
8.9551 92.9958
9.13412 83.0507
9.31318 83.8704
9.49226 85.7737
9.67134 100.108
9.85047 102.01
10.0296 374.352
10.2088 440.413
10.388 106.936
10.5672 503.629
10.7465 87.8171
10.9257 79.5264
11.105 73.0981
11.2844 71.2368
11.4637 65.8826
11.6431 64.5584
11.8225 63.2563
12.002 64.8093
12.1814 152.837
12.3609 71.7618
12.5405 65.6418
12.72 71.3722
12.8996 72.1031
13.0792 80.5272
13.2589 238.836
13.4386 130.04
13.6183 244.587
13.7981 100.205
13.9779 77.1561
14.1577 73.5663
14.3376 72.8147
14.5175 70.1999
14.6974 71.76
14.8774 113.603
15.0574 155.88
15.2374 71.961
15.4175 67.3442
15.5976 67.0236
15.7778 97.876
15.958 160.399
16.1382 63.9729
16.3185 59.67
16.4988 56.4935
16.6792 55.4365
16.8596 56.1044
17.04 56.8958
17.2205 68.0083
17.401 72.7107
17.5815 60.4356
17.7622 62.4863
17.9428 76.0193
18.1237 139.812
18.3044 91.0185
18.4852 79.0439
18.666 61.5167
18.8469 59.0979
19.0278 57.9884
19.2088 60.7864
19.3898 77.8164
19.5709 55.1002
19.752 54.2499
19.9332 57.6054
20.1144 70.9161
20.2957 64.5237
20.477 54.7006
20.6586 50.6322
20.84 49.6651
21.0215 49.6424
21.203 51.7608
21.3846 49.8086
21.5662 49.8695
21.7479 53.651
21.9297 65.6335
22.1115 56.861
22.2933 50.8675
22.4753 49.9905
22.6572 49.7863
22.8393 52.841
23.0214 58.4352
23.2037 49.5979
23.3859 50.8829
23.5682 57.6829
23.7505 49.2976
23.9329 46.0932
24.1154 44.8026
24.2979 44.1594
24.4805 43.6928
24.6631 43.5416
24.8458 43.1026
25.0286 43.6132
25.2114 45.3512
25.3943 45.5005
25.5773 41.8698
25.7605 41.2387
25.9436 41.5934
26.1268 42.5007
26.31 40.8955
26.4933 41.5437
26.6767 42.8673
26.8601 41.2605
27.0437 39.679
27.2272 39.2793
27.4109 39.2624
27.5946 39.0806
27.7784 38.5396
27.9623 39.0263
28.1462 39.5748
28.3304 37.8962
28.5145 36.6857
28.6987 36.2744
28.8829 36.14
29.0673 35.3425
29.2517 35.0011
29.4361 34.7493
29.6207 33.7506
29.8053 33.5111
29.99 33.1386
30.1748 32.9333
30.3597 32.8823
30.5447 32.703
30.7297 32.9032
30.915 32.1513
31.1002 31.7133
31.2855 31.3514
31.4708 31.3828
31.6563 30.8777
31.8418 30.7519
32.0275 30.5743
32.2132 29.959
32.399 29.5121
32.5848 28.9531
32.7708 28.6672
32.9569 28.4688
33.143 28.3333
33.3293 27.9273
33.5158 27.5815
33.7022 27.1295
33.8887 26.8492
34.0753 26.4045
34.262 26.1759
34.4488 25.7343
34.6357 25.4479
34.8227 25.1962
35.0098 24.8995
35.1969 24.6596
35.3842 24.4221
35.5716 24.1802
35.759 23.9451
35.9468 23.5856
36.1345 23.3751
36.3222 23.1344
36.5101 22.8011
36.6981 22.5727
36.8861 22.2568
37.0743 21.9017
37.2626 21.6356
37.451 21.3227
37.6395 21.1959
37.8281 20.8909
38.0168 20.5296
38.2056 20.3894
38.3945 20.071
38.5837 19.8303
38.7728 19.585
38.9621 19.3238
39.1514 19.0156
39.3409 18.7551
39.5304 18.6122
39.7201 18.3237
39.9099 18.1835
40.0999 17.951
40.2899 17.7266
40.48 17.4558
40.6703 17.1689
40.8607 17.1038
41.0512 16.8256
41.242 16.5434
41.4327 16.3749
41.6236 16.1122
41.8146 15.9964
42.0057 15.6804
42.1969 15.4667
42.3882 15.3467
42.5797 15.0988
42.7713 14.8202
42.963 14.6885
43.1549 14.5121
43.3468 14.3188
43.5389 14.095
43.7312 13.899
43.9237 13.6917
44.1162 13.4898
44.3088 13.3278
44.5016 13.1118
44.6945 12.9713
44.8875 12.7937
45.0806 12.6441
45.2739 12.4148
45.4673 12.2607
45.6609 12.0694
45.8546 11.9453
46.0484 11.7625
46.2424 11.5367
46.4365 11.4231
46.631 11.2471
46.8254 11.0548
47.0199 10.8993
47.2146 10.7692
47.4095 10.5219
47.6044 10.4222
47.7996 10.2791
47.9948 10.1024
48.1902 9.96605
48.3858 9.85431
48.5815 9.70289
48.7774 9.52246
48.9734 9.40974
49.1696 9.26196
49.3661 9.12576
49.5626 8.9855
49.7592 8.84814
49.956 8.72995
50.153 8.58554
50.3501 8.43591
50.5474 8.35633
50.7448 8.17755
50.9424 8.09631
51.1402 7.92472
51.3381 7.8075
51.5362 7.68147
51.7344 7.56586
51.9328 7.4631
52.1316 7.30398
52.3304 7.21389
52.5293 7.06635
52.7284 6.93105
52.9276 6.82958
53.1271 6.78937
53.3267 6.60908
53.5265 6.50728
53.7264 6.3754
53.9266 6.25619
54.1269 6.1535
54.3274 6.07157
54.528 5.91469
54.7289 5.80431
54.9301 5.56259
55.1314 5.50494
55.3328 5.23378
55.5344 5.05293
55.7361 4.8999