File: XRD/Ni3Fe_FD0619.xy
TT I
1.27165 7.51509
1.45013 6.36506
1.62863 5.46845
1.80712 5.93241
1.98562 4.36682
2.16411 5.35896
2.34263 5.59417
2.52115 6.68051
2.69965 7.35428
2.87818 8.60557
3.05672 11.1601
3.23527 15.191
3.4138 18.8485
3.59237 24.5934
3.77094 25.9528
3.9495 30.3358
4.12809 34.8085
4.30669 209.63
4.4853 65.0542
4.6639 55.8407
4.84253 67.6112
5.02118 87.4433
5.19981 353.921
5.37848 194.857
5.55716 102.69
5.73586 92.8695
5.91455 94.6149
6.09328 4331.32
6.27201 83.9729
6.45075 68.0655
6.62952 63.1458
6.8083 58.781
6.98711 56.1368
7.16591 55.6144
7.34475 90.1461
7.5236 55.2026
7.70247 56.4114
7.88135 58.1762
8.06026 62.787
8.23919 70.0876
8.41812 85.4277
8.59709 1189.68
8.77609 100.4
8.9551 91.882
9.13412 82.8726
9.31318 83.0297
9.49226 84.9946
9.67134 98.9792
9.85047 100.419
10.0296 340.208
10.2088 419.356
10.388 105.605
10.5672 501.52
10.7465 87.0984
10.9257 78.8637
11.105 72.4738
11.2844 70.8712
11.4637 65.2944
11.6431 63.9712
11.8225 62.9519
12.002 63.859
12.1814 154.46
12.3609 71.0138
12.5405 65.1278
12.72 70.1476
12.8996 71.3347
13.0792 79.2346
13.2589 239.54
13.4386 127.95
13.6183 249.652
13.7981 99.9866
13.9779 76.3028
14.1577 72.9072
14.3376 72.1504
14.5175 69.111
14.6974 71.0685
14.8774 111.365
15.0574 151.092
15.2374 71.6538
15.4175 66.6517
15.5976 66.3167
15.7778 95.4433
15.958 155.572
16.1382 63.0836
16.3185 59.0343
16.4988 55.7399
16.6792 54.9364
16.8596 55.8131
17.04 56.2234
17.2205 67.3138
17.401 72.8353
17.5815 59.5344
17.7622 61.7131
17.9428 73.8935
18.1237 138.205
18.3044 91.0147
18.4852 78.6413
18.666 60.9316
18.8469 58.3992
19.0278 57.33
19.2088 59.9422
19.3898 76.364
19.5709 54.5689
19.752 53.6196
19.9332 56.4778
20.1144 69.8609
20.2957 64.3458
20.477 54.2268
20.6586 50.0688
20.84 49.1669
21.0215 48.8781
21.203 51.0872
21.3846 49.2943
21.5662 49.1456
21.7479 52.84
21.9297 64.7382
22.1115 56.4698
22.2933 50.2554
22.4753 49.2255
22.6572 49.0956
22.8393 52.3513
23.0214 57.6156
23.2037 49.0471
23.3859 49.933
23.5682 56.977
23.7505 48.6939
23.9329 45.5091
24.1154 44.3588
24.2979 43.7522
24.4805 43.1354
24.6631 43.1115
24.8458 42.531
25.0286 43.036
25.2114 44.8242
25.3943 44.7861
25.5773 41.0781
25.7605 40.5956
25.9436 41.0865
26.1268 41.8392
26.31 40.3499
26.4933 40.8422
26.6767 42.335
26.8601 40.6616
27.0437 39.1487
27.2272 38.7202
27.4109 38.7051
27.5946 38.6125
27.7784 38.2026
27.9623 38.5525
28.1462 39.0818
28.3304 37.2973
28.5145 36.2757
28.6987 35.8159
28.8829 35.5719
29.0673 34.848
29.2517 34.5324
29.4361 34.366
29.6207 33.2513
29.8053 33.0971
29.99 32.7435
30.1748 32.5896
30.3597 32.3756
30.5447 32.3301
30.7297 32.4448
30.915 31.7522
31.1002 31.2276
31.2855 30.9901
31.4708 30.9217
31.6563 30.5583
31.8418 30.3094
32.0275 30.1258
32.2132 29.5158
32.399 29.0522
32.5848 28.6549
32.7708 28.285
32.9569 28.1021
33.143 27.9828
33.3293 27.5826
33.5158 27.2127
33.7022 26.6985
33.8887 26.4607
34.0753 26.072
34.262 25.8517
34.4488 25.4157
34.6357 25.1334
34.8227 24.8536
35.0098 24.5996
35.1969 24.3993
35.3842 24.1459
35.5716 23.8574
35.759 23.6361
35.9468 23.2512
36.1345 22.9802
36.3222 22.8098
36.5101 22.5636
36.6981 22.2404
36.8861 21.9533
37.0743 21.5959
37.2626 21.3492
37.451 21.1004
37.6395 20.9259
37.8281 20.579
38.0168 20.3472
38.2056 20.0392
38.3945 19.7498
38.5837 19.53
38.7728 19.327
38.9621 19.1019
39.1514 18.8704
39.3409 18.5646
39.5304 18.3215
39.7201 18.1713
39.9099 17.9191
40.0999 17.6474
40.2899 17.4192
40.48 17.2076
40.6703 17.0015
40.8607 16.8347
41.0512 16.6061
41.242 16.3439
41.4327 16.1556
41.6236 15.9155
41.8146 15.752
42.0057 15.4977
42.1969 15.2947
42.3882 15.0552
42.5797 14.9158
42.7713 14.7473
42.963 14.574
43.1549 14.3216
43.3468 14.1151
43.5389 13.925
43.7312 13.7052
43.9237 13.4642
44.1162 13.3365
44.3088 13.1694
44.5016 12.9579
44.6945 12.8255
44.8875 12.6146
45.0806 12.4307
45.2739 12.2491
45.4673 12.0969
45.6609 11.9144
45.8546 11.8022
46.0484 11.6018
46.2424 11.436
46.4365 11.322
46.631 11.075
46.8254 10.9242
47.0199 10.7576
47.2146 10.6429
47.4095 10.467
47.6044 10.2946
47.7996 10.119
47.9948 9.98664
48.1902 9.84545
48.3858 9.72532
48.5815 9.58027
48.7774 9.43851
48.9734 9.29086
49.1696 9.17488
49.3661 9.03558
49.5626 8.82358
49.7592 8.73186
49.956 8.62528
50.153 8.46254
50.3501 8.33195
50.5474 8.213
50.7448 8.13778
50.9424 7.97554
51.1402 7.83627
51.3381 7.67259
51.5362 7.6107
51.7344 7.48468
51.9328 7.31789
52.1316 7.21868
52.3304 7.12013
52.5293 7.00722
52.7284 6.89532
52.9276 6.74933
53.1271 6.65137
53.3267 6.52098
53.5265 6.42983
53.7264 6.31197
53.9266 6.17191
54.1269 6.08517
54.3274 5.99425
54.528 5.83723
54.7289 5.71146
54.9301 5.50345
55.1314 5.38596
55.3328 5.15943
55.5344 4.98125
55.7361 4.83739