File: XRD/Ni3Fe_FD0921.xy
TT I
1.27165 6.96434
1.45013 6.0998
1.62863 5.12289
1.80712 4.70226
1.98562 5.53739
2.16411 4.59691
2.34263 5.70966
2.52115 7.37421
2.69965 7.99988
2.87818 9.1532
3.05672 10.9153
3.23527 15.2898
3.4138 19.0719
3.59237 23.1144
3.77094 25.9165
3.9495 29.3619
4.12809 34.4829
4.30669 107.82
4.4853 54.0453
4.6639 55.2522
4.84253 67.518
5.02118 85.696
5.19981 364.283
5.37848 189.377
5.55716 100.514
5.73586 91.5293
5.91455 93.7171
6.09328 4632.83
6.27201 78.982
6.45075 68.7332
6.62952 62.1345
6.8083 58.4889
6.98711 54.8485
7.16591 55.3481
7.34475 67.9502
7.5236 53.5328
7.70247 56.3481
7.88135 56.7252
8.06026 61.9766
8.23919 68.2807
8.41812 82.5384
8.59709 1199.48
8.77609 95.4046
8.9551 88.8866
9.13412 81.8061
9.31318 83.7343
9.49226 83.6217
9.67134 94.5726
9.85047 99.8139
10.0296 330.867
10.2088 324.854
10.388 102.921
10.5672 543.819
10.7465 84.7566
10.9257 76.9202
11.105 70.5376
11.2844 67.3638
11.4637 63.9581
11.6431 62.4482
11.8225 61.915
12.002 63.284
12.1814 158.142
12.3609 65.7044
12.5405 63.6987
12.72 67.1405
12.8996 70.3351
13.0792 78.7615
13.2589 245.772
13.4386 114.218
13.6183 257.996
13.7981 91.277
13.9779 74.4768
14.1577 70.8067
14.3376 68.9892
14.5175 67.878
14.6974 69.43
14.8774 110.153
15.0574 138.013
15.2374 68.4701
15.4175 65.3174
15.5976 64.8851
15.7778 93.7734
15.958 145.677
16.1382 60.4366
16.3185 56.852
16.4988 54.4558
16.6792 53.4719
16.8596 54.1301
17.04 55.1464
17.2205 66.2202
17.401 67.3868
17.5815 58.1945
17.7622 60.3379
17.9428 72.21
18.1237 139.369
18.3044 90.7483
18.4852 72.8815
18.666 59.044
18.8469 57.007
19.0278 55.8069
19.2088 58.1829
19.3898 74.9146
19.5709 53.0101
19.752 52.4759
19.9332 55.1899
20.1144 69.6156
20.2957 64.1707
20.477 51.9805
20.6586 48.8178
20.84 48.0201
21.0215 47.6986
21.203 50.2798
21.3846 47.8825
21.5662 48.2135
21.7479 51.7277
21.9297 64.2346
22.1115 55.5595
22.2933 48.7871
22.4753 47.9123
22.6572 47.9173
22.8393 51.1991
23.0214 56.0252
23.2037 47.9991
23.3859 48.765
23.5682 56.9068
23.7505 46.9461
23.9329 44.4658
24.1154 43.4341
24.2979 42.5855
24.4805 42.258
24.6631 42.1457
24.8458 41.6054
25.0286 42.2349
25.2114 43.9162
25.3943 43.6581
25.5773 40.0615
25.7605 39.6142
25.9436 40.2399
26.1268 40.9703
26.31 39.481
26.4933 39.9294
26.6767 41.387
26.8601 39.8128
27.0437 38.1214
27.2272 37.7217
27.4109 37.7874
27.5946 37.7009
27.7784 37.2664
27.9623 37.92
28.1462 38.1426
28.3304 36.5441
28.5145 35.3892
28.6987 34.911
28.8829 34.8563
29.0673 34.0075
29.2517 33.7276
29.4361 33.6108
29.6207 32.5472
29.8053 32.2989
29.99 31.9768
30.1748 31.9184
30.3597 31.6136
30.5447 31.5823
30.7297 31.6812
30.915 31.0737
31.1002 30.467
31.2855 30.2819
31.4708 30.3381
31.6563 29.7595
31.8418 29.5992
32.0275 29.4622
32.2132 28.8008
32.399 28.4396
32.5848 27.98
32.7708 27.5945
32.9569 27.4905
33.143 27.2685
33.3293 26.9083
33.5158 26.5265
33.7022 26.0868
33.8887 25.816
34.0753 25.5216
34.262 25.2459
34.4488 24.7815
34.6357 24.5563
34.8227 24.297
35.0098 24.1153
35.1969 23.8049
35.3842 23.5353
35.5716 23.3662
35.759 23.0387
35.9468 22.7029
36.1345 22.4991
36.3222 22.3178
36.5101 22.0277
36.6981 21.6766
36.8861 21.3574
37.0743 21.1168
37.2626 20.8972
37.451 20.6056
37.6395 20.4107
37.8281 20.147
38.0168 19.9006
38.2056 19.6171
38.3945 19.328
38.5837 19.0782
38.7728 18.8786
38.9621 18.5967
39.1514 18.3469
39.3409 18.1671
39.5304 17.9063
39.7201 17.769
39.9099 17.5139
40.0999 17.2921
40.2899 17.0573
40.48 16.8314
40.6703 16.6794
40.8607 16.451
41.0512 16.2159
41.242 15.9585
41.4327 15.7403
41.6236 15.5825
41.8146 15.3446
42.0057 15.1027
42.1969 14.9417
42.3882 14.8069
42.5797 14.5552
42.7713 14.4194
42.963 14.1818
43.1549 14.0151
43.3468 13.7486
43.5389 13.5985
43.7312 13.3952
43.9237 13.25
44.1162 13.0152
44.3088 12.8448
44.5016 12.6734
44.6945 12.5327
44.8875 12.3391
45.0806 12.1598
45.2739 11.9984
45.4673 11.862
45.6609 11.6574
45.8546 11.4978
46.0484 11.3504
46.2424 11.1687
46.4365 11.05
46.631 10.8118
46.8254 10.6938
47.0199 10.509
47.2146 10.3895
47.4095 10.2244
47.6044 10.0771
47.7996 9.89146
47.9948 9.78562
48.1902 9.63147
48.3858 9.45589
48.5815 9.35796
48.7774 9.2139
48.9734 9.07775
49.1696 8.95514
49.3661 8.7955
49.5626 8.66958
49.7592 8.5191
49.956 8.44191
50.153 8.31256
50.3501 8.15923
50.5474 8.04964
50.7448 7.89472
50.9424 7.80829
51.1402 7.68934
51.3381 7.49271
51.5362 7.40362
51.7344 7.34382
51.9328 7.18246
52.1316 7.03553
52.3304 6.93565
52.5293 6.83893
52.7284 6.75285
52.9276 6.57573
53.1271 6.51281
53.3267 6.40499
53.5265 6.31104
53.7264 6.18256
53.9266 6.08857
54.1269 5.94656
54.3274 5.88807
54.528 5.70288
54.7289 5.55872
54.9301 5.39381
55.1314 5.24421
55.3328 5.03851
55.5344 4.87824
55.7361 4.7601