File: XRD/Ni3Fe_FD0757.xy
TT I
1.27165 7.45503
1.45013 5.74852
1.62863 5.47084
1.80712 5.14193
1.98562 5.18179
2.16411 5.06419
2.34263 4.83162
2.52115 7.19388
2.69965 8.48843
2.87818 8.47456
3.05672 11.0941
3.23527 14.642
3.4138 18.9941
3.59237 24.6394
3.77094 26.2429
3.9495 29.7536
4.12809 34.7276
4.30669 256.53
4.4853 69.3716
4.6639 54.7956
4.84253 66.6612
5.02118 84.8755
5.19981 303.565
5.37848 189.006
5.55716 100.442
5.73586 91.0169
5.91455 91.6051
6.09328 4304.92
6.27201 82.4329
6.45075 67.004
6.62952 62.5717
6.8083 58.0288
6.98711 55.3868
7.16591 55.3992
7.34475 100.301
7.5236 54.6557
7.70247 55.7437
7.88135 57.4617
8.06026 61.7781
8.23919 69.1013
8.41812 84.1967
8.59709 1097.67
8.77609 98.8616
8.9551 92.205
9.13412 80.8327
9.31318 81.6155
9.49226 83.7546
9.67134 99.3346
9.85047 98.7112
10.0296 304.169
10.2088 411.329
10.388 103.654
10.5672 513.382
10.7465 85.9969
10.9257 78.0323
11.105 71.2639
11.2844 70.7734
11.4637 64.7874
11.6431 63.1951
11.8225 62.1196
12.002 62.6893
12.1814 147.437
12.3609 71.5028
12.5405 64.0192
12.72 70.4307
12.8996 70.3767
13.0792 77.4457
13.2589 226.045
13.4386 127.667
13.6183 238.094
13.7981 98.5461
13.9779 75.1968
14.1577 72.1084
14.3376 71.3404
14.5175 68.1658
14.6974 69.7366
14.8774 105.583
15.0574 153.123
15.2374 70.758
15.4175 65.8328
15.5976 65.0782
15.7778 91.264
15.958 158.79
16.1382 62.8557
16.3185 58.4019
16.4988 55.05
16.6792 54.2799
16.8596 55.1331
17.04 55.1836
17.2205 65.6769
17.401 71.3194
17.5815 58.6233
17.7622 60.7199
17.9428 71.7183
18.1237 138.487
18.3044 89.1017
18.4852 78.2273
18.666 60.0751
18.8469 57.6597
19.0278 56.6321
19.2088 58.8477
19.3898 76.5441
19.5709 53.9343
19.752 52.7616
19.9332 55.6475
20.1144 69.2884
20.2957 63.2881
20.477 53.6987
20.6586 49.4089
20.84 48.4054
21.0215 48.0459
21.203 50.482
21.3846 48.5924
21.5662 48.3034
21.7479 51.981
21.9297 64.2639
22.1115 55.7466
22.2933 49.7284
22.4753 48.5755
22.6572 48.4365
22.8393 51.1712
23.0214 57.3015
23.2037 48.43
23.3859 49.0392
23.5682 56.5715
23.7505 48.2104
23.9329 44.9459
24.1154 43.9063
24.2979 43.2424
24.4805 42.7391
24.6631 42.4629
24.8458 42.0095
25.0286 42.3877
25.2114 44.2585
25.3943 44.421
25.5773 40.6277
25.7605 40.256
25.9436 40.5829
26.1268 41.4866
26.31 39.7269
26.4933 40.4053
26.6767 41.9065
26.8601 40.1803
27.0437 38.5308
27.2272 38.2178
27.4109 38.1527
27.5946 38.1537
27.7784 37.629
27.9623 38.1208
28.1462 38.6661
28.3304 37.02
28.5145 35.702
28.6987 35.389
28.8829 35.3255
29.0673 34.4943
29.2517 34.142
29.4361 33.9735
29.6207 32.9875
29.8053 32.5975
29.99 32.4681
30.1748 32.1792
30.3597 32.0235
30.5447 31.9767
30.7297 32.0595
30.915 31.4445
31.1002 31.0308
31.2855 30.6034
31.4708 30.6535
31.6563 30.1527
31.8418 29.8656
32.0275 29.8439
32.2132 29.2682
32.399 28.8061
32.5848 28.2681
32.7708 28.0275
32.9569 27.9795
33.143 27.6186
33.3293 27.2666
33.5158 26.8154
33.7022 26.4474
33.8887 26.2194
34.0753 25.8455
34.262 25.517
34.4488 25.1591
34.6357 24.9148
34.8227 24.5586
35.0098 24.3649
35.1969 24.0857
35.3842 23.86
35.5716 23.634
35.759 23.3235
35.9468 23.0424
36.1345 22.8087
36.3222 22.5513
36.5101 22.2355
36.6981 21.9238
36.8861 21.6759
37.0743 21.4083
37.2626 21.1049
37.451 20.9404
37.6395 20.6944
37.8281 20.4192
38.0168 20.1195
38.2056 19.8173
38.3945 19.5278
38.5837 19.3993
38.7728 19.2042
38.9621 18.8548
39.1514 18.5888
39.3409 18.3451
39.5304 18.1738
39.7201 17.9676
39.9099 17.7368
40.0999 17.535
40.2899 17.2624
40.48 17.0096
40.6703 16.8192
40.8607 16.639
41.0512 16.4521
41.242 16.1325
41.4327 15.9198
41.6236 15.7608
41.8146 15.5693
42.0057 15.3904
42.1969 15.1489
42.3882 14.9758
42.5797 14.7745
42.7713 14.5584
42.963 14.3538
43.1549 14.1737
43.3468 13.9753
43.5389 13.7885
43.7312 13.5677
43.9237 13.3688
44.1162 13.176
44.3088 12.9939
44.5016 12.8009
44.6945 12.6391
44.8875 12.4792
45.0806 12.3241
45.2739 12.0981
45.4673 12.0015
45.6609 11.7779
45.8546 11.6238
46.0484 11.4641
46.2424 11.3088
46.4365 11.1588
46.631 10.9817
46.8254 10.8107
47.0199 10.6948
47.2146 10.5294
47.4095 10.3667
47.6044 10.2059
47.7996 10.0497
47.9948 9.87675
48.1902 9.75993
48.3858 9.62872
48.5815 9.48406
48.7774 9.35707
48.9734 9.21379
49.1696 9.08042
49.3661 8.94634
49.5626 8.79336
49.7592 8.68931
49.956 8.53533
50.153 8.42296
50.3501 8.22362
50.5474 8.13342
50.7448 7.99761
50.9424 7.87638
51.1402 7.77042
51.3381 7.62075
51.5362 7.55075
51.7344 7.41096
51.9328 7.25274
52.1316 7.09176
52.3304 7.03905
52.5293 6.90584
52.7284 6.8246
52.9276 6.69723
53.1271 6.60514
53.3267 6.42277
53.5265 6.3997
53.7264 6.29041
53.9266 6.15656
54.1269 6.03295
54.3274 5.87415
54.528 5.75571
54.7289 5.62238
54.9301 5.45878
55.1314 5.32243
55.3328 5.1685
55.5344 4.9757
55.7361 4.78566