File: XRD/Ni3Fe_FD0697.xy
TT I
1.27165 7.9017
1.45013 6.59152
1.62863 5.08948
1.80712 4.62649
1.98562 4.40452
2.16411 4.3167
2.34263 5.2542
2.52115 6.94594
2.69965 7.69764
2.87818 8.96456
3.05672 11.1148
3.23527 15.3371
3.4138 18.9948
3.59237 23.3326
3.77094 26.018
3.9495 29.4589
4.12809 34.4208
4.30669 116.218
4.4853 55.1355
4.6639 55.5389
4.84253 68.3779
5.02118 87.6488
5.19981 431.103
5.37848 192.964
5.55716 102.552
5.73586 92.9932
5.91455 95.8933
6.09328 4571.71
6.27201 80.9
6.45075 69.0285
6.62952 62.8631
6.8083 59.038
6.98711 55.7124
7.16591 55.9651
7.34475 69.9927
7.5236 54.0935
7.70247 56.6167
7.88135 57.3835
8.06026 62.6115
8.23919 69.3208
8.41812 84.162
8.59709 1248.77
8.77609 98.3104
8.9551 89.5966
9.13412 82.6483
9.31318 84.3823
9.49226 84.8595
9.67134 95.3141
9.85047 101.193
10.0296 365.55
10.2088 358.327
10.388 105.812
10.5672 512.633
10.7465 86.0407
10.9257 77.7013
11.105 71.3057
11.2844 68.7182
11.4637 64.8258
11.6431 63.3944
11.8225 62.5232
12.002 64.4537
12.1814 155.584
12.3609 67.2887
12.5405 64.656
12.72 68.3345
12.8996 71.001
13.0792 80.3441
13.2589 249.266
13.4386 120.547
13.6183 258.72
13.7981 93.6611
13.9779 75.5896
14.1577 71.6346
14.3376 70.2217
14.5175 68.754
14.6974 70.7072
14.8774 114.391
15.0574 139.308
15.2374 69.6275
15.4175 66.4449
15.5976 65.932
15.7778 97.0296
15.958 149.63
16.1382 61.3708
16.3185 57.6049
16.4988 55.314
16.6792 54.2255
16.8596 54.9608
17.04 56.0772
17.2205 67.4836
17.401 69.8219
17.5815 59.0796
17.7622 61.217
17.9428 74.3701
18.1237 142.392
18.3044 91.3314
18.4852 75.1004
18.666 60.1904
18.8469 57.9414
19.0278 56.8447
19.2088 59.4256
19.3898 76.2813
19.5709 53.8621
19.752 53.351
19.9332 56.4686
20.1144 69.6755
20.2957 64.144
20.477 53.1174
20.6586 49.6867
20.84 48.8625
21.0215 48.6173
21.203 50.7911
21.3846 48.6653
21.5662 48.968
21.7479 52.9811
21.9297 64.9089
22.1115 55.9647
22.2933 49.6753
22.4753 48.6856
22.6572 48.9906
22.8393 52.1791
23.0214 57.1248
23.2037 48.7906
23.3859 49.7228
23.5682 57.1145
23.7505 47.8416
23.9329 45.2508
24.1154 44.0496
24.2979 43.47
24.4805 42.9452
24.6631 42.6917
24.8458 42.0886
25.0286 42.8654
25.2114 44.6151
25.3943 44.4838
25.5773 40.867
25.7605 40.2261
25.9436 40.7183
26.1268 41.6471
26.31 40.1029
26.4933 40.7401
26.6767 42.1726
26.8601 40.3235
27.0437 38.7506
27.2272 38.2773
27.4109 38.2658
27.5946 38.2402
27.7784 37.7174
27.9623 38.4749
28.1462 38.7517
28.3304 37.0205
28.5145 35.9119
28.6987 35.5797
28.8829 35.4149
29.0673 34.6175
29.2517 34.2818
29.4361 34.1069
29.6207 33.1266
29.8053 32.8723
29.99 32.4437
30.1748 32.3671
30.3597 32.1636
30.5447 32.1716
30.7297 32.1609
30.915 31.5712
31.1002 31.0406
31.2855 30.8698
31.4708 30.7028
31.6563 30.3045
31.8418 30.0626
32.0275 29.7951
32.2132 29.3402
32.399 28.8237
32.5848 28.4051
32.7708 28.0535
32.9569 27.9305
33.143 27.7431
33.3293 27.2953
33.5158 26.9316
33.7022 26.568
33.8887 26.2483
34.0753 25.9239
34.262 25.5736
34.4488 25.2425
34.6357 24.8704
34.8227 24.6695
35.0098 24.4814
35.1969 24.1277
35.3842 23.9281
35.5716 23.6839
35.759 23.4064
35.9468 23.0661
36.1345 22.8808
36.3222 22.6281
36.5101 22.3018
36.6981 22.0673
36.8861 21.7328
37.0743 21.3939
37.2626 21.1654
37.451 20.9454
37.6395 20.7896
37.8281 20.3689
38.0168 20.1614
38.2056 19.874
38.3945 19.6255
38.5837 19.3925
38.7728 19.1639
38.9621 18.8851
39.1514 18.7229
39.3409 18.4249
39.5304 18.2405
39.7201 18.0097
39.9099 17.8134
40.0999 17.5301
40.2899 17.3563
40.48 17.0836
40.6703 16.8938
40.8607 16.6823
41.0512 16.4788
41.242 16.2148
41.4327 16.001
41.6236 15.7534
41.8146 15.6457
42.0057 15.3633
42.1969 15.1747
42.3882 14.9947
42.5797 14.8086
42.7713 14.6066
42.963 14.3576
43.1549 14.1661
43.3468 13.9394
43.5389 13.7709
43.7312 13.6149
43.9237 13.4326
44.1162 13.1756
44.3088 13.0786
44.5016 12.8164
44.6945 12.7066
44.8875 12.4859
45.0806 12.3278
45.2739 12.2005
45.4673 12.0329
45.6609 11.8531
45.8546 11.6449
46.0484 11.467
46.2424 11.3149
46.4365 11.1668
46.631 11.0019
46.8254 10.8666
47.0199 10.6582
47.2146 10.4977
47.4095 10.3601
47.6044 10.1898
47.7996 10.0669
47.9948 9.93419
48.1902 9.76175
48.3858 9.65799
48.5815 9.51335
48.7774 9.35646
48.9734 9.24467
49.1696 9.09093
49.3661 8.93709
49.5626 8.79851
49.7592 8.64949
49.956 8.57118
50.153 8.39457
50.3501 8.25646
50.5474 8.14657
50.7448 8.03053
50.9424 7.92121
51.1402 7.79346
51.3381 7.66526
51.5362 7.56194
51.7344 7.409
51.9328 7.27073
52.1316 7.18553
52.3304 7.02437
52.5293 6.91162
52.7284 6.79986
52.9276 6.69596
53.1271 6.60731
53.3267 6.43286
53.5265 6.35195
53.7264 6.24031
53.9266 6.11401
54.1269 6.08558
54.3274 5.91977
54.528 5.77211
54.7289 5.65538
54.9301 5.50714
55.1314 5.34106
55.3328 5.15959
55.5344 5.00795
55.7361 4.80857