File: XRD/Ni3Fe_FD0992.xy
TT I
1.27165 7.12498
1.45013 6.56086
1.62863 5.04778
1.80712 4.31377
1.98562 4.65251
2.16411 5.33619
2.34263 5.72599
2.52115 7.70425
2.69965 8.9697
2.87818 8.78437
3.05672 11.4202
3.23527 15.4256
3.4138 19.1603
3.59237 24.0872
3.77094 26.0299
3.9495 29.5525
4.12809 34.4675
4.30669 249.119
4.4853 68.3571
4.6639 54.6283
4.84253 65.9516
5.02118 83.8963
5.19981 267.976
5.37848 173.092
5.55716 99.4689
5.73586 89.6424
5.91455 89.7258
6.09328 4558.54
6.27201 81.3684
6.45075 66.1784
6.62952 62.1169
6.8083 57.742
6.98711 55.0167
7.16591 54.6307
7.34475 98.0779
7.5236 54.3118
7.70247 55.3444
7.88135 56.883
8.06026 61.1011
8.23919 68.1628
8.41812 83.1421
8.59709 1109.7
8.77609 96.6531
8.9551 91.0858
9.13412 80.3948
9.31318 80.7814
9.49226 82.5577
9.67134 97.6448
9.85047 97.3063
10.0296 283.788
10.2088 373.44
10.388 102.249
10.5672 530.04
10.7465 84.9036
10.9257 77.212
11.105 70.5317
11.2844 69.5494
11.4637 63.7761
11.6431 62.5044
11.8225 61.2503
12.002 62.0868
12.1814 149.523
12.3609 69.8841
12.5405 63.2832
12.72 69.5258
12.8996 69.4171
13.0792 76.7171
13.2589 223.684
13.4386 121.171
13.6183 238.481
13.7981 94.4727
13.9779 74.2988
14.1577 71.028
14.3376 70.6201
14.5175 67.0734
14.6974 68.705
14.8774 102.681
15.0574 150.082
15.2374 69.9467
15.4175 64.8677
15.5976 64.1606
15.7778 88.6351
15.958 153.793
16.1382 61.774
16.3185 57.7415
16.4988 54.395
16.6792 53.504
16.8596 54.2111
17.04 54.5265
17.2205 64.5215
17.401 68.9877
17.5815 58.1018
17.7622 59.8515
17.9428 69.9043
18.1237 137.968
18.3044 87.9133
18.4852 75.8148
18.666 59.1592
18.8469 56.7515
19.0278 55.6875
19.2088 57.8385
19.3898 75.3194
19.5709 53.0451
19.752 52.1767
19.9332 54.648
20.1144 69.0172
20.2957 62.8538
20.477 52.7037
20.6586 48.6132
20.84 47.8833
21.0215 47.4647
21.203 50.0215
21.3846 47.8103
21.5662 47.6922
21.7479 50.9269
21.9297 63.5607
22.1115 55.2876
22.2933 48.8786
22.4753 47.7884
22.6572 47.6108
22.8393 50.5861
23.0214 56.5745
23.2037 47.7609
23.3859 48.4632
23.5682 56.1631
23.7505 47.3522
23.9329 44.1561
24.1154 43.3977
24.2979 42.5886
24.4805 42.0425
24.6631 41.8856
24.8458 41.2247
25.0286 41.881
25.2114 43.7174
25.3943 43.8464
25.5773 40.04
25.7605 39.5407
25.9436 39.9345
26.1268 40.9709
26.31 39.2105
26.4933 39.9125
26.6767 41.2697
26.8601 39.6766
27.0437 38.0303
27.2272 37.7605
27.4109 37.5792
27.5946 37.6243
27.7784 37.0539
27.9623 37.7165
28.1462 38.0823
28.3304 36.3359
28.5145 35.2522
28.6987 34.9046
28.8829 34.7499
29.0673 33.8191
29.2517 33.6652
29.4361 33.5658
29.6207 32.4774
29.8053 32.0934
29.99 32.0006
30.1748 31.8578
30.3597 31.6091
30.5447 31.5049
30.7297 31.5625
30.915 30.9821
31.1002 30.4426
31.2855 30.2388
31.4708 30.291
31.6563 29.6976
31.8418 29.6001
32.0275 29.354
32.2132 28.8004
32.399 28.4002
32.5848 27.8535
32.7708 27.5589
32.9569 27.5063
33.143 27.1725
33.3293 26.8499
33.5158 26.463
33.7022 26.1159
33.8887 25.8422
34.0753 25.507
34.262 25.152
34.4488 24.7746
34.6357 24.5437
34.8227 24.2301
35.0098 23.958
35.1969 23.7581
35.3842 23.5295
35.5716 23.3583
35.759 23.0457
35.9468 22.5982
36.1345 22.4515
36.3222 22.2114
36.5101 21.9837
36.6981 21.6797
36.8861 21.3851
37.0743 21.1016
37.2626 20.8419
37.451 20.6087
37.6395 20.4369
37.8281 20.0696
38.0168 19.7481
38.2056 19.5264
38.3945 19.2805
38.5837 19.0598
38.7728 18.8634
38.9621 18.6532
39.1514 18.3337
39.3409 18.1349
39.5304 17.8473
39.7201 17.6962
39.9099 17.4894
40.0999 17.2248
40.2899 17.0727
40.48 16.778
40.6703 16.5615
40.8607 16.4629
41.0512 16.252
41.242 15.9299
41.4327 15.7676
41.6236 15.5192
41.8146 15.388
42.0057 15.1515
42.1969 14.9473
42.3882 14.7263
42.5797 14.5532
42.7713 14.3424
42.963 14.1696
43.1549 13.9542
43.3468 13.75
43.5389 13.6207
43.7312 13.3772
43.9237 13.1731
44.1162 13.0074
44.3088 12.8618
44.5016 12.6622
44.6945 12.4906
44.8875 12.3571
45.0806 12.1647
45.2739 11.9683
45.4673 11.8633
45.6609 11.6544
45.8546 11.469
46.0484 11.2892
46.2424 11.1663
46.4365 10.9881
46.631 10.8299
46.8254 10.6407
47.0199 10.5573
47.2146 10.3723
47.4095 10.1732
47.6044 10.0451
47.7996 9.88814
47.9948 9.71237
48.1902 9.62492
48.3858 9.53503
48.5815 9.35595
48.7774 9.25715
48.9734 9.06923
49.1696 8.95959
49.3661 8.77797
49.5626 8.64588
49.7592 8.54222
49.956 8.41688
50.153 8.27991
50.3501 8.17886
50.5474 8.00461
50.7448 7.93637
50.9424 7.7867
51.1402 7.65917
51.3381 7.53192
51.5362 7.39699
51.7344 7.29409
51.9328 7.18196
52.1316 7.0254
52.3304 6.91736
52.5293 6.84214
52.7284 6.75039
52.9276 6.59367
53.1271 6.54653
53.3267 6.40502
53.5265 6.2732
53.7264 6.17596
53.9266 6.07709
54.1269 5.99136
54.3274 5.84
54.528 5.69651
54.7289 5.53617
54.9301 5.38768
55.1314 5.23903
55.3328 5.04349
55.5344 4.8505
55.7361 4.75875