File: XRD/Ni3Fe_FD0932.xy
TT I
1.27165 7.35173
1.45013 6.07795
1.62863 5.16306
1.80712 5.20224
1.98562 4.93454
2.16411 5.19405
2.34263 5.2298
2.52115 7.57448
2.69965 8.66615
2.87818 8.2004
3.05672 11.393
3.23527 15.458
3.4138 19.0583
3.59237 23.3784
3.77094 25.2334
3.9495 29.2559
4.12809 33.9521
4.30669 93.3428
4.4853 52.7588
4.6639 55.0515
4.84253 67.9144
5.02118 86.0489
5.19981 369.999
5.37848 194.393
5.55716 101.1
5.73586 91.8614
5.91455 94.0392
6.09328 4660.85
6.27201 78.5887
6.45075 69.6161
6.62952 62.6991
6.8083 59.5471
6.98711 55.1128
7.16591 55.876
7.34475 64.968
7.5236 53.421
7.70247 56.4486
7.88135 56.7497
8.06026 62.0111
8.23919 68.3663
8.41812 82.0597
8.59709 1205.7
8.77609 95.8157
8.9551 88.8943
9.13412 82.3154
9.31318 84.3947
9.49226 83.7877
9.67134 94.6757
9.85047 100.565
10.0296 329.526
10.2088 325.026
10.388 103.135
10.5672 544.559
10.7465 84.9401
10.9257 77.112
11.105 70.5502
11.2844 67.3151
11.4637 63.8334
11.6431 62.2717
11.8225 61.8571
12.002 63.419
12.1814 159.248
12.3609 65.2837
12.5405 63.9763
12.72 66.981
12.8996 70.5178
13.0792 79.6531
13.2589 245.924
13.4386 114.173
13.6183 259.621
13.7981 91.5301
13.9779 74.6637
14.1577 70.7233
14.3376 69.0971
14.5175 67.7192
14.6974 69.6631
14.8774 110.585
15.0574 136.57
15.2374 68.2978
15.4175 65.5287
15.5976 64.8221
15.7778 93.7209
15.958 145.477
16.1382 60.1464
16.3185 56.9455
16.4988 54.3081
16.6792 53.5412
16.8596 54.013
17.04 55.1348
17.2205 66.2158
17.401 67.6731
17.5815 58.1628
17.7622 60.5099
17.9428 72.3204
18.1237 140.668
18.3044 90.7129
18.4852 72.6752
18.666 59.1702
18.8469 56.9631
19.0278 55.7638
19.2088 58.239
19.3898 74.8964
19.5709 53.0733
19.752 52.2807
19.9332 55.3464
20.1144 69.3977
20.2957 63.8527
20.477 51.9107
20.6586 48.7505
20.84 48.0578
21.0215 47.7644
21.203 50.2999
21.3846 47.8535
21.5662 48.1921
21.7479 51.8834
21.9297 64.199
22.1115 55.4815
22.2933 48.7953
22.4753 47.7808
22.6572 48.212
22.8393 51.1873
23.0214 56.0326
23.2037 48.0668
23.3859 48.995
23.5682 56.8826
23.7505 46.9392
23.9329 44.4777
24.1154 43.2583
24.2979 42.7143
24.4805 42.1452
24.6631 42.0653
24.8458 41.438
25.0286 42.2007
25.2114 43.9243
25.3943 43.7971
25.5773 40.2505
25.7605 39.7483
25.9436 40.2505
26.1268 41.1791
26.31 39.4422
26.4933 40.1554
26.6767 41.5782
26.8601 39.7195
27.0437 38.0957
27.2272 37.9421
27.4109 37.7819
27.5946 37.6978
27.7784 37.2369
27.9623 37.9202
28.1462 38.0642
28.3304 36.5155
28.5145 35.3288
28.6987 34.9581
28.8829 34.6867
29.0673 34.0506
29.2517 33.7656
29.4361 33.5564
29.6207 32.4711
29.8053 32.3536
29.99 31.9394
30.1748 31.9344
30.3597 31.6154
30.5447 31.7591
30.7297 31.6662
30.915 31.073
31.1002 30.6421
31.2855 30.3769
31.4708 30.4699
31.6563 29.7667
31.8418 29.5549
32.0275 29.4137
32.2132 28.9231
32.399 28.5096
32.5848 27.9815
32.7708 27.6432
32.9569 27.6099
33.143 27.3195
33.3293 26.953
33.5158 26.5371
33.7022 26.0562
33.8887 25.9389
34.0753 25.4313
34.262 25.2919
34.4488 24.7619
34.6357 24.5282
34.8227 24.3147
35.0098 24.1741
35.1969 23.8476
35.3842 23.6162
35.5716 23.3055
35.759 23.0749
35.9468 22.7301
36.1345 22.4809
36.3222 22.2969
36.5101 22.0683
36.6981 21.696
36.8861 21.442
37.0743 21.1987
37.2626 20.8774
37.451 20.6174
37.6395 20.5051
37.8281 20.1242
38.0168 19.8697
38.2056 19.6143
38.3945 19.3743
38.5837 19.139
38.7728 18.8217
38.9621 18.6302
39.1514 18.4027
39.3409 18.1705
39.5304 17.9664
39.7201 17.7245
39.9099 17.5157
40.0999 17.2952
40.2899 17.1159
40.48 16.8728
40.6703 16.6298
40.8607 16.4581
41.0512 16.2148
41.242 16.0034
41.4327 15.8299
41.6236 15.593
41.8146 15.4313
42.0057 15.1573
42.1969 14.948
42.3882 14.7675
42.5797 14.5459
42.7713 14.3839
42.963 14.1909
43.1549 13.9698
43.3468 13.7383
43.5389 13.6091
43.7312 13.4114
43.9237 13.2216
44.1162 13.0397
44.3088 12.8381
44.5016 12.6433
44.6945 12.5271
44.8875 12.3606
45.0806 12.1401
45.2739 11.9769
45.4673 11.8312
45.6609 11.6404
45.8546 11.4805
46.0484 11.2952
46.2424 11.1761
46.4365 10.9986
46.631 10.7996
46.8254 10.6824
47.0199 10.5098
47.2146 10.3615
47.4095 10.224
47.6044 10.0664
47.7996 9.91863
47.9948 9.73955
48.1902 9.63809
48.3858 9.47403
48.5815 9.36035
48.7774 9.21596
48.9734 9.10064
49.1696 8.93793
49.3661 8.79943
49.5626 8.65471
49.7592 8.51121
49.956 8.42634
50.153 8.31418
50.3501 8.15059
50.5474 8.02904
50.7448 7.90775
50.9424 7.77242
51.1402 7.67126
51.3381 7.52595
51.5362 7.44343
51.7344 7.30337
51.9328 7.1421
52.1316 7.06272
52.3304 6.94111
52.5293 6.84259
52.7284 6.7286
52.9276 6.59307
53.1271 6.51995
53.3267 6.38649
53.5265 6.31504
53.7264 6.15327
53.9266 6.09192
54.1269 5.95258
54.3274 5.85455
54.528 5.71387
54.7289 5.5412
54.9301 5.35311
55.1314 5.29641
55.3328 5.03528
55.5344 4.85412
55.7361 4.7609