File: XRD/Ni3Fe_FD0756.xy
TT I
1.27165 6.89075
1.45013 5.72771
1.62863 5.26047
1.80712 5.13047
1.98562 4.90483
2.16411 5.1739
2.34263 5.64073
2.52115 6.82771
2.69965 8.1791
2.87818 8.83711
3.05672 11.317
3.23527 15.1696
3.4138 18.8294
3.59237 24.4155
3.77094 26.0408
3.9495 30.029
4.12809 34.934
4.30669 252.667
4.4853 69.1503
4.6639 55.4315
4.84253 66.5023
5.02118 85.4876
5.19981 306.781
5.37848 188.306
5.55716 101.051
5.73586 91.4209
5.91455 92.1325
6.09328 4268.13
6.27201 82.4714
6.45075 67.0649
6.62952 62.5979
6.8083 58.6515
6.98711 55.8081
7.16591 55.0507
7.34475 99.6016
7.5236 54.9884
7.70247 55.9098
7.88135 57.4887
8.06026 61.7997
8.23919 68.9362
8.41812 84.6319
8.59709 1104.32
8.77609 98.4958
8.9551 92.8045
9.13412 81.0937
9.31318 82.2392
9.49226 83.9364
9.67134 99.7243
9.85047 99.0569
10.0296 306.56
10.2088 408.351
10.388 103.969
10.5672 509.103
10.7465 85.9178
10.9257 78.5278
11.105 71.4912
11.2844 70.7483
11.4637 64.4706
11.6431 63.2554
11.8225 61.9364
12.002 63.017
12.1814 148.678
12.3609 71.528
12.5405 64.1763
12.72 70.3149
12.8996 70.304
13.0792 77.9402
13.2589 227.633
13.4386 127.02
13.6183 240.171
13.7981 98.1509
13.9779 75.457
14.1577 72.0206
14.3376 71.7863
14.5175 68.2574
14.6974 69.9326
14.8774 106.146
15.0574 153.091
15.2374 71.2191
15.4175 65.9071
15.5976 65.4952
15.7778 91.6218
15.958 158.016
16.1382 62.7729
16.3185 58.4946
16.4988 55.2552
16.6792 54.1996
16.8596 55.2137
17.04 55.2957
17.2205 65.6048
17.401 70.9237
17.5815 58.766
17.7622 60.9306
17.9428 72.0241
18.1237 138.441
18.3044 89.1313
18.4852 78.0736
18.666 60.0697
18.8469 57.7315
19.0278 56.4517
19.2088 58.9402
19.3898 76.7625
19.5709 53.9738
19.752 52.948
19.9332 55.5895
20.1144 69.4066
20.2957 63.3886
20.477 53.6694
20.6586 49.3147
20.84 48.5191
21.0215 48.0859
21.203 50.4446
21.3846 48.783
21.5662 48.3554
21.7479 51.9778
21.9297 64.2911
22.1115 55.7122
22.2933 49.5821
22.4753 48.5687
22.6572 48.3715
22.8393 51.4677
23.0214 57.388
23.2037 48.5296
23.3859 49.2868
23.5682 56.759
23.7505 48.2717
23.9329 45.124
24.1154 43.9305
24.2979 43.1766
24.4805 42.6805
24.6631 42.5789
24.8458 41.9931
25.0286 42.5175
25.2114 44.4693
25.3943 44.4178
25.5773 40.728
25.7605 40.1379
25.9436 40.59
26.1268 41.5565
26.31 39.834
26.4933 40.5433
26.6767 41.9447
26.8601 40.199
27.0437 38.7535
27.2272 38.239
27.4109 38.0806
27.5946 38.1758
27.7784 37.6497
27.9623 38.0966
28.1462 38.5613
28.3304 37.1491
28.5145 35.7949
28.6987 35.4053
28.8829 35.2841
29.0673 34.5512
29.2517 34.1549
29.4361 34.0436
29.6207 32.8645
29.8053 32.7936
29.99 32.3136
30.1748 32.2112
30.3597 32.0916
30.5447 31.9448
30.7297 32.1173
30.915 31.45
31.1002 30.9434
31.2855 30.6792
31.4708 30.6122
31.6563 30.1863
31.8418 30.0897
32.0275 29.842
32.2132 29.1952
32.399 28.7954
32.5848 28.3465
32.7708 28.0015
32.9569 27.8615
33.143 27.6911
33.3293 27.3249
33.5158 26.8625
33.7022 26.5183
33.8887 26.214
34.0753 25.9845
34.262 25.5235
34.4488 25.1764
34.6357 24.9017
34.8227 24.5829
35.0098 24.3426
35.1969 24.0541
35.3842 23.8871
35.5716 23.7009
35.759 23.3793
35.9468 23.0243
36.1345 22.8294
36.3222 22.5335
36.5101 22.3235
36.6981 22.0868
36.8861 21.6599
37.0743 21.3843
37.2626 21.1612
37.451 20.8474
37.6395 20.7917
37.8281 20.3849
38.0168 20.0686
38.2056 19.8831
38.3945 19.6469
38.5837 19.3286
38.7728 19.0701
38.9621 18.8913
39.1514 18.6367
39.3409 18.4117
39.5304 18.1382
39.7201 17.976
39.9099 17.7354
40.0999 17.5202
40.2899 17.3
40.48 17.0565
40.6703 16.8239
40.8607 16.7157
41.0512 16.4378
41.242 16.1113
41.4327 16.016
41.6236 15.764
41.8146 15.5526
42.0057 15.3558
42.1969 15.15
42.3882 14.9801
42.5797 14.7311
42.7713 14.5731
42.963 14.3399
43.1549 14.1399
43.3468 13.9659
43.5389 13.7915
43.7312 13.5311
43.9237 13.4132
44.1162 13.205
44.3088 13.0055
44.5016 12.8278
44.6945 12.7112
44.8875 12.5912
45.0806 12.3123
45.2739 12.165
45.4673 11.9958
45.6609 11.8054
45.8546 11.6621
46.0484 11.4948
46.2424 11.331
46.4365 11.2155
46.631 10.9844
46.8254 10.8282
47.0199 10.6634
47.2146 10.5111
47.4095 10.3679
47.6044 10.196
47.7996 10.0569
47.9948 9.92125
48.1902 9.7611
48.3858 9.62174
48.5815 9.4771
48.7774 9.4059
48.9734 9.21381
49.1696 9.11708
49.3661 8.94688
49.5626 8.75375
49.7592 8.68231
49.956 8.57828
50.153 8.42597
50.3501 8.28349
50.5474 8.17373
50.7448 8.04501
50.9424 7.90851
51.1402 7.79748
51.3381 7.67427
51.5362 7.51888
51.7344 7.3951
51.9328 7.28959
52.1316 7.13717
52.3304 7.04203
52.5293 6.95977
52.7284 6.79385
52.9276 6.6751
53.1271 6.60985
53.3267 6.52193
53.5265 6.31634
53.7264 6.23019
53.9266 6.15035
54.1269 6.00057
54.3274 5.90125
54.528 5.79104
54.7289 5.60494
54.9301 5.41647
55.1314 5.34658
55.3328 5.14825
55.5344 4.94939
55.7361 4.77709