File: XRD/Ni3Fe_FD0588.xy
TT I
1.27165 7.5979
1.45013 6.37947
1.62863 5.63444
1.80712 5.26346
1.98562 4.81821
2.16411 4.87886
2.34263 5.40993
2.52115 6.57565
2.69965 7.81616
2.87818 8.5742
3.05672 11.0405
3.23527 15.2384
3.4138 18.9168
3.59237 23.1059
3.77094 25.8747
3.9495 29.589
4.12809 34.4128
4.30669 114.109
4.4853 55.9153
4.6639 56.0274
4.84253 68.9649
5.02118 88.4609
5.19981 479.966
5.37848 202.133
5.55716 103.823
5.73586 94.1508
5.91455 97.7379
6.09328 4411.66
6.27201 82.0263
6.45075 69.0566
6.62952 63.2528
6.8083 59.2512
6.98711 56.2531
7.16591 55.9457
7.34475 70.4524
7.5236 54.6509
7.70247 57.0322
7.88135 57.8834
8.06026 62.9427
8.23919 69.7632
8.41812 85.5653
8.59709 1255.47
8.77609 100.034
8.9551 89.3558
9.13412 83.3556
9.31318 84.5313
9.49226 85.7259
9.67134 95.7187
9.85047 102.034
10.0296 382.692
10.2088 370.537
10.388 106.953
10.5672 516.509
10.7465 87.0699
10.9257 78.5493
11.105 72.1531
11.2844 69.2404
11.4637 64.9587
11.6431 63.8413
11.8225 62.8746
12.002 64.9143
12.1814 156.053
12.3609 67.6974
12.5405 65.0908
12.72 68.6737
12.8996 71.8805
13.0792 81.5224
13.2589 254.073
13.4386 121.44
13.6183 255.218
13.7981 96.883
13.9779 76.3492
14.1577 72.5238
14.3376 71.0886
14.5175 69.34
14.6974 71.455
14.8774 116.464
15.0574 143.672
15.2374 70.3866
15.4175 66.9673
15.5976 66.5794
15.7778 99.3182
15.958 149.857
16.1382 62.0972
16.3185 58.3562
16.4988 55.7717
16.6792 54.8408
16.8596 55.6439
17.04 56.746
17.2205 67.9197
17.401 70.9382
17.5815 59.7943
17.7622 61.9865
17.9428 75.7663
18.1237 141.812
18.3044 92.2701
18.4852 76.5141
18.666 60.7817
18.8469 58.3835
19.0278 57.3722
19.2088 60.1202
19.3898 75.8964
19.5709 54.7112
19.752 53.7495
19.9332 57.0596
20.1144 70.1402
20.2957 64.3306
20.477 53.5517
20.6586 49.9426
20.84 49.1447
21.0215 49.0148
21.203 51.2659
21.3846 49.4432
21.5662 49.518
21.7479 53.409
21.9297 64.9982
22.1115 56.3034
22.2933 49.9372
22.4753 49.0201
22.6572 49.4182
22.8393 52.6782
23.0214 57.4526
23.2037 49.1881
23.3859 50.4995
23.5682 57.2325
23.7505 48.3107
23.9329 45.3831
24.1154 44.3602
24.2979 43.6793
24.4805 43.183
24.6631 43.017
24.8458 42.4097
25.0286 43.2271
25.2114 44.9045
25.3943 44.9286
25.5773 41.2241
25.7605 40.8815
25.9436 41.1859
26.1268 41.8883
26.31 40.4177
26.4933 41.1504
26.6767 42.4663
26.8601 40.7562
27.0437 39.0511
27.2272 38.8159
27.4109 38.6583
27.5946 38.7235
27.7784 38.0643
27.9623 38.7003
28.1462 38.9829
28.3304 37.3435
28.5145 36.0908
28.6987 35.7669
28.8829 35.6332
29.0673 34.7805
29.2517 34.5353
29.4361 34.3943
29.6207 33.3506
29.8053 33.0974
29.99 32.7791
30.1748 32.6129
30.3597 32.4258
30.5447 32.3965
30.7297 32.3876
30.915 31.8148
31.1002 31.2674
31.2855 31.1022
31.4708 31.0213
31.6563 30.5123
31.8418 30.3029
32.0275 30.0055
32.2132 29.5032
32.399 29.0906
32.5848 28.6806
32.7708 28.3889
32.9569 28.2604
33.143 27.9801
33.3293 27.5679
33.5158 27.2017
33.7022 26.847
33.8887 26.4596
34.0753 26.2398
34.262 25.8358
34.4488 25.4648
34.6357 25.1121
34.8227 24.8064
35.0098 24.6223
35.1969 24.3991
35.3842 24.0883
35.5716 23.8831
35.759 23.5992
35.9468 23.2995
36.1345 23.0357
36.3222 22.8122
36.5101 22.5287
36.6981 22.2342
36.8861 21.9552
37.0743 21.6315
37.2626 21.4144
37.451 21.0947
37.6395 21.0102
37.8281 20.6138
38.0168 20.3396
38.2056 20.0987
38.3945 19.7786
38.5837 19.575
38.7728 19.3376
38.9621 19.1179
39.1514 18.8438
39.3409 18.5736
39.5304 18.3177
39.7201 18.151
39.9099 17.9092
40.0999 17.6727
40.2899 17.4866
40.48 17.2129
40.6703 17.0342
40.8607 16.8711
41.0512 16.6203
41.242 16.3725
41.4327 16.1558
41.6236 15.9203
41.8146 15.8037
42.0057 15.487
42.1969 15.3123
42.3882 15.1198
42.5797 14.8931
42.7713 14.683
42.963 14.4691
43.1549 14.2899
43.3468 14.0706
43.5389 13.8826
43.7312 13.6587
43.9237 13.5124
44.1162 13.2947
44.3088 13.1268
44.5016 12.9824
44.6945 12.8079
44.8875 12.6499
45.0806 12.4561
45.2739 12.2009
45.4673 12.1059
45.6609 11.9006
45.8546 11.7385
46.0484 11.6159
46.2424 11.4138
46.4365 11.2853
46.631 11.125
46.8254 10.9225
47.0199 10.7584
47.2146 10.591
47.4095 10.4408
47.6044 10.2974
47.7996 10.1761
47.9948 10.0133
48.1902 9.83095
48.3858 9.71616
48.5815 9.6014
48.7774 9.42959
48.9734 9.33667
49.1696 9.11204
49.3661 9.00453
49.5626 8.86231
49.7592 8.74979
49.956 8.62964
50.153 8.49478
50.3501 8.39083
50.5474 8.19722
50.7448 8.07752
50.9424 7.97267
51.1402 7.86257
51.3381 7.70536
51.5362 7.59515
51.7344 7.45797
51.9328 7.32921
52.1316 7.20865
52.3304 7.09547
52.5293 7.02488
52.7284 6.89197
52.9276 6.76077
53.1271 6.65934
53.3267 6.52206
53.5265 6.41341
53.7264 6.32127
53.9266 6.18812
54.1269 6.08004
54.3274 5.95826
54.528 5.83385
54.7289 5.68285
54.9301 5.53366
55.1314 5.36514
55.3328 5.15571
55.5344 5.0226
55.7361 4.84453