File: XRD/Ni3Fe_FD0712.xy
TT I
1.27165 7.11502
1.45013 6.237
1.62863 5.02639
1.80712 5.09551
1.98562 4.69378
2.16411 4.13874
2.34263 5.52088
2.52115 7.19009
2.69965 7.48593
2.87818 8.57992
3.05672 10.6674
3.23527 15.2136
3.4138 18.6181
3.59237 22.8619
3.77094 25.3154
3.9495 29.1185
4.12809 33.5643
4.30669 100.59
4.4853 53.4297
4.6639 55.5089
4.84253 68.2717
5.02118 87.5936
5.19981 430.736
5.37848 198.666
5.55716 102.378
5.73586 93.0241
5.91455 95.6874
6.09328 4605.99
6.27201 80.4907
6.45075 70.2173
6.62952 62.8931
6.8083 59.4427
6.98711 55.1153
7.16591 56.48
7.34475 66.6625
7.5236 53.8832
7.70247 56.4387
7.88135 57.3386
8.06026 62.8275
8.23919 69.3297
8.41812 83.8696
8.59709 1247.45
8.77609 97.8365
8.9551 89.5044
9.13412 83.1319
9.31318 84.8693
9.49226 84.6695
9.67134 95.4333
9.85047 101.74
10.0296 364.899
10.2088 360.99
10.388 105.707
10.5672 517.995
10.7465 86.6552
10.9257 77.8848
11.105 71.1386
11.2844 68.4514
11.4637 64.3973
11.6431 63.0666
11.8225 62.4928
12.002 64.4095
12.1814 155.365
12.3609 66.7522
12.5405 64.7787
12.72 67.4399
12.8996 71.3494
13.0792 80.5877
13.2589 250.567
13.4386 121.073
13.6183 260.824
13.7981 94.1353
13.9779 75.6352
14.1577 71.7999
14.3376 70.2334
14.5175 68.8849
14.6974 70.7212
14.8774 114.56
15.0574 140.283
15.2374 69.5614
15.4175 66.3349
15.5976 65.903
15.7778 97.5777
15.958 148.128
16.1382 61.1373
16.3185 57.6562
16.4988 55.2105
16.6792 54.2031
16.8596 54.8762
17.04 56.0524
17.2205 67.5495
17.401 69.684
17.5815 59.1835
17.7622 61.3638
17.9428 74.7851
18.1237 142.001
18.3044 91.476
18.4852 74.8891
18.666 60.1208
18.8469 58.0386
19.0278 56.696
19.2088 59.3225
19.3898 75.9777
19.5709 53.8345
19.752 53.2564
19.9332 56.5071
20.1144 69.4949
20.2957 64.0754
20.477 52.7695
20.6586 49.3868
20.84 48.6578
21.0215 48.6577
21.203 50.8592
21.3846 48.882
21.5662 48.9453
21.7479 52.8791
21.9297 65.119
22.1115 55.8185
22.2933 49.5426
22.4753 48.7138
22.6572 48.8578
22.8393 52.2147
23.0214 56.9796
23.2037 48.6859
23.3859 49.6115
23.5682 57.3964
23.7505 47.9528
23.9329 45.1717
24.1154 43.9396
24.2979 43.138
24.4805 42.8206
24.6631 42.5504
24.8458 41.9784
25.0286 42.8668
25.2114 44.6235
25.3943 44.4946
25.5773 40.7289
25.7605 40.2221
25.9436 40.8507
26.1268 41.6419
26.31 40.0225
26.4933 40.7382
26.6767 42.188
26.8601 40.2708
27.0437 38.8565
27.2272 38.4985
27.4109 38.2728
27.5946 38.244
27.7784 37.7956
27.9623 38.3075
28.1462 38.6661
28.3304 37.0178
28.5145 35.8585
28.6987 35.5344
28.8829 35.2873
29.0673 34.4999
29.2517 34.3096
29.4361 34.0194
29.6207 33.1156
29.8053 32.7444
29.99 32.4688
30.1748 32.4134
30.3597 32.2143
30.5447 32.0857
30.7297 32.1305
30.915 31.5062
31.1002 31.0112
31.2855 30.7372
31.4708 30.7752
31.6563 30.1773
31.8418 30.0585
32.0275 29.8065
32.2132 29.3119
32.399 28.8285
32.5848 28.4227
32.7708 28.1024
32.9569 27.9644
33.143 27.7851
33.3293 27.3212
33.5158 26.8317
33.7022 26.5199
33.8887 26.3003
34.0753 25.8303
34.262 25.5938
34.4488 25.0931
34.6357 24.8646
34.8227 24.6357
35.0098 24.3603
35.1969 24.0711
35.3842 24.011
35.5716 23.7415
35.759 23.4434
35.9468 23.1006
36.1345 22.8117
36.3222 22.6158
36.5101 22.354
36.6981 22.0195
36.8861 21.7337
37.0743 21.4452
37.2626 21.2073
37.451 20.9477
37.6395 20.7596
37.8281 20.3822
38.0168 20.1337
38.2056 19.8973
38.3945 19.5846
38.5837 19.4496
38.7728 19.0825
38.9621 18.9249
39.1514 18.6357
39.3409 18.4061
39.5304 18.1827
39.7201 18.0276
39.9099 17.7251
40.0999 17.5111
40.2899 17.3219
40.48 17.0403
40.6703 16.8156
40.8607 16.6837
41.0512 16.4598
41.242 16.2373
41.4327 16.0476
41.6236 15.7396
41.8146 15.6034
42.0057 15.3647
42.1969 15.168
42.3882 15.0027
42.5797 14.7272
42.7713 14.5457
42.963 14.3783
43.1549 14.1587
43.3468 13.9588
43.5389 13.7742
43.7312 13.5662
43.9237 13.4063
44.1162 13.2035
44.3088 13.006
44.5016 12.8271
44.6945 12.6554
44.8875 12.5424
45.0806 12.3253
45.2739 12.1825
45.4673 11.9876
45.6609 11.8347
45.8546 11.6511
46.0484 11.5033
46.2424 11.3196
46.4365 11.1778
46.631 11.0104
46.8254 10.8252
47.0199 10.6662
47.2146 10.5138
47.4095 10.3222
47.6044 10.1551
47.7996 10.0466
47.9948 9.88948
48.1902 9.75596
48.3858 9.62993
48.5815 9.49788
48.7774 9.34142
48.9734 9.23877
49.1696 9.0133
49.3661 8.92849
49.5626 8.75649
49.7592 8.6797
49.956 8.573
50.153 8.39468
50.3501 8.23766
50.5474 8.13097
50.7448 8.04143
50.9424 7.87011
51.1402 7.78838
51.3381 7.62354
51.5362 7.53487
51.7344 7.40841
51.9328 7.29388
52.1316 7.13893
52.3304 7.0362
52.5293 6.93037
52.7284 6.81261
52.9276 6.69088
53.1271 6.59887
53.3267 6.48229
53.5265 6.36314
53.7264 6.26969
53.9266 6.10302
54.1269 6.05421
54.3274 5.92562
54.528 5.75934
54.7289 5.62099
54.9301 5.4532
55.1314 5.31041
55.3328 5.1037
55.5344 4.96332
55.7361 4.80268