File: XRD/Ni3Fe_FD0052.xy
TT I
1.27165 33.0728
1.45013 26.4982
1.62863 23.3931
1.80712 21.2653
1.98562 20.9972
2.16411 20.2957
2.34263 20.7121
2.52115 22.0127
2.69965 25.9705
2.87818 36.2124
3.05672 63.9577
3.23527 66.8015
3.4138 34.6526
3.59237 26.7598
3.77094 26.1569
3.9495 26.6041
4.12809 29.4245
4.30669 37.4943
4.4853 37.5018
4.6639 42.222
4.84253 54.4907
5.02118 103.96
5.19981 312.756
5.37848 3148.91
5.55716 151.105
5.73586 103.182
5.91455 118.825
6.09328 568.404
6.27201 220.051
6.45075 64.4044
6.62952 47.3338
6.8083 41.6565
6.98711 40.7244
7.16591 43.5694
7.34475 39.1699
7.5236 59.5229
7.70247 44.0895
7.88135 38.6917
8.06026 40.7519
8.23919 46.3721
8.41812 59.1889
8.59709 185.247
8.77609 371.553
8.9551 74.6289
9.13412 65.2441
9.31318 327.676
9.49226 58.9873
9.67134 57.4561
9.85047 63.6557
10.0296 119.237
10.2088 686.264
10.388 100.025
10.5672 98.3676
10.7465 199.365
10.9257 51.7802
11.105 44.9812
11.2844 42.9557
11.4637 39.9315
11.6431 39.2391
11.8225 39.9301
12.002 115.182
12.1814 50.3018
12.3609 85.3713
12.5405 42.6747
12.72 39.9822
12.8996 41.5377
13.0792 47.8026
13.2589 68.6394
13.4386 189.017
13.6183 80.5915
13.7981 184.261
13.9779 54.8425
14.1577 64.4561
14.3376 46.8087
14.5175 41.9898
14.6974 41.4388
14.8774 48.8348
15.0574 77.2773
15.2374 60.8055
15.4175 42.1976
15.5976 40.6423
15.7778 45.7819
15.958 64.6831
16.1382 80.6331
16.3185 38.4897
16.4988 34.9834
16.6792 34.0456
16.8596 33.9782
17.04 42.3108
17.2205 35.8496
17.401 40.8472
17.5815 39.5338
17.7622 38.2269
17.9428 41.1921
18.1237 45.8714
18.3044 82.2774
18.4852 56.3291
18.666 49.1136
18.8469 37.4471
19.0278 35.5716
19.2088 35.8223
19.3898 47.2511
19.5709 44.6017
19.752 34.4427
19.9332 33.5402
20.1144 34.4105
20.2957 42.9054
20.477 39.4498
20.6586 33.5633
20.84 35.0008
21.0215 30.6978
21.203 30.202
21.3846 31.2729
21.5662 31.764
21.7479 30.9878
21.9297 32.4237
22.1115 41.1175
22.2933 37.6318
22.4753 31.8578
22.6572 30.7486
22.8393 32.1591
23.0214 31.8996
23.2037 37.4256
23.3859 31.8142
23.5682 33.4805
23.7505 35.8392
23.9329 31.7493
24.1154 29.5579
24.2979 27.944
24.4805 27.4641
24.6631 27.771
24.8458 27.644
25.0286 26.8884
25.2114 27.1797
25.3943 28.6225
25.5773 29.1794
25.7605 26.5373
25.9436 26.7923
26.1268 26.0351
26.31 26.9677
26.4933 26.0489
26.6767 25.9868
26.8601 27.5869
27.0437 27.5878
27.2272 25.5033
27.4109 24.877
27.5946 24.9439
27.7784 25.1673
27.9623 24.6358
28.1462 25.354
28.3304 25.8096
28.5145 24.7956
28.6987 23.6765
28.8829 22.9537
29.0673 22.919
29.2517 22.6933
29.4361 22.1102
29.6207 22.1864
29.8053 21.6983
29.99 21.4082
30.1748 21.5119
30.3597 21.1444
30.5447 21.1067
30.7297 20.8882
30.915 21.1022
31.1002 21.1981
31.2855 20.577
31.4708 20.2682
31.6563 20.389
31.8418 20.2427
32.0275 19.8532
32.2132 19.9274
32.399 19.5638
32.5848 19.1535
32.7708 18.8224
32.9569 18.7023
33.143 18.4758
33.3293 18.1982
33.5158 18.3237
33.7022 17.921
33.8887 17.6019
34.0753 17.3463
34.262 17.227
34.4488 16.9575
34.6357 16.8825
34.8227 16.6003
35.0098 16.3685
35.1969 16.2075
35.3842 16.0437
35.5716 15.9313
35.759 16.0056
35.9468 15.6979
36.1345 15.5032
36.3222 15.3067
36.5101 15.2597
36.6981 15.0305
36.8861 14.8444
37.0743 14.5503
37.2626 14.4007
37.451 14.2324
37.6395 14.1237
37.8281 13.9629
38.0168 13.7597
38.2056 13.5982
38.3945 13.3544
38.5837 13.2662
38.7728 13.1022
38.9621 12.9414
39.1514 12.7929
39.3409 12.6249
39.5304 12.4995
39.7201 12.3059
39.9099 12.1738
40.0999 12.0422
40.2899 11.8753
40.48 11.7101
40.6703 11.6246
40.8607 11.4904
41.0512 11.3415
41.242 11.1645
41.4327 11.0836
41.6236 10.9095
41.8146 10.7952
42.0057 10.6268
42.1969 10.4876
42.3882 10.382
42.5797 10.2201
42.7713 10.108
42.963 9.92084
43.1549 9.82781
43.3468 9.70504
43.5389 9.57166
43.7312 9.41092
43.9237 9.30149
44.1162 9.21576
44.3088 9.07016
44.5016 8.97419
44.6945 8.87056
44.8875 8.71264
45.0806 8.58983
45.2739 8.49805
45.4673 8.3703
45.6609 8.25746
45.8546 8.17315
46.0484 8.08442
46.2424 7.98803
46.4365 7.83534
46.631 7.69269
46.8254 7.56668
47.0199 7.50435
47.2146 7.43277
47.4095 7.2643
47.6044 7.18063
47.7996 7.09274
47.9948 6.9343
48.1902 6.87365
48.3858 6.78872
48.5815 6.66808
48.7774 6.60401
48.9734 6.49893
49.1696 6.44448
49.3661 6.28935
49.5626 6.22414
49.7592 6.14889
49.956 6.06042
50.153 5.95277
50.3501 5.87556
50.5474 5.81278
50.7448 5.74605
50.9424 5.64146
51.1402 5.53139
51.3381 5.46045
51.5362 5.38581
51.7344 5.26778
51.9328 5.21791
52.1316 5.11253
52.3304 5.05811
52.5293 4.94856
52.7284 4.906
52.9276 4.82147
53.1271 4.74783
53.3267 4.69163
53.5265 4.56141
53.7264 4.47749
53.9266 4.42001
54.1269 4.32313
54.3274 4.23178
54.528 4.08513
54.7289 3.97526
54.9301 3.82893
55.1314 3.77011
55.3328 3.56603
55.5344 3.41948
55.7361 3.40254