File: XRD/Ni3Fe_FD0709.xy
TT I
1.27165 7.28966
1.45013 6.56241
1.62863 5.80464
1.80712 4.80949
1.98562 4.1536
2.16411 4.41601
2.34263 5.23366
2.52115 6.84375
2.69965 8.24357
2.87818 8.79335
3.05672 11.4537
3.23527 14.8512
3.4138 18.4217
3.59237 23.3624
3.77094 25.6396
3.9495 29.4009
4.12809 33.7799
4.30669 102.863
4.4853 53.2063
4.6639 55.6039
4.84253 68.2038
5.02118 87.904
5.19981 434.717
5.37848 196.434
5.55716 102.791
5.73586 93.5398
5.91455 96.4579
6.09328 4630.53
6.27201 80.5452
6.45075 69.646
6.62952 62.9069
6.8083 59.4584
6.98711 55.3123
7.16591 55.599
7.34475 67.7532
7.5236 54.0512
7.70247 56.5827
7.88135 57.4742
8.06026 62.7046
8.23919 69.211
8.41812 84.0911
8.59709 1260.17
8.77609 97.9554
8.9551 89.3803
9.13412 83.0403
9.31318 84.7583
9.49226 84.8077
9.67134 95.393
9.85047 101.852
10.0296 367.872
10.2088 354.37
10.388 105.924
10.5672 520.388
10.7465 86.5212
10.9257 78.0175
11.105 71.3305
11.2844 68.5471
11.4637 64.4753
11.6431 63.5665
11.8225 62.5931
12.002 64.6122
12.1814 156.724
12.3609 67.0752
12.5405 64.8025
12.72 68.0876
12.8996 71.4025
13.0792 80.838
13.2589 251.432
13.4386 120.482
13.6183 260.724
13.7981 93.8675
13.9779 75.8881
14.1577 71.9294
14.3376 70.2788
14.5175 68.8295
14.6974 70.7888
14.8774 114.777
15.0574 138.729
15.2374 69.5455
15.4175 66.4033
15.5976 65.8541
15.7778 97.5383
15.958 147.867
16.1382 61.3096
16.3185 57.8133
16.4988 55.2202
16.6792 54.3445
16.8596 54.705
17.04 56.0914
17.2205 67.6178
17.401 69.3345
17.5815 59.2138
17.7622 61.1611
17.9428 74.34
18.1237 141.675
18.3044 91.6268
18.4852 74.5551
18.666 60.1639
18.8469 57.9265
19.0278 56.6291
19.2088 59.3121
19.3898 76.0354
19.5709 53.8169
19.752 53.2933
19.9332 56.3246
20.1144 69.7078
20.2957 64.1089
20.477 52.8652
20.6586 49.5538
20.84 48.6875
21.0215 48.4618
21.203 50.9503
21.3846 48.8277
21.5662 49.1504
21.7479 52.988
21.9297 64.817
22.1115 55.9735
22.2933 49.5915
22.4753 48.4842
22.6572 48.898
22.8393 52.2029
23.0214 57.0984
23.2037 48.7334
23.3859 49.7884
23.5682 57.1971
23.7505 47.7288
23.9329 45.1515
24.1154 43.8895
24.2979 43.3738
24.4805 42.9677
24.6631 42.7845
24.8458 42.2442
25.0286 42.8781
25.2114 44.7059
25.3943 44.3463
25.5773 40.8477
25.7605 40.3502
25.9436 40.7565
26.1268 41.6501
26.31 39.9512
26.4933 40.7572
26.6767 42.1005
26.8601 40.2035
27.0437 38.8171
27.2272 38.5152
27.4109 38.3587
27.5946 38.2948
27.7784 37.9344
27.9623 38.364
28.1462 38.7024
28.3304 37.0532
28.5145 35.7809
28.6987 35.4421
28.8829 35.3985
29.0673 34.6175
29.2517 34.3228
29.4361 34.1261
29.6207 33.0026
29.8053 32.7735
29.99 32.5614
30.1748 32.3335
30.3597 32.1677
30.5447 32.1257
30.7297 32.2268
30.915 31.4987
31.1002 31.1231
31.2855 30.761
31.4708 30.8173
31.6563 30.2832
31.8418 30.1311
32.0275 29.849
32.2132 29.3604
32.399 28.9276
32.5848 28.4094
32.7708 28.2002
32.9569 28.0128
33.143 27.8386
33.3293 27.342
33.5158 26.9654
33.7022 26.5072
33.8887 26.2374
34.0753 25.9653
34.262 25.5945
34.4488 25.286
34.6357 24.9686
34.8227 24.6531
35.0098 24.4294
35.1969 24.1211
35.3842 23.9502
35.5716 23.7774
35.759 23.4465
35.9468 23.08
36.1345 22.8624
36.3222 22.5343
36.5101 22.4439
36.6981 22.0737
36.8861 21.745
37.0743 21.4786
37.2626 21.1934
37.451 21.0043
37.6395 20.7725
37.8281 20.4582
38.0168 20.125
38.2056 19.9809
38.3945 19.6404
38.5837 19.3604
38.7728 19.1272
38.9621 18.8955
39.1514 18.6667
39.3409 18.4072
39.5304 18.1272
39.7201 17.9886
39.9099 17.8303
40.0999 17.5159
40.2899 17.3337
40.48 17.0579
40.6703 16.9235
40.8607 16.6543
41.0512 16.4689
41.242 16.2007
41.4327 16.0167
41.6236 15.7742
41.8146 15.5879
42.0057 15.3691
42.1969 15.1794
42.3882 14.9992
42.5797 14.8156
42.7713 14.5852
42.963 14.4308
43.1549 14.1472
43.3468 13.978
43.5389 13.8276
43.7312 13.5758
43.9237 13.4433
44.1162 13.2071
44.3088 13.0584
44.5016 12.845
44.6945 12.7243
44.8875 12.4873
45.0806 12.3305
45.2739 12.1365
45.4673 12.0326
45.6609 11.8507
45.8546 11.6782
46.0484 11.5212
46.2424 11.3192
46.4365 11.1616
46.631 10.9735
46.8254 10.8335
47.0199 10.6762
47.2146 10.4993
47.4095 10.3789
47.6044 10.2291
47.7996 10.0019
47.9948 9.90936
48.1902 9.76182
48.3858 9.6096
48.5815 9.51017
48.7774 9.32131
48.9734 9.23013
49.1696 9.09905
49.3661 8.94894
49.5626 8.79843
49.7592 8.65811
49.956 8.53643
50.153 8.39652
50.3501 8.25039
50.5474 8.15888
50.7448 8.02052
50.9424 7.92518
51.1402 7.8025
51.3381 7.66627
51.5362 7.53496
51.7344 7.41291
51.9328 7.29618
52.1316 7.14954
52.3304 7.04298
52.5293 6.92025
52.7284 6.83694
52.9276 6.67354
53.1271 6.5862
53.3267 6.45675
53.5265 6.39829
53.7264 6.28434
53.9266 6.16508
54.1269 6.04092
54.3274 5.93382
54.528 5.83793
54.7289 5.61198
54.9301 5.46324
55.1314 5.34796
55.3328 5.11904
55.5344 4.90771
55.7361 4.79517