File: XRD/Ni3Fe_FD0322.xy
TT I
1.27165 7.76701
1.45013 6.60104
1.62863 5.18727
1.80712 5.03128
1.98562 4.70626
2.16411 4.53747
2.34263 4.72361
2.52115 6.16286
2.69965 7.05835
2.87818 8.52604
3.05672 11.3096
3.23527 15.3146
3.4138 18.959
3.59237 24.2312
3.77094 26.6885
3.9495 30.3991
4.12809 35.2553
4.30669 202.948
4.4853 65.2551
4.6639 56.9443
4.84253 68.9615
5.02118 91.789
5.19981 532.269
5.37848 231.277
5.55716 106.548
5.73586 95.9873
5.91455 101.498
6.09328 3923.15
6.27201 87.3739
6.45075 69.6958
6.62952 64.881
6.8083 60.1819
6.98711 57.906
7.16591 57.0861
7.34475 89.6916
7.5236 56.4524
7.70247 57.8518
7.88135 59.6777
8.06026 64.409
8.23919 71.8366
8.41812 89.0762
8.59709 1135.93
8.77609 105.497
8.9551 93.7598
9.13412 84.7585
9.31318 85.8826
9.49226 87.4678
9.67134 101.424
9.85047 103.567
10.0296 408.03
10.2088 495.212
10.388 109.489
10.5672 479.345
10.7465 89.8106
10.9257 80.5904
11.105 74.0393
11.2844 72.6634
11.4637 66.9485
11.6431 65.5166
11.8225 64.6886
12.002 66.2466
12.1814 149.651
12.3609 72.8371
12.5405 66.5942
12.72 71.8698
12.8996 73.3482
13.0792 82.0628
13.2589 237.661
13.4386 134.551
13.6183 236.718
13.7981 104.067
13.9779 78.1982
14.1577 74.8182
14.3376 73.7569
14.5175 71.0943
14.6974 72.7384
14.8774 115.886
15.0574 159.251
15.2374 72.8107
15.4175 68.3015
15.5976 68.0912
15.7778 100.053
15.958 167.794
16.1382 64.7904
16.3185 60.7311
16.4988 57.3522
16.6792 56.2632
16.8596 57.1265
17.04 57.9062
17.2205 68.8149
17.401 74.5377
17.5815 61.2141
17.7622 63.2853
17.9428 77.8402
18.1237 139.629
18.3044 91.0584
18.4852 81.0072
18.666 62.313
18.8469 59.8493
19.0278 58.7612
19.2088 61.8369
19.3898 77.6179
19.5709 56.1566
19.752 55.0213
19.9332 58.4321
20.1144 71.2709
20.2957 64.49
20.477 55.6531
20.6586 51.077
20.84 50.3419
21.0215 50.3403
21.203 52.0935
21.3846 50.7796
21.5662 50.5119
21.7479 54.5018
21.9297 66.4534
22.1115 57.4378
22.2933 51.733
22.4753 50.5816
22.6572 50.6225
22.8393 53.3931
23.0214 59.2477
23.2037 50.4615
23.3859 51.51
23.5682 57.705
23.7505 50.1122
23.9329 46.734
24.1154 45.5276
24.2979 44.9145
24.4805 44.2291
24.6631 44.2216
24.8458 43.543
25.0286 44.3599
25.2114 45.973
25.3943 46.1581
25.5773 42.3342
25.7605 41.6243
25.9436 42.3153
26.1268 42.9329
26.31 41.5615
26.4933 41.9869
26.6767 43.4648
26.8601 41.7212
27.0437 40.1919
27.2272 39.8027
27.4109 39.619
27.5946 39.5553
27.7784 39.0728
27.9623 39.5249
28.1462 40.0445
28.3304 38.3835
28.5145 37.2605
28.6987 36.6635
28.8829 36.5033
29.0673 35.7609
29.2517 35.3778
29.4361 35.2135
29.6207 34.2263
29.8053 33.8728
29.99 33.6471
30.1748 33.4441
30.3597 33.3222
30.5447 33.1619
30.7297 33.2387
30.915 32.5679
31.1002 32.0573
31.2855 31.8705
31.4708 31.7004
31.6563 31.3212
31.8418 31.0997
32.0275 30.8726
32.2132 30.3825
32.399 29.9208
32.5848 29.3844
32.7708 29.0236
32.9569 28.9149
33.143 28.6419
33.3293 28.2654
33.5158 27.8691
33.7022 27.4644
33.8887 27.2389
34.0753 26.7352
34.262 26.5678
34.4488 26.092
34.6357 25.6559
34.8227 25.4701
35.0098 25.2647
35.1969 25.0011
35.3842 24.7301
35.5716 24.5962
35.759 24.1536
35.9468 23.8348
36.1345 23.5975
36.3222 23.3192
36.5101 23.1281
36.6981 22.827
36.8861 22.509
37.0743 22.2269
37.2626 21.9304
37.451 21.6702
37.6395 21.4228
37.8281 21.0851
38.0168 20.8292
38.2056 20.6396
38.3945 20.2778
38.5837 20.0839
38.7728 19.8734
38.9621 19.5238
39.1514 19.2803
39.3409 19.0453
39.5304 18.75
39.7201 18.5734
39.9099 18.4368
40.0999 18.1132
40.2899 17.9342
40.48 17.6034
40.6703 17.4906
40.8607 17.296
41.0512 17.0667
41.242 16.7892
41.4327 16.5663
41.6236 16.301
41.8146 16.1214
42.0057 15.8569
42.1969 15.7162
42.3882 15.5206
42.5797 15.2098
42.7713 15.1141
42.963 14.8993
43.1549 14.6182
43.3468 14.4134
43.5389 14.2634
43.7312 14.0215
43.9237 13.8923
44.1162 13.6841
44.3088 13.5153
44.5016 13.3049
44.6945 13.09
44.8875 12.9527
45.0806 12.7261
45.2739 12.5878
45.4673 12.4349
45.6609 12.2161
45.8546 12.0737
46.0484 11.8859
46.2424 11.7314
46.4365 11.5583
46.631 11.384
46.8254 11.2092
47.0199 11.0379
47.2146 10.9483
47.4095 10.7263
47.6044 10.5557
47.7996 10.4299
47.9948 10.2524
48.1902 10.0931
48.3858 9.95437
48.5815 9.82601
48.7774 9.67206
48.9734 9.52848
49.1696 9.40091
49.3661 9.20946
49.5626 9.09883
49.7592 8.93201
49.956 8.8465
50.153 8.73261
50.3501 8.51357
50.5474 8.36547
50.7448 8.29192
50.9424 8.18556
51.1402 8.06611
51.3381 7.9084
51.5362 7.80176
51.7344 7.62763
51.9328 7.52939
52.1316 7.40242
52.3304 7.28573
52.5293 7.18654
52.7284 7.02985
52.9276 6.93494
53.1271 6.82597
53.3267 6.67338
53.5265 6.57566
53.7264 6.48601
53.9266 6.34181
54.1269 6.20925
54.3274 6.14714
54.528 6.00359
54.7289 5.81995
54.9301 5.66804
55.1314 5.52489
55.3328 5.28548
55.5344 5.14368
55.7361 4.95592