File: XRD/Ni3Fe_FD0528.xy
TT I
1.27165 7.12341
1.45013 6.27022
1.62863 5.51287
1.80712 4.77236
1.98562 4.645
2.16411 4.98555
2.34263 5.65254
2.52115 7.23632
2.69965 7.90047
2.87818 8.06405
3.05672 10.6224
3.23527 14.8118
3.4138 19.04
3.59237 24.3196
3.77094 26.6211
3.9495 30.1545
4.12809 35.0434
4.30669 270.709
4.4853 71.1593
4.6639 55.777
4.84253 67.3573
5.02118 87.4422
5.19981 371.164
5.37848 205.934
5.55716 102.893
5.73586 92.9476
5.91455 94.954
6.09328 4134.69
6.27201 85.5244
6.45075 68.1004
6.62952 63.825
6.8083 59.5788
6.98711 56.5094
7.16591 55.9604
7.34475 103.724
7.5236 55.6046
7.70247 56.7988
7.88135 58.3899
8.06026 62.8537
8.23919 70.3085
8.41812 86.5167
8.59709 1101.18
8.77609 102.401
8.9551 93.8979
9.13412 82.4387
9.31318 83.0808
9.49226 84.9367
9.67134 101.388
9.85047 100.905
10.0296 334.488
10.2088 465.961
10.388 106.108
10.5672 491.683
10.7465 87.6547
10.9257 79.6707
11.105 72.6807
11.2844 72.2047
11.4637 65.704
11.6431 64.3324
11.8225 63.0484
12.002 64.1921
12.1814 146.616
12.3609 73.1082
12.5405 65.2272
12.72 71.8589
12.8996 71.7294
13.0792 79.0749
13.2589 225.851
13.4386 132.253
13.6183 237.401
13.7981 103.715
13.9779 76.4412
14.1577 73.4692
14.3376 72.9071
14.5175 69.2539
14.6974 71.0729
14.8774 108.568
15.0574 159.078
15.2374 72.3409
15.4175 66.9977
15.5976 66.2389
15.7778 94.0852
15.958 164.783
16.1382 64.0756
16.3185 59.5209
16.4988 56.2221
16.6792 55.165
16.8596 55.9719
17.04 56.2588
17.2205 66.5499
17.401 73.447
17.5815 59.7198
17.7622 61.7777
17.9428 73.5928
18.1237 137.39
18.3044 89.4183
18.4852 81.2762
18.666 61.0422
18.8469 58.7627
19.0278 57.5331
19.2088 59.9989
19.3898 76.5782
19.5709 55.0663
19.752 53.9743
19.9332 56.585
20.1144 70.3198
20.2957 63.7868
20.477 54.7738
20.6586 50.3591
20.84 49.4396
21.0215 49.1226
21.203 51.2621
21.3846 49.7793
21.5662 49.2315
21.7479 52.7307
21.9297 65.1445
22.1115 56.3925
22.2933 50.8196
22.4753 49.4631
22.6572 49.3285
22.8393 52.1567
23.0214 58.4412
23.2037 49.3583
23.3859 50.201
23.5682 56.9139
23.7505 49.1546
23.9329 45.541
24.1154 44.6263
24.2979 44.0953
24.4805 43.2884
24.6631 43.3124
24.8458 42.7493
25.0286 43.2474
25.2114 45.0371
25.3943 45.4115
25.5773 41.3564
25.7605 40.8645
25.9436 41.1828
26.1268 42.1544
26.31 40.6519
26.4933 41.0565
26.6767 42.44
26.8601 40.9733
27.0437 39.302
27.2272 39.0262
27.4109 38.7677
27.5946 38.8745
27.7784 38.3425
27.9623 38.7698
28.1462 39.3179
28.3304 37.6513
28.5145 36.3778
28.6987 36.1357
28.8829 35.7761
29.0673 35.0241
29.2517 34.7166
29.4361 34.5964
29.6207 33.5132
29.8053 33.212
29.99 32.8487
30.1748 32.8135
30.3597 32.5957
30.5447 32.5186
30.7297 32.5094
30.915 31.9458
31.1002 31.4186
31.2855 31.2816
31.4708 31.1659
31.6563 30.754
31.8418 30.4836
32.0275 30.312
32.2132 29.5271
32.399 29.2478
32.5848 28.6676
32.7708 28.4155
32.9569 28.2874
33.143 28.0315
33.3293 27.7498
33.5158 27.3107
33.7022 26.9089
33.8887 26.6637
34.0753 26.2932
34.262 25.9225
34.4488 25.6696
34.6357 25.2402
34.8227 24.9575
35.0098 24.7262
35.1969 24.4064
35.3842 24.239
35.5716 24.0081
35.759 23.6691
35.9468 23.4029
36.1345 23.1377
36.3222 22.9868
36.5101 22.623
36.6981 22.407
36.8861 22.0729
37.0743 21.7557
37.2626 21.5288
37.451 21.2506
37.6395 21.0404
37.8281 20.7397
38.0168 20.4524
38.2056 20.1826
38.3945 19.9056
38.5837 19.6583
38.7728 19.449
38.9621 19.1321
39.1514 18.8832
39.3409 18.6491
39.5304 18.4872
39.7201 18.2861
39.9099 18.002
40.0999 17.8193
40.2899 17.6129
40.48 17.3069
40.6703 17.1488
40.8607 16.926
41.0512 16.6992
41.242 16.442
41.4327 16.2872
41.6236 15.9907
41.8146 15.8414
42.0057 15.606
42.1969 15.3597
42.3882 15.1882
42.5797 15.0126
42.7713 14.8098
42.963 14.6098
43.1549 14.3665
43.3468 14.2178
43.5389 14.0172
43.7312 13.7901
43.9237 13.6092
44.1162 13.4191
44.3088 13.207
44.5016 13.0433
44.6945 12.9139
44.8875 12.7454
45.0806 12.5505
45.2739 12.3541
45.4673 12.1922
45.6609 11.9996
45.8546 11.8419
46.0484 11.6629
46.2424 11.5054
46.4365 11.3604
46.631 11.1102
46.8254 10.9606
47.0199 10.8251
47.2146 10.7047
47.4095 10.5045
47.6044 10.3752
47.7996 10.2073
47.9948 10.0729
48.1902 9.91159
48.3858 9.81788
48.5815 9.66854
48.7774 9.49827
48.9734 9.3378
49.1696 9.20909
49.3661 9.08773
49.5626 8.95253
49.7592 8.82428
49.956 8.70827
50.153 8.55624
50.3501 8.38668
50.5474 8.33312
50.7448 8.1917
50.9424 8.02154
51.1402 7.92464
51.3381 7.73169
51.5362 7.63385
51.7344 7.55942
51.9328 7.39256
52.1316 7.25294
52.3304 7.1623
52.5293 7.00871
52.7284 6.91866
52.9276 6.824
53.1271 6.66968
53.3267 6.58236
53.5265 6.41782
53.7264 6.35129
53.9266 6.26704
54.1269 6.10811
54.3274 6.04511
54.528 5.8971
54.7289 5.73298
54.9301 5.60201
55.1314 5.42776
55.3328 5.19864
55.5344 5.06824
55.7361 4.9209