File: XRD/Ni3Fe_FD0448.xy
TT I
1.27165 7.46509
1.45013 6.12523
1.62863 5.57801
1.80712 5.00478
1.98562 4.4916
2.16411 5.12113
2.34263 4.82939
2.52115 5.4222
2.69965 6.65937
2.87818 8.46081
3.05672 11.2881
3.23527 14.7788
3.4138 18.9358
3.59237 23.6137
3.77094 25.8942
3.9495 30.0004
4.12809 34.8161
4.30669 152.52
4.4853 59.4446
4.6639 56.5694
4.84253 68.7376
5.02118 89.7471
5.19981 496.416
5.37848 202.364
5.55716 104.715
5.73586 94.3014
5.91455 98.6236
6.09328 4314.68
6.27201 84.418
6.45075 68.4607
6.62952 63.29
6.8083 58.868
6.98711 56.591
7.16591 55.8609
7.34475 79.0689
7.5236 55.1046
7.70247 56.9918
7.88135 58.6662
8.06026 63.2574
8.23919 70.5398
8.41812 87.3586
8.59709 1238.53
8.77609 102.043
8.9551 90.938
9.13412 83.5295
9.31318 84.361
9.49226 86.1287
9.67134 97.5074
9.85047 102.353
10.0296 403.662
10.2088 417.758
10.388 107.389
10.5672 502.703
10.7465 88.1207
10.9257 79.3106
11.105 72.8686
11.2844 70.5385
11.4637 65.8665
11.6431 64.7515
11.8225 63.3713
12.002 65.2083
12.1814 155.285
12.3609 70.0229
12.5405 65.4979
12.72 70.1057
12.8996 72.309
13.0792 81.2469
13.2589 248.077
13.4386 125.819
13.6183 251.077
13.7981 98.1872
13.9779 77.1175
14.1577 73.4951
14.3376 72.1517
14.5175 70.1652
14.6974 71.7368
14.8774 117.362
15.0574 149.896
15.2374 71.4802
15.4175 67.3374
15.5976 67.1982
15.7778 100.765
15.958 156.582
16.1382 63.1138
16.3185 59.3075
16.4988 56.4259
16.6792 55.4746
16.8596 55.913
17.04 56.9814
17.2205 68.5366
17.401 71.9014
17.5815 60.2411
17.7622 62.3681
17.9428 76.9993
18.1237 138.835
18.3044 91.9272
18.4852 78.031
18.666 61.5147
18.8469 59.1197
19.0278 57.965
19.2088 61.0952
19.3898 77.1036
19.5709 54.9858
19.752 54.338
19.9332 57.6314
20.1144 70.8531
20.2957 64.531
20.477 54.2963
20.6586 50.4859
20.84 49.6095
21.0215 49.4486
21.203 51.632
21.3846 49.8684
21.5662 49.861
21.7479 54.0231
21.9297 65.2313
22.1115 56.5726
22.2933 50.7273
22.4753 49.5504
22.6572 49.8313
22.8393 53.1185
23.0214 58.0768
23.2037 49.7981
23.3859 50.6927
23.5682 57.4409
23.7505 49.1043
23.9329 46.0284
24.1154 44.9613
24.2979 44.2121
24.4805 43.5993
24.6631 43.5367
24.8458 43.1559
25.0286 43.5856
25.2114 45.513
25.3943 45.2569
25.5773 41.5997
25.7605 41.1636
25.9436 41.4977
26.1268 42.4065
26.31 40.8775
26.4933 41.5109
26.6767 42.8168
26.8601 41.0705
27.0437 39.4492
27.2272 39.2101
27.4109 39.0723
27.5946 38.921
27.7784 38.5451
27.9623 39.0781
28.1462 39.4781
28.3304 37.7353
28.5145 36.541
28.6987 36.2473
28.8829 35.9882
29.0673 35.2958
29.2517 34.9439
29.4361 34.6489
29.6207 33.6729
29.8053 33.5067
29.99 33.3511
30.1748 33.0038
30.3597 32.8121
30.5447 32.6344
30.7297 32.7097
30.915 32.2109
31.1002 31.6141
31.2855 31.5283
31.4708 31.3275
31.6563 30.8451
31.8418 30.617
32.0275 30.4289
32.2132 29.9246
32.399 29.4407
32.5848 28.9166
32.7708 28.5926
32.9569 28.4272
33.143 28.2692
33.3293 27.8959
33.5158 27.5322
33.7022 27.0803
33.8887 26.6832
34.0753 26.4918
34.262 26.0791
34.4488 25.631
34.6357 25.3468
34.8227 25.168
35.0098 24.8958
35.1969 24.5777
35.3842 24.3347
35.5716 24.149
35.759 23.8732
35.9468 23.5506
36.1345 23.2727
36.3222 23.0001
36.5101 22.7874
36.6981 22.516
36.8861 22.1321
37.0743 21.8358
37.2626 21.633
37.451 21.3713
37.6395 21.1769
37.8281 20.7865
38.0168 20.4962
38.2056 20.2755
38.3945 19.9959
38.5837 19.7429
38.7728 19.5278
38.9621 19.2458
39.1514 19.0327
39.3409 18.7473
39.5304 18.499
39.7201 18.3553
39.9099 18.1016
40.0999 17.8644
40.2899 17.681
40.48 17.4334
40.6703 17.2118
40.8607 17.0088
41.0512 16.7834
41.242 16.5111
41.4327 16.3583
41.6236 16.0881
41.8146 15.8857
42.0057 15.6485
42.1969 15.463
42.3882 15.3188
42.5797 15.1413
42.7713 14.8284
42.963 14.6309
43.1549 14.4412
43.3468 14.2445
43.5389 14.0686
43.7312 13.8366
43.9237 13.6824
44.1162 13.51
44.3088 13.306
44.5016 13.089
44.6945 12.912
44.8875 12.7106
45.0806 12.538
45.2739 12.4476
45.4673 12.2231
45.6609 12.0366
45.8546 11.8711
46.0484 11.7141
46.2424 11.5331
46.4365 11.3441
46.631 11.1883
46.8254 10.9921
47.0199 10.8603
47.2146 10.6998
47.4095 10.5403
47.6044 10.3874
47.7996 10.2301
47.9948 10.0834
48.1902 9.90435
48.3858 9.8044
48.5815 9.6927
48.7774 9.53203
48.9734 9.40838
49.1696 9.27573
49.3661 9.06822
49.5626 8.9543
49.7592 8.82755
49.956 8.66251
50.153 8.55211
50.3501 8.45396
50.5474 8.31856
50.7448 8.19738
50.9424 8.08563
51.1402 7.95655
51.3381 7.80251
51.5362 7.67192
51.7344 7.56477
51.9328 7.42563
52.1316 7.2848
52.3304 7.18717
52.5293 7.03757
52.7284 6.9282
52.9276 6.82238
53.1271 6.76044
53.3267 6.59231
53.5265 6.51781
53.7264 6.31208
53.9266 6.27477
54.1269 6.12942
54.3274 6.02032
54.528 5.92357
54.7289 5.765
54.9301 5.56167
55.1314 5.44616
55.3328 5.23674
55.5344 5.06985
55.7361 4.90303