File: XRD/Ni3Fe_FD0926.xy
TT I
1.27165 7.4075
1.45013 5.90645
1.62863 5.49305
1.80712 4.41985
1.98562 4.86583
2.16411 5.18203
2.34263 5.31642
2.52115 7.41686
2.69965 9.56921
2.87818 9.06654
3.05672 11.0864
3.23527 15.1691
3.4138 18.7862
3.59237 22.9419
3.77094 25.4545
3.9495 29.3139
4.12809 33.5681
4.30669 100.859
4.4853 53.3002
4.6639 55.2123
4.84253 67.9045
5.02118 85.8093
5.19981 371.206
5.37848 192.279
5.55716 100.849
5.73586 91.9701
5.91455 93.5573
6.09328 4676.13
6.27201 78.2986
6.45075 69.2204
6.62952 62.0259
6.8083 58.7653
6.98711 55.0649
7.16591 55.8978
7.34475 66.4291
7.5236 53.6246
7.70247 56.3329
7.88135 56.5268
8.06026 61.5653
8.23919 68.5231
8.41812 81.998
8.59709 1208.18
8.77609 95.7582
8.9551 88.9497
9.13412 82.1686
9.31318 84.1934
9.49226 83.668
9.67134 94.5628
9.85047 100.283
10.0296 330.067
10.2088 322.033
10.388 102.908
10.5672 544.595
10.7465 84.4095
10.9257 76.5919
11.105 70.4207
11.2844 67.2126
11.4637 63.5213
11.6431 62.5059
11.8225 61.4598
12.002 63.414
12.1814 159.213
12.3609 65.4623
12.5405 63.7789
12.72 66.9747
12.8996 70.4626
13.0792 79.3695
13.2589 245.56
13.4386 114.64
13.6183 258.833
13.7981 91.5022
13.9779 74.7246
14.1577 70.6495
14.3376 69.0678
14.5175 67.6879
14.6974 69.589
14.8774 110.183
15.0574 136.624
15.2374 68.0093
15.4175 65.1357
15.5976 64.818
15.7778 93.8046
15.958 145.79
16.1382 60.2033
16.3185 56.9253
16.4988 54.3461
16.6792 53.418
16.8596 53.906
17.04 55.0805
17.2205 66.0425
17.401 67.4573
17.5815 58.0127
17.7622 60.348
17.9428 72.4077
18.1237 139.947
18.3044 90.8516
18.4852 72.7767
18.666 59.2188
18.8469 56.9391
19.0278 55.883
19.2088 58.1402
19.3898 74.6464
19.5709 53.0017
19.752 52.3192
19.9332 55.128
20.1144 69.4525
20.2957 64.0264
20.477 51.6631
20.6586 48.6095
20.84 47.9799
21.0215 47.6656
21.203 50.2026
21.3846 47.9665
21.5662 48.1862
21.7479 51.7649
21.9297 64.1465
22.1115 55.5413
22.2933 48.5134
22.4753 47.8601
22.6572 47.9481
22.8393 51.2221
23.0214 56.1078
23.2037 47.8024
23.3859 48.7971
23.5682 56.9818
23.7505 46.8341
23.9329 44.2699
24.1154 43.3975
24.2979 42.6702
24.4805 42.1697
24.6631 42.0458
24.8458 41.4656
25.0286 42.122
25.2114 43.9113
25.3943 43.7518
25.5773 40.2881
25.7605 39.7433
25.9436 40.2071
26.1268 41.2244
26.31 39.4576
26.4933 40.102
26.6767 41.5446
26.8601 39.6457
27.0437 38.2752
27.2272 37.8763
27.4109 37.7376
27.5946 37.7154
27.7784 37.3141
27.9623 37.7889
28.1462 38.1234
28.3304 36.3455
28.5145 35.3024
28.6987 35.0881
28.8829 34.8879
29.0673 33.9341
29.2517 33.7144
29.4361 33.6601
29.6207 32.5519
29.8053 32.2891
29.99 31.9846
30.1748 31.9081
30.3597 31.6084
30.5447 31.5903
30.7297 31.7087
30.915 31.1761
31.1002 30.494
31.2855 30.3154
31.4708 30.3434
31.6563 29.8679
31.8418 29.6103
32.0275 29.411
32.2132 28.8621
32.399 28.4744
32.5848 28.0236
32.7708 27.6707
32.9569 27.5724
33.143 27.2796
33.3293 26.8526
33.5158 26.6167
33.7022 26.1753
33.8887 25.8738
34.0753 25.5665
34.262 25.2175
34.4488 24.9465
34.6357 24.5815
34.8227 24.237
35.0098 23.9884
35.1969 23.758
35.3842 23.5778
35.5716 23.3467
35.759 23.0257
35.9468 22.6882
36.1345 22.4768
36.3222 22.2871
36.5101 22.0117
36.6981 21.8028
36.8861 21.3382
37.0743 21.0576
37.2626 20.8263
37.451 20.6197
37.6395 20.4295
37.8281 20.1355
38.0168 19.8868
38.2056 19.5885
38.3945 19.3364
38.5837 19.1218
38.7728 18.8607
38.9621 18.6002
39.1514 18.382
39.3409 18.1457
39.5304 17.9184
39.7201 17.7224
39.9099 17.4851
40.0999 17.2772
40.2899 17.0586
40.48 16.7591
40.6703 16.6232
40.8607 16.4527
41.0512 16.1707
41.242 15.9142
41.4327 15.7934
41.6236 15.5358
41.8146 15.3276
42.0057 15.1597
42.1969 14.9192
42.3882 14.7951
42.5797 14.5664
42.7713 14.3497
42.963 14.1703
43.1549 13.9555
43.3468 13.7639
43.5389 13.6315
43.7312 13.4275
43.9237 13.177
44.1162 13.0147
44.3088 12.8413
44.5016 12.6612
44.6945 12.4741
44.8875 12.3402
45.0806 12.1329
45.2739 11.9783
45.4673 11.8093
45.6609 11.6119
45.8546 11.506
46.0484 11.3186
46.2424 11.1545
46.4365 11.0078
46.631 10.8536
46.8254 10.6648
47.0199 10.4616
47.2146 10.3174
47.4095 10.2097
47.6044 10.0325
47.7996 9.88345
47.9948 9.77125
48.1902 9.63834
48.3858 9.5009
48.5815 9.36163
48.7774 9.24465
48.9734 9.07053
49.1696 8.92247
49.3661 8.80529
49.5626 8.65678
49.7592 8.51973
49.956 8.38299
50.153 8.28338
50.3501 8.13488
50.5474 8.04306
50.7448 7.91229
50.9424 7.80305
51.1402 7.676
51.3381 7.55395
51.5362 7.43241
51.7344 7.2761
51.9328 7.17565
52.1316 7.07222
52.3304 6.92973
52.5293 6.83352
52.7284 6.68381
52.9276 6.63714
53.1271 6.4971
53.3267 6.38655
53.5265 6.25917
53.7264 6.13266
53.9266 6.07879
54.1269 5.97548
54.3274 5.88361
54.528 5.66023
54.7289 5.55752
54.9301 5.39122
55.1314 5.28851
55.3328 5.08115
55.5344 4.88299
55.7361 4.75443