File: XRD/Ni3Fe_FD0773.xy
TT I
1.27165 7.06847
1.45013 5.74853
1.62863 5.81617
1.80712 4.92624
1.98562 4.9161
2.16411 4.63461
2.34263 5.80973
2.52115 6.65209
2.69965 8.41527
2.87818 9.8818
3.05672 11.1901
3.23527 15.1624
3.4138 18.7672
3.59237 24.1946
3.77094 26.3346
3.9495 29.9827
4.12809 34.4948
4.30669 274.616
4.4853 71.362
4.6639 55.2055
4.84253 65.982
5.02118 84.6315
5.19981 299.894
5.37848 185.883
5.55716 100.583
5.73586 90.7742
5.91455 91.5806
6.09328 4250.29
6.27201 82.7394
6.45075 67.0836
6.62952 62.6281
6.8083 58.8081
6.98711 55.6915
7.16591 55.2477
7.34475 103.083
7.5236 54.6674
7.70247 55.8549
7.88135 57.4996
8.06026 61.491
8.23919 68.5704
8.41812 84.2102
8.59709 1077.65
8.77609 97.9971
8.9551 92.2863
9.13412 81.0192
9.31318 80.9896
9.49226 83.1815
9.67134 100.184
9.85047 98.4798
10.0296 296.115
10.2088 406.841
10.388 103.75
10.5672 518.724
10.7465 85.8662
10.9257 78.3848
11.105 71.3788
11.2844 71.1489
11.4637 64.3271
11.6431 63.1463
11.8225 61.7979
12.002 62.7492
12.1814 146.087
12.3609 71.9521
12.5405 63.992
12.72 70.5433
12.8996 70.2676
13.0792 77.5532
13.2589 221.696
13.4386 127.152
13.6183 232.138
13.7981 98.2661
13.9779 74.6431
14.1577 71.9364
14.3376 71.6083
14.5175 68.1294
14.6974 69.5332
14.8774 104.426
15.0574 151.761
15.2374 71.1683
15.4175 65.7399
15.5976 64.9088
15.7778 90.1052
15.958 160.005
16.1382 62.92
16.3185 58.5255
16.4988 55.2476
16.6792 54.1219
16.8596 54.9882
17.04 55.3082
17.2205 65.3955
17.401 70.9132
17.5815 58.6134
17.7622 60.6854
17.9428 71.4425
18.1237 139.721
18.3044 88.452
18.4852 78.346
18.666 59.9707
18.8469 57.5365
19.0278 56.2302
19.2088 58.7269
19.3898 76.8882
19.5709 53.9082
19.752 52.6965
19.9332 55.3793
20.1144 69.5169
20.2957 63.2144
20.477 53.5494
20.6586 49.2685
20.84 48.2909
21.0215 48.2059
21.203 50.4209
21.3846 48.5391
21.5662 48.3425
21.7479 51.7525
21.9297 64.3165
22.1115 55.6681
22.2933 49.5767
22.4753 48.5818
22.6572 48.3817
22.8393 51.0866
23.0214 57.5935
23.2037 48.4185
23.3859 48.953
23.5682 56.522
23.7505 48.2254
23.9329 44.9615
24.1154 43.6862
24.2979 43.1413
24.4805 42.5568
24.6631 42.4071
24.8458 41.9249
25.0286 42.3206
25.2114 44.1232
25.3943 44.5404
25.5773 40.5129
25.7605 40.2027
25.9436 40.4974
26.1268 41.4639
26.31 39.8288
26.4933 40.3307
26.6767 41.8746
26.8601 40.1819
27.0437 38.5439
27.2272 38.2684
27.4109 37.9877
27.5946 38.0451
27.7784 37.5982
27.9623 38.0981
28.1462 38.5784
28.3304 36.9187
28.5145 35.7867
28.6987 35.4272
28.8829 35.2131
29.0673 34.5032
29.2517 33.92
29.4361 33.9441
29.6207 32.9359
29.8053 32.768
29.99 32.3066
30.1748 32.1795
30.3597 32.0064
30.5447 31.8512
30.7297 31.9165
30.915 31.371
31.1002 30.8653
31.2855 30.5907
31.4708 30.6212
31.6563 30.1315
31.8418 29.9465
32.0275 29.6652
32.2132 29.1224
32.399 28.6891
32.5848 28.2781
32.7708 27.895
32.9569 27.7723
33.143 27.5542
33.3293 27.231
33.5158 26.8698
33.7022 26.5254
33.8887 26.2282
34.0753 25.8018
34.262 25.4574
34.4488 25.1048
34.6357 24.8343
34.8227 24.4686
35.0098 24.2952
35.1969 24.0394
35.3842 23.8249
35.5716 23.6363
35.759 23.2252
35.9468 22.935
36.1345 22.8412
36.3222 22.5448
36.5101 22.2962
36.6981 21.9426
36.8861 21.6758
37.0743 21.3292
37.2626 21.1418
37.451 20.8514
37.6395 20.7325
37.8281 20.3662
38.0168 20.0755
38.2056 19.8153
38.3945 19.5262
38.5837 19.3041
38.7728 19.0628
38.9621 18.842
39.1514 18.5587
39.3409 18.3076
39.5304 18.1601
39.7201 17.9499
39.9099 17.6927
40.0999 17.5097
40.2899 17.2524
40.48 17.0031
40.6703 16.809
40.8607 16.6431
41.0512 16.3873
41.242 16.0891
41.4327 15.9915
41.6236 15.7415
41.8146 15.5696
42.0057 15.4124
42.1969 15.0744
42.3882 14.9335
42.5797 14.7395
42.7713 14.5661
42.963 14.3454
43.1549 14.1103
43.3468 13.9623
43.5389 13.7677
43.7312 13.5371
43.9237 13.3913
44.1162 13.1942
44.3088 13.0033
44.5016 12.8284
44.6945 12.6287
44.8875 12.4946
45.0806 12.2848
45.2739 12.1144
45.4673 11.991
45.6609 11.7558
45.8546 11.6695
46.0484 11.4632
46.2424 11.2716
46.4365 11.1433
46.631 10.9729
46.8254 10.8153
47.0199 10.6178
47.2146 10.4708
47.4095 10.3483
47.6044 10.1871
47.7996 10.0437
47.9948 9.88538
48.1902 9.7582
48.3858 9.66012
48.5815 9.45922
48.7774 9.39625
48.9734 9.19104
49.1696 9.05474
49.3661 8.94104
49.5626 8.8054
49.7592 8.64264
49.956 8.51771
50.153 8.40534
50.3501 8.27292
50.5474 8.12843
50.7448 8.03068
50.9424 7.88349
51.1402 7.82547
51.3381 7.62193
51.5362 7.534
51.7344 7.36662
51.9328 7.26757
52.1316 7.12778
52.3304 7.00826
52.5293 6.90066
52.7284 6.84215
52.9276 6.69187
53.1271 6.6235
53.3267 6.46609
53.5265 6.33845
53.7264 6.25405
53.9266 6.16044
54.1269 6.00699
54.3274 5.94984
54.528 5.79875
54.7289 5.63187
54.9301 5.46453
55.1314 5.35349
55.3328 5.16273
55.5344 4.95596
55.7361 4.78255