File: XRD/Ni3Fe_FD0631.xy
TT I
1.27165 7.63039
1.45013 5.84778
1.62863 4.76394
1.80712 4.66948
1.98562 4.6148
2.16411 4.87476
2.34263 5.20765
2.52115 6.39855
2.69965 7.44663
2.87818 8.45566
3.05672 11.4396
3.23527 15.0294
3.4138 19.241
3.59237 24.3939
3.77094 26.2525
3.9495 30.1266
4.12809 34.8864
4.30669 239.968
4.4853 67.8902
4.6639 55.5383
4.84253 67.1708
5.02118 87.0288
5.19981 342.848
5.37848 195.764
5.55716 102.479
5.73586 92.5339
5.91455 94.0068
6.09328 4395.03
6.27201 83.9818
6.45075 67.6969
6.62952 63.2459
6.8083 58.8846
6.98711 56.0806
7.16591 55.4394
7.34475 97.1094
7.5236 55.1255
7.70247 56.2103
7.88135 58.3641
8.06026 62.1518
8.23919 69.777
8.41812 85.2969
8.59709 1137.58
8.77609 100.181
8.9551 92.2814
9.13412 81.8236
9.31318 82.4046
9.49226 84.6734
9.67134 99.9952
9.85047 99.7295
10.0296 329.993
10.2088 429.502
10.388 105.002
10.5672 506.058
10.7465 86.6593
10.9257 78.8882
11.105 72.1781
11.2844 71.2913
11.4637 65.3497
11.6431 64.0432
11.8225 62.6954
12.002 63.7985
12.1814 149.837
12.3609 72.0304
12.5405 64.7159
12.72 70.6119
12.8996 71.0579
13.0792 78.9977
13.2589 232.221
13.4386 128.239
13.6183 242.002
13.7981 101.121
13.9779 76.0358
14.1577 72.5017
14.3376 72.0198
14.5175 68.8873
14.6974 70.6472
14.8774 108.588
15.0574 151.633
15.2374 71.7109
15.4175 66.5089
15.5976 65.9367
15.7778 93.763
15.958 159.087
16.1382 63.3777
16.3185 59.146
16.4988 55.8505
16.6792 54.7114
16.8596 55.5768
17.04 55.9356
17.2205 66.5428
17.401 72.5371
17.5815 59.4707
17.7622 61.6597
17.9428 73.3037
18.1237 138.884
18.3044 90.2109
18.4852 79.0368
18.666 60.5875
18.8469 58.1557
19.0278 57.283
19.2088 59.7458
19.3898 76.7462
19.5709 54.5732
19.752 53.2647
19.9332 56.2403
20.1144 69.7694
20.2957 63.8196
20.477 54.1094
20.6586 49.8205
20.84 49.0125
21.0215 48.8901
21.203 51.1159
21.3846 49.3258
21.5662 48.8487
21.7479 52.603
21.9297 64.8209
22.1115 56.3473
22.2933 50.37
22.4753 49.1758
22.6572 48.8786
22.8393 51.7481
23.0214 57.6264
23.2037 49.0222
23.3859 49.8192
23.5682 56.8984
23.7505 48.7364
23.9329 45.5805
24.1154 44.4378
24.2979 43.5576
24.4805 43.2079
24.6631 43.0156
24.8458 42.4757
25.0286 42.9417
25.2114 44.8463
25.3943 44.7723
25.5773 41.0311
25.7605 40.4986
25.9436 41.0158
26.1268 41.8613
26.31 40.3472
26.4933 40.9865
26.6767 42.3321
26.8601 40.6675
27.0437 38.9506
27.2272 38.5749
27.4109 38.5923
27.5946 38.4884
27.7784 37.9655
27.9623 38.5396
28.1462 39.0688
28.3304 37.4084
28.5145 36.1174
28.6987 35.7787
28.8829 35.4931
29.0673 34.8214
29.2517 34.4548
29.4361 34.222
29.6207 33.2851
29.8053 33.1112
29.99 32.7585
30.1748 32.6373
30.3597 32.3934
30.5447 32.3743
30.7297 32.2911
30.915 31.6712
31.1002 31.1915
31.2855 31.0405
31.4708 31.0402
31.6563 30.4951
31.8418 30.3384
32.0275 30.0038
32.2132 29.514
32.399 29.07
32.5848 28.6613
32.7708 28.361
32.9569 28.0932
33.143 27.9002
33.3293 27.5401
33.5158 27.1502
33.7022 26.7441
33.8887 26.4293
34.0753 26.1265
34.262 25.8538
34.4488 25.4735
34.6357 25.0523
34.8227 24.8217
35.0098 24.6134
35.1969 24.3283
35.3842 24.1064
35.5716 23.8105
35.759 23.5416
35.9468 23.1871
36.1345 23.0048
36.3222 22.7923
36.5101 22.4895
36.6981 22.2039
36.8861 21.988
37.0743 21.5645
37.2626 21.447
37.451 21.0327
37.6395 20.9293
37.8281 20.5968
38.0168 20.2518
38.2056 20.0659
38.3945 19.7815
38.5837 19.5645
38.7728 19.3376
38.9621 19.0461
39.1514 18.8516
39.3409 18.5333
39.5304 18.3303
39.7201 18.1943
39.9099 17.9391
40.0999 17.6459
40.2899 17.4716
40.48 17.2056
40.6703 16.9893
40.8607 16.7706
41.0512 16.6223
41.242 16.3288
41.4327 16.1536
41.6236 15.9491
41.8146 15.7376
42.0057 15.4991
42.1969 15.3413
42.3882 15.1137
42.5797 14.9156
42.7713 14.7016
42.963 14.4616
43.1549 14.3063
43.3468 14.079
43.5389 13.9642
43.7312 13.7537
43.9237 13.5107
44.1162 13.3563
44.3088 13.0984
44.5016 12.9832
44.6945 12.8177
44.8875 12.5439
45.0806 12.4427
45.2739 12.276
45.4673 12.1204
45.6609 11.9314
45.8546 11.7695
46.0484 11.5664
46.2424 11.4187
46.4365 11.2682
46.631 11.1069
46.8254 10.8793
47.0199 10.7442
47.2146 10.6345
47.4095 10.4777
47.6044 10.3048
47.7996 10.1318
47.9948 9.99722
48.1902 9.85956
48.3858 9.71459
48.5815 9.60379
48.7774 9.44384
48.9734 9.3157
49.1696 9.16287
49.3661 9.00622
49.5626 8.86161
49.7592 8.73941
49.956 8.61669
50.153 8.48805
50.3501 8.30782
50.5474 8.22451
50.7448 8.09761
50.9424 7.95493
51.1402 7.85563
51.3381 7.72061
51.5362 7.61065
51.7344 7.50346
51.9328 7.29975
52.1316 7.20091
52.3304 7.08584
52.5293 6.99179
52.7284 6.86085
52.9276 6.73818
53.1271 6.68782
53.3267 6.51198
53.5265 6.42099
53.7264 6.30835
53.9266 6.17978
54.1269 6.05369
54.3274 5.96157
54.528 5.8625
54.7289 5.70916
54.9301 5.51522
55.1314 5.4317
55.3328 5.17505
55.5344 5.02804
55.7361 4.90711