File: XRD/Ni3Fe_FD0019.xy
TT I
1.27165 35.2602
1.45013 30.0907
1.62863 27.2007
1.80712 24.981
1.98562 24.6818
2.16411 24.8455
2.34263 26.428
2.52115 24.9816
2.69965 29.2343
2.87818 38.965
3.05672 65.6798
3.23527 77.9367
3.4138 43.0543
3.59237 38.6748
3.77094 40.05
3.9495 40.6433
4.12809 52.332
4.30669 81.2641
4.4853 63.0514
4.6639 49.192
4.84253 54.7636
5.02118 87.7426
5.19981 262.322
5.37848 3908.66
5.55716 158.638
5.73586 100.138
5.91455 109.677
6.09328 438.775
6.27201 330.085
6.45075 73.1824
6.62952 55.4778
6.8083 52.7767
6.98711 46.2861
7.16591 48.7498
7.34475 69.5758
7.5236 60.1917
7.70247 47.9974
7.88135 38.2043
8.06026 39.5439
8.23919 43.9711
8.41812 55.865
8.59709 151.855
8.77609 697.33
8.9551 78.5057
9.13412 58.9425
9.31318 250.328
9.49226 52.5685
9.67134 51.769
9.85047 58.507
10.0296 94.7193
10.2088 449.68
10.388 138.187
10.5672 90.3131
10.7465 282.789
10.9257 48.6982
11.105 42.0712
11.2844 40.8099
11.4637 38.21
11.6431 37.3405
11.8225 36.8169
12.002 70.1333
12.1814 46.2476
12.3609 92.4311
12.5405 44.9885
12.72 40.2691
12.8996 39.7233
13.0792 42.1307
13.2589 62.5706
13.4386 138.341
13.6183 94.8558
13.7981 148.19
13.9779 64.2227
14.1577 47.0655
14.3376 48.4162
14.5175 37.5945
14.6974 37.3869
14.8774 42.2274
15.0574 58.2363
15.2374 99.2638
15.4175 41.1342
15.5976 37.8624
15.7778 40.379
15.958 52.734
16.1382 124.483
16.3185 39.7519
16.4988 33.4051
16.6792 31.5784
16.8596 31.3796
17.04 39.2504
17.2205 33.2072
17.401 35.7994
17.5815 49.1627
17.7622 34.5941
17.9428 40.2178
18.1237 42.7095
18.3044 86.221
18.4852 57.0004
18.666 68.4239
18.8469 36.0084
19.0278 33.1743
19.2088 33.1885
19.3898 39.0187
19.5709 46.231
19.752 36.2445
19.9332 31.6077
20.1144 32.2212
20.2957 41.5316
20.477 39.0874
20.6586 40.2558
20.84 31.448
21.0215 29.6508
21.203 28.2106
21.3846 28.6666
21.5662 32.2853
21.7479 29.3081
21.9297 30.7711
22.1115 39.752
22.2933 43.8411
22.4753 36.3333
22.6572 29.7789
22.8393 30.0254
23.0214 31.0946
23.2037 37.9731
23.3859 34.4566
23.5682 34.2357
23.7505 33.6644
23.9329 43.4266
24.1154 29.2448
24.2979 27.2287
24.4805 26.2344
24.6631 26.1977
24.8458 27.7363
25.0286 25.9583
25.2114 26.075
25.3943 28.5277
25.5773 30.3097
25.7605 29.5273
25.9436 26.6287
26.1268 25.3972
26.31 26.1658
26.4933 28.1336
26.6767 25.8016
26.8601 27.0953
27.0437 30.9612
27.2272 27.2166
27.4109 24.5859
27.5946 24.3735
27.7784 24.7733
27.9623 25.2455
28.1462 25.5558
28.3304 26.8572
28.5145 27.545
28.6987 25.2522
28.8829 23.0169
29.0673 22.491
29.2517 23.2473
29.4361 22.1297
29.6207 21.8642
29.8053 22.7263
29.99 21.2077
30.1748 21.19
30.3597 20.9524
30.5447 21.3923
30.7297 21.0816
30.915 21.1326
31.1002 23.0072
31.2855 21.9427
31.4708 20.4872
31.6563 20.5274
31.8418 21.3547
32.0275 20.5849
32.2132 20.3992
32.399 20.9993
32.5848 19.8192
32.7708 18.9164
32.9569 18.6634
33.143 18.824
33.3293 18.3343
33.5158 18.8232
33.7022 19.1234
33.8887 18.0305
34.0753 17.6797
34.262 17.5355
34.4488 17.3423
34.6357 16.9276
34.8227 17.0193
35.0098 16.5834
35.1969 16.3564
35.3842 16.313
35.5716 16.1642
35.759 16.4713
35.9468 16.7006
36.1345 16.0908
36.3222 15.6861
36.5101 15.6448
36.6981 15.5391
36.8861 15.2329
37.0743 15.2409
37.2626 14.8349
37.451 14.5618
37.6395 14.4276
37.8281 14.1827
38.0168 14.0074
38.2056 13.9716
38.3945 13.6898
38.5837 13.4611
38.7728 13.4653
38.9621 13.2427
39.1514 13.1359
39.3409 12.9265
39.5304 12.7226
39.7201 12.565
39.9099 12.4247
40.0999 12.2944
40.2899 12.2761
40.48 12.0277
40.6703 11.9817
40.8607 11.8115
41.0512 11.655
41.242 11.5969
41.4327 11.3876
41.6236 11.1511
41.8146 11.0636
42.0057 10.9029
42.1969 10.859
42.3882 10.7037
42.5797 10.53
42.7713 10.3578
42.963 10.2155
43.1549 10.0721
43.3468 9.92974
43.5389 9.83376
43.7312 9.65015
43.9237 9.5295
44.1162 9.44839
44.3088 9.33295
44.5016 9.18682
44.6945 9.08047
44.8875 8.99592
45.0806 8.86975
45.2739 8.74315
45.4673 8.64314
45.6609 8.47049
45.8546 8.38677
46.0484 8.28378
46.2424 8.16331
46.4365 8.06184
46.631 7.94303
46.8254 7.8241
47.0199 7.71265
47.2146 7.60809
47.4095 7.48029
47.6044 7.40822
47.7996 7.26789
47.9948 7.20357
48.1902 7.12193
48.3858 6.97594
48.5815 6.87898
48.7774 6.81282
48.9734 6.69903
49.1696 6.6042
49.3661 6.4819
49.5626 6.39607
49.7592 6.32757
49.956 6.24456
50.153 6.16082
50.3501 6.07187
50.5474 5.98231
50.7448 5.90386
50.9424 5.80268
51.1402 5.72865
51.3381 5.60546
51.5362 5.54394
51.7344 5.44084
51.9328 5.35354
52.1316 5.24715
52.3304 5.19715
52.5293 5.10088
52.7284 5.03728
52.9276 4.95371
53.1271 4.89143
53.3267 4.77527
53.5265 4.75384
53.7264 4.6442
53.9266 4.57014
54.1269 4.45996
54.3274 4.39191
54.528 4.24035
54.7289 4.08785
54.9301 3.97612
55.1314 3.88736
55.3328 3.7605
55.5344 3.55807
55.7361 3.48824