File: XRD/Ni3Fe_FD0296.xy
TT I
1.27165 7.78073
1.45013 6.24824
1.62863 5.6848
1.80712 5.34554
1.98562 4.85586
2.16411 4.93199
2.34263 4.91726
2.52115 5.78123
2.69965 7.5063
2.87818 8.41661
3.05672 11.1813
3.23527 15.2877
3.4138 19.2344
3.59237 25.2119
3.77094 27.2918
3.9495 30.7135
4.12809 36.3556
4.30669 294.587
4.4853 74.8438
4.6639 56.618
4.84253 69.5669
5.02118 90.6865
5.19981 497.135
5.37848 258.002
5.55716 107.525
5.73586 96.7207
5.91455 99.9109
6.09328 3676.29
6.27201 90.0055
6.45075 70.7502
6.62952 65.3823
6.8083 61.1973
6.98711 57.9989
7.16591 57.9435
7.34475 110.525
7.5236 56.5028
7.70247 58.4581
7.88135 59.938
8.06026 64.7491
8.23919 72.0948
8.41812 89.75
8.59709 995.423
8.77609 108.573
8.9551 97.4414
9.13412 84.5184
9.31318 85.6542
9.49226 87.1493
9.67134 105.154
9.85047 103.628
10.0296 380.377
10.2088 588.782
10.388 110.383
10.5672 450.039
10.7465 90.9281
10.9257 81.806
11.105 74.5901
11.2844 74.449
11.4637 67.4616
11.6431 66.0238
11.8225 64.6115
12.002 66.0254
12.1814 137.258
12.3609 77.0035
12.5405 67.1018
12.72 73.9643
12.8996 73.4864
13.0792 81.7237
13.2589 212.25
13.4386 149.09
13.6183 214.169
13.7981 113.623
13.9779 78.6966
14.1577 75.5537
14.3376 74.8791
14.5175 71.4778
14.6974 73.0793
14.8774 109.433
15.0574 176.948
15.2374 74.7551
15.4175 68.6269
15.5976 68.1892
15.7778 95.4428
15.958 178.097
16.1382 66.3935
16.3185 61.1786
16.4988 57.6721
16.6792 56.4316
16.8596 57.2886
17.04 57.8704
17.2205 67.0662
17.401 77.2532
17.5815 61.3443
17.7622 63.5627
17.9428 77.2817
18.1237 137.47
18.3044 88.7984
18.4852 85.5182
18.666 62.9556
18.8469 60.1067
19.0278 59.2235
19.2088 61.939
19.3898 78.2658
19.5709 56.5049
19.752 55.217
19.9332 58.2372
20.1144 71.4605
20.2957 64.1217
20.477 57.1754
20.6586 51.6058
20.84 50.625
21.0215 50.468
21.203 51.9356
21.3846 51.3131
21.5662 50.6517
21.7479 54.0016
21.9297 66.2905
22.1115 57.4385
22.2933 52.164
22.4753 50.9448
22.6572 50.8644
22.8393 52.9174
23.0214 60.0847
23.2037 50.755
23.3859 51.4174
23.5682 57.4568
23.7505 51.0723
23.9329 46.9024
24.1154 45.8225
24.2979 45.1145
24.4805 44.5
24.6631 44.3913
24.8458 43.6719
25.0286 44.2216
25.2114 46.1267
25.3943 46.3294
25.5773 42.4515
25.7605 41.9704
25.9436 42.0839
26.1268 43.1189
26.31 41.6009
26.4933 42.0484
26.6767 43.7082
26.8601 42.0001
27.0437 40.3541
27.2272 39.9354
27.4109 39.7103
27.5946 39.8093
27.7784 39.2469
27.9623 39.5138
28.1462 40.2709
28.3304 38.6458
28.5145 37.2759
28.6987 36.8441
28.8829 36.6326
29.0673 35.929
29.2517 35.5321
29.4361 35.5091
29.6207 34.4427
29.8053 34.1634
29.99 33.6855
30.1748 33.5962
30.3597 33.533
30.5447 33.2113
30.7297 33.3353
30.915 32.8992
31.1002 32.2343
31.2855 32.0148
31.4708 31.8211
31.6563 31.4611
31.8418 31.2328
32.0275 30.9677
32.2132 30.5383
32.399 29.9993
32.5848 29.5829
32.7708 29.1961
32.9569 29.0143
33.143 28.7221
33.3293 28.3397
33.5158 28.0607
33.7022 27.5636
33.8887 27.3787
34.0753 26.9063
34.262 26.5192
34.4488 26.281
34.6357 25.8135
34.8227 25.6306
35.0098 25.4455
35.1969 25.0408
35.3842 24.851
35.5716 24.6343
35.759 24.3351
35.9468 24.009
36.1345 23.7105
36.3222 23.4514
36.5101 23.2117
36.6981 22.9185
36.8861 22.5973
37.0743 22.3158
37.2626 22.0552
37.451 21.7722
37.6395 21.5545
37.8281 21.2048
38.0168 20.9998
38.2056 20.7038
38.3945 20.4036
38.5837 20.1345
38.7728 19.892
38.9621 19.7236
39.1514 19.4545
39.3409 19.1171
39.5304 18.9313
39.7201 18.7095
39.9099 18.4702
40.0999 18.2658
40.2899 18.0264
40.48 17.8031
40.6703 17.5632
40.8607 17.3843
41.0512 17.1159
41.242 16.8971
41.4327 16.7045
41.6236 16.4326
41.8146 16.2614
42.0057 16.0028
42.1969 15.7761
42.3882 15.6376
42.5797 15.3733
42.7713 15.1808
42.963 14.922
43.1549 14.728
43.3468 14.5332
43.5389 14.3057
43.7312 14.1606
43.9237 13.9649
44.1162 13.7476
44.3088 13.5894
44.5016 13.3784
44.6945 13.2247
44.8875 13.0544
45.0806 12.7833
45.2739 12.6436
45.4673 12.4883
45.6609 12.2939
45.8546 12.1657
46.0484 11.9529
46.2424 11.7959
46.4365 11.6273
46.631 11.4512
46.8254 11.272
47.0199 11.1292
47.2146 10.9159
47.4095 10.8231
47.6044 10.6477
47.7996 10.4846
47.9948 10.3275
48.1902 10.1567
48.3858 10.0258
48.5815 9.88838
48.7774 9.7557
48.9734 9.58601
49.1696 9.42228
49.3661 9.31645
49.5626 9.13136
49.7592 9.04443
49.956 8.88452
50.153 8.74187
50.3501 8.62738
50.5474 8.47472
50.7448 8.38698
50.9424 8.22248
51.1402 8.08864
51.3381 7.98222
51.5362 7.82337
51.7344 7.72483
51.9328 7.53818
52.1316 7.4285
52.3304 7.34915
52.5293 7.20858
52.7284 7.10428
52.9276 6.97649
53.1271 6.86581
53.3267 6.74403
53.5265 6.62773
53.7264 6.47747
53.9266 6.43751
54.1269 6.29228
54.3274 6.17893
54.528 6.00112
54.7289 5.88087
54.9301 5.71056
55.1314 5.4783
55.3328 5.39132
55.5344 5.09458
55.7361 4.99419