File: XRD/Ni3Fe_FD0089.xy
TT I
1.27165 9.2696
1.45013 7.60835
1.62863 6.60815
1.80712 5.74467
1.98562 5.56931
2.16411 5.4083
2.34263 4.38239
2.52115 3.17141
2.69965 5.59442
2.87818 7.81773
3.05672 11.2162
3.23527 14.5497
3.4138 18.4696
3.59237 21.4099
3.77094 24.7801
3.9495 28.347
4.12809 32.5108
4.30669 37.5365
4.4853 44.1905
4.6639 53.3682
4.84253 66.27
5.02118 96.673
5.19981 736.497
5.37848 909.378
5.55716 116.231
5.73586 100.772
5.91455 117.445
6.09328 1832.01
6.27201 102.626
6.45075 67.5376
6.62952 59.5345
6.8083 54.6831
6.98711 52.6741
7.16591 51.9452
7.34475 51.2841
7.5236 63.5181
7.70247 53.5182
7.88135 55.3171
8.06026 59.7564
8.23919 67.0372
8.41812 85.2668
8.59709 680.792
8.77609 141.961
8.9551 85.7901
9.13412 81.3427
9.31318 108.572
9.49226 82.6989
9.67134 87.3857
9.85047 98.2732
10.0296 607.223
10.2088 1349.85
10.388 106.787
10.5672 222.751
10.7465 101.509
10.9257 74.7137
11.105 68.9373
11.2844 64.7822
11.4637 62.137
11.6431 61.0888
11.8225 60.0841
12.002 75.202
12.1814 96.4054
12.3609 87.3727
12.5405 62.0953
12.72 63.6662
12.8996 68.0738
13.0792 79.1875
13.2589 172.784
13.4386 287.101
13.6183 154.559
13.7981 208.958
13.9779 75.3356
14.1577 81.2098
14.3376 67.8281
14.5175 67.1281
14.6974 68.4296
14.8774 119.071
15.0574 206.691
15.2374 68.6281
15.4175 65.0234
15.5976 64.4585
15.7778 107.783
15.958 167.368
16.1382 63.583
16.3185 56.5082
16.4988 54.0171
16.6792 52.8441
16.8596 53.2107
17.04 54.4934
17.2205 62.2228
17.401 80.9778
17.5815 57.6978
17.7622 60.5017
17.9428 85.531
18.1237 91.5675
18.3044 88.8617
18.4852 102.509
18.666 60.3444
18.8469 56.9464
19.0278 55.7097
19.2088 61.4396
19.3898 63.0272
19.5709 58.1553
19.752 52.3121
19.9332 57.4915
20.1144 61.3057
20.2957 58.9067
20.477 62.2334
20.6586 48.7032
20.84 48.5662
21.0215 48.1951
21.203 47.864
21.3846 50.2369
21.5662 47.9216
21.7479 53.1323
21.9297 56.4198
22.1115 56.2877
22.2933 53.3958
22.4753 48.0
22.6572 47.9938
22.8393 50.4923
23.0214 52.9449
23.2037 50.0331
23.3859 51.3871
23.5682 49.7962
23.7505 55.9363
23.9329 44.9118
24.1154 43.5433
24.2979 42.7415
24.4805 42.0898
24.6631 42.3489
24.8458 41.8218
25.0286 42.1089
25.2114 42.7391
25.3943 43.0742
25.5773 41.6496
25.7605 39.9816
25.9436 40.0037
26.1268 40.1835
26.31 40.654
26.4933 40.0025
26.6767 40.3535
26.8601 40.7972
27.0437 39.022
27.2272 38.2268
27.4109 37.7467
27.5946 37.6895
27.7784 37.9914
27.9623 37.4979
28.1462 38.0735
28.3304 37.4484
28.5145 35.6938
28.6987 35.2368
28.8829 34.6744
29.0673 34.5173
29.2517 33.8191
29.4361 33.3534
29.6207 33.0865
29.8053 32.3815
29.99 32.0917
30.1748 31.879
30.3597 32.0027
30.5447 31.6068
30.7297 31.4675
30.915 31.5402
31.1002 30.8724
31.2855 30.4889
31.4708 30.1652
31.6563 30.3222
31.8418 29.693
32.0275 29.3375
32.2132 29.1179
32.399 28.5413
32.5848 28.0919
32.7708 27.7353
32.9569 27.5847
33.143 27.2479
33.3293 26.9941
33.5158 26.8278
33.7022 26.1209
33.8887 25.9545
34.0753 25.6731
34.262 25.1971
34.4488 24.8441
34.6357 24.5309
34.8227 24.317
35.0098 24.0714
35.1969 23.8022
35.3842 23.5209
35.5716 23.3992
35.759 23.1561
35.9468 22.6964
36.1345 22.5542
36.3222 22.2876
36.5101 22.0699
36.6981 21.7959
36.8861 21.4468
37.0743 21.1759
37.2626 20.8535
37.451 20.6793
37.6395 20.5209
37.8281 20.1875
38.0168 19.9098
38.2056 19.5968
38.3945 19.3675
38.5837 19.1337
38.7728 18.9058
38.9621 18.6426
39.1514 18.4229
39.3409 18.1993
39.5304 17.944
39.7201 17.775
39.9099 17.5663
40.0999 17.2934
40.2899 17.1629
40.48 16.8441
40.6703 16.6726
40.8607 16.4532
41.0512 16.2579
41.242 15.9728
41.4327 15.8109
41.6236 15.6413
41.8146 15.4292
42.0057 15.1893
42.1969 14.9556
42.3882 14.8415
42.5797 14.6231
42.7713 14.4051
42.963 14.2185
43.1549 14.0015
43.3468 13.8027
43.5389 13.6438
43.7312 13.4164
43.9237 13.2864
44.1162 13.0455
44.3088 12.8619
44.5016 12.7186
44.6945 12.5345
44.8875 12.388
45.0806 12.1778
45.2739 12.0587
45.4673 11.845
45.6609 11.6604
45.8546 11.5707
46.0484 11.384
46.2424 11.2036
46.4365 11.034
46.631 10.8678
46.8254 10.6996
47.0199 10.5586
47.2146 10.4267
47.4095 10.2719
47.6044 10.1181
47.7996 9.9785
47.9948 9.7806
48.1902 9.65819
48.3858 9.49862
48.5815 9.41834
48.7774 9.24508
48.9734 9.12881
49.1696 9.01557
49.3661 8.85683
49.5626 8.702
49.7592 8.58886
49.956 8.45606
50.153 8.38015
50.3501 8.16282
50.5474 8.08071
50.7448 7.96948
50.9424 7.80421
51.1402 7.711
51.3381 7.56491
51.5362 7.48744
51.7344 7.37909
51.9328 7.22248
52.1316 7.12691
52.3304 6.97631
52.5293 6.87662
52.7284 6.74666
52.9276 6.64191
53.1271 6.49689
53.3267 6.43223
53.5265 6.29809
53.7264 6.23402
53.9266 6.09431
54.1269 5.9675
54.3274 5.81527
54.528 5.64168
54.7289 5.43982
54.9301 5.32438
55.1314 5.17913
55.3328 4.94002
55.5344 4.75732
55.7361 4.64483