File: XRD/Ni3Fe_FD0227.xy
TT I
1.27165 7.91106
1.45013 6.4737
1.62863 5.5289
1.80712 5.30342
1.98562 4.32376
2.16411 4.71716
2.34263 4.15962
2.52115 5.57608
2.69965 5.8312
2.87818 8.38286
3.05672 11.0332
3.23527 14.8409
3.4138 19.055
3.59237 22.3441
3.77094 25.9327
3.9495 30.3537
4.12809 35.3588
4.30669 40.4532
4.4853 48.5044
4.6639 58.2204
4.84253 71.6864
5.02118 96.4346
5.19981 887.409
5.37848 273.359
5.55716 112.433
5.73586 101.195
5.91455 110.667
6.09328 3639.08
6.27201 88.8675
6.45075 71.0742
6.62952 64.2468
6.8083 60.115
6.98711 57.4679
7.16591 56.5114
7.34475 55.8948
7.5236 56.51
7.70247 58.2881
7.88135 60.4012
8.06026 65.5652
8.23919 73.3683
8.41812 90.552
8.59709 1063.75
8.77609 110.83
8.9551 91.1342
9.13412 87.0949
9.31318 88.3053
9.49226 89.7
9.67134 95.9184
9.85047 106.909
10.0296 517.983
10.2088 544.627
10.388 115.272
10.5672 445.223
10.7465 92.4196
10.9257 80.9711
11.105 75.0174
11.2844 70.7322
11.4637 67.6495
11.6431 66.2817
11.8225 65.3291
12.002 68.7026
12.1814 141.333
12.3609 70.0209
12.5405 67.2564
12.72 70.0781
12.8996 74.9658
13.0792 86.2299
13.2589 228.923
13.4386 150.045
13.6183 226.668
13.7981 112.083
13.9779 80.0566
14.1577 75.2954
14.3376 73.2686
14.5175 72.6195
14.6974 74.9527
14.8774 119.571
15.0574 169.786
15.2374 72.6311
15.4175 69.8853
15.5976 69.9331
15.7778 103.739
15.958 175.871
16.1382 63.8015
16.3185 60.2409
16.4988 57.9688
16.6792 57.0838
16.8596 57.3502
17.04 59.4002
17.2205 68.8753
17.401 76.9824
17.5815 62.1784
17.7622 64.5739
17.9428 82.7653
18.1237 138.972
18.3044 90.3246
18.4852 83.8542
18.666 63.3924
18.8469 60.8891
19.0278 59.7948
19.2088 62.6792
19.3898 76.4267
19.5709 57.1772
19.752 56.1545
19.9332 59.4003
20.1144 72.474
20.2957 64.5444
20.477 56.6934
20.6586 52.1104
20.84 51.156
21.0215 51.1992
21.203 52.372
21.3846 51.4886
21.5662 51.818
21.7479 55.6022
21.9297 66.514
22.1115 57.9359
22.2933 52.6551
22.4753 50.9697
22.6572 52.0447
22.8393 54.1123
23.0214 60.0974
23.2037 51.5277
23.3859 52.6998
23.5682 57.8145
23.7505 51.216
23.9329 47.4022
24.1154 46.0638
24.2979 45.5412
24.4805 44.8655
24.6631 44.8238
24.8458 44.306
25.0286 45.0684
25.2114 46.5162
25.3943 46.6491
25.5773 42.8653
25.7605 42.3978
25.9436 42.6702
26.1268 43.5413
26.31 42.2545
26.4933 42.6245
26.6767 43.9506
26.8601 42.3905
27.0437 40.768
27.2272 40.4239
27.4109 40.1399
27.5946 40.2307
27.7784 39.8284
27.9623 39.9447
28.1462 40.5277
28.3304 38.979
28.5145 37.5728
28.6987 37.2576
28.8829 36.9763
29.0673 36.3784
29.2517 35.8762
29.4361 35.6127
29.6207 34.7021
29.8053 34.4359
29.99 33.9955
30.1748 33.8471
30.3597 33.844
30.5447 33.7035
30.7297 33.6566
30.915 33.1079
31.1002 32.5904
31.2855 32.2755
31.4708 32.1488
31.6563 31.8231
31.8418 31.4866
32.0275 31.2661
32.2132 30.814
32.399 30.2699
32.5848 29.8385
32.7708 29.5249
32.9569 29.3589
33.143 29.1021
33.3293 28.5903
33.5158 28.3498
33.7022 27.8531
33.8887 27.4625
34.0753 27.2369
34.262 26.8241
34.4488 26.4993
34.6357 26.092
34.8227 25.8315
35.0098 25.6218
35.1969 25.3502
35.3842 25.1287
35.5716 24.769
35.759 24.5166
35.9468 24.1237
36.1345 23.8754
36.3222 23.7299
36.5101 23.47
36.6981 23.1385
36.8861 22.7545
37.0743 22.5388
37.2626 22.24
37.451 22.0306
37.6395 21.7464
37.8281 21.4389
38.0168 21.1443
38.2056 20.8154
38.3945 20.5606
38.5837 20.3058
38.7728 20.0939
38.9621 19.7901
39.1514 19.5604
39.3409 19.353
39.5304 19.0365
39.7201 18.9304
39.9099 18.6357
40.0999 18.4111
40.2899 18.1718
40.48 17.921
40.6703 17.686
40.8607 17.498
41.0512 17.2345
41.242 16.9972
41.4327 16.8022
41.6236 16.5357
41.8146 16.4177
42.0057 16.1011
42.1969 15.9726
42.3882 15.6786
42.5797 15.5179
42.7713 15.2989
42.963 15.143
43.1549 14.8724
43.3468 14.648
43.5389 14.4372
43.7312 14.2953
43.9237 14.0358
44.1162 13.8437
44.3088 13.6459
44.5016 13.4993
44.6945 13.2785
44.8875 13.1463
45.0806 12.9378
45.2739 12.7283
45.4673 12.5761
45.6609 12.3836
45.8546 12.2388
46.0484 12.0151
46.2424 11.8326
46.4365 11.6725
46.631 11.493
46.8254 11.3186
47.0199 11.1609
47.2146 11.0489
47.4095 10.8462
47.6044 10.6498
47.7996 10.519
47.9948 10.3954
48.1902 10.2214
48.3858 10.0692
48.5815 9.95267
48.7774 9.76982
48.9734 9.62815
49.1696 9.51483
49.3661 9.37205
49.5626 9.2058
49.7592 9.08145
49.956 8.95772
50.153 8.8156
50.3501 8.61612
50.5474 8.52675
50.7448 8.38456
50.9424 8.27409
51.1402 8.15451
51.3381 7.98419
51.5362 7.87191
51.7344 7.74776
51.9328 7.64195
52.1316 7.50553
52.3304 7.36968
52.5293 7.26916
52.7284 7.13427
52.9276 7.04268
53.1271 6.90904
53.3267 6.79729
53.5265 6.62945
53.7264 6.53693
53.9266 6.41838
54.1269 6.30605
54.3274 6.2159
54.528 6.04066
54.7289 5.8855
54.9301 5.68785
55.1314 5.56806
55.3328 5.34216
55.5344 5.0629
55.7361 5.00191