File: XRD/Ni3Fe_FD0064.xy
TT I
1.27165 32.588
1.45013 25.0702
1.62863 21.4025
1.80712 19.8842
1.98562 19.6686
2.16411 19.3335
2.34263 18.7662
2.52115 21.061
2.69965 25.2712
2.87818 34.6592
3.05672 61.9979
3.23527 61.3254
3.4138 32.4218
3.59237 25.815
3.77094 25.2507
3.9495 26.9528
4.12809 29.5922
4.30669 37.4091
4.4853 37.9749
4.6639 44.3089
4.84253 56.9791
5.02118 106.002
5.19981 351.964
5.37848 2647.85
5.55716 146.468
5.73586 103.975
5.91455 123.525
6.09328 642.202
6.27201 190.985
6.45075 63.7745
6.62952 48.4412
6.8083 43.0406
6.98711 42.0943
7.16591 43.2083
7.34475 40.257
7.5236 68.3524
7.70247 43.7082
7.88135 40.2088
8.06026 42.2357
8.23919 48.3618
8.41812 62.3984
8.59709 207.469
8.77609 280.986
8.9551 74.1147
9.13412 67.1841
9.31318 278.666
9.49226 60.6625
9.67134 60.2484
9.85047 67.0269
10.0296 140.276
10.2088 709.387
10.388 93.7676
10.5672 104.583
10.7465 162.449
10.9257 52.6663
11.105 46.9666
11.2844 44.2017
11.4637 41.6958
11.6431 41.0963
11.8225 41.6558
12.002 114.342
12.1814 52.4224
12.3609 76.4847
12.5405 42.8633
12.72 41.4878
12.8996 43.3629
13.0792 51.3308
13.2589 71.8795
13.4386 186.239
13.6183 79.3463
13.7981 168.598
13.9779 53.8678
14.1577 73.9889
14.3376 47.0409
14.5175 43.365
14.6974 43.3927
14.8774 51.7347
15.0574 86.4311
15.2374 54.3967
15.4175 42.9056
15.5976 42.0442
15.7778 48.0274
15.958 70.8838
16.1382 67.4428
16.3185 38.5665
16.4988 35.9168
16.6792 34.8539
16.8596 35.1679
17.04 40.1829
17.2205 36.6706
17.401 43.3098
17.5815 38.4919
17.7622 39.9542
17.9428 42.3046
18.1237 47.604
18.3044 70.2531
18.4852 57.6767
18.666 45.1007
18.8469 37.5245
19.0278 36.2667
19.2088 36.7797
19.3898 47.4127
19.5709 42.0396
19.752 34.3609
19.9332 34.1736
20.1144 35.0898
20.2957 40.6347
20.477 39.2849
20.6586 32.9638
20.84 34.9915
21.0215 30.8255
21.203 30.6078
21.3846 32.0468
21.5662 31.5028
21.7479 31.455
21.9297 32.9364
22.1115 38.9932
22.2933 35.8364
22.4753 31.5132
22.6572 30.9476
22.8393 32.3938
23.0214 32.1408
23.2037 34.9321
23.3859 31.7439
23.5682 32.3254
23.7505 35.7343
23.9329 30.5852
24.1154 29.4361
24.2979 28.17
24.4805 27.6885
24.6631 28.0536
24.8458 27.433
25.0286 27.1157
25.2114 27.3266
25.3943 28.1978
25.5773 28.2976
25.7605 26.399
25.9436 26.4471
26.1268 25.9486
26.31 26.7354
26.4933 25.9079
26.6767 25.8474
26.8601 27.0114
27.0437 26.5758
27.2272 25.2576
27.4109 24.7636
27.5946 24.7495
27.7784 24.9171
27.9623 24.3802
28.1462 24.782
28.3304 24.9633
28.5145 24.1838
28.6987 23.3654
28.8829 22.8315
29.0673 22.7499
29.2517 22.4412
29.4361 22.077
29.6207 21.8927
29.8053 21.557
29.99 21.2654
30.1748 21.0829
30.3597 21.0995
30.5447 20.9374
30.7297 20.7008
30.915 20.8921
31.1002 20.7149
31.2855 20.2987
31.4708 20.1035
31.6563 20.0866
31.8418 19.8431
32.0275 19.5995
32.2132 19.6756
32.399 19.2621
32.5848 18.8581
32.7708 18.6402
32.9569 18.5748
33.143 18.249
33.3293 18.0871
33.5158 18.0145
33.7022 17.6968
33.8887 17.4902
34.0753 17.2864
34.262 17.0095
34.4488 16.8542
34.6357 16.6671
34.8227 16.4435
35.0098 16.218
35.1969 16.0703
35.3842 15.8454
35.5716 15.7776
35.759 15.6858
35.9468 15.4836
36.1345 15.2943
36.3222 15.1351
36.5101 15.0658
36.6981 14.7558
36.8861 14.6079
37.0743 14.382
37.2626 14.2574
37.451 14.0223
37.6395 13.905
37.8281 13.7145
38.0168 13.605
38.2056 13.4402
38.3945 13.1903
38.5837 13.0595
38.7728 12.9038
38.9621 12.7624
39.1514 12.5759
39.3409 12.4931
39.5304 12.3107
39.7201 12.1978
39.9099 12.018
40.0999 11.8836
40.2899 11.7535
40.48 11.604
40.6703 11.4902
40.8607 11.3202
41.0512 11.2109
41.242 11.0504
41.4327 10.866
41.6236 10.7748
41.8146 10.639
42.0057 10.4907
42.1969 10.3068
42.3882 10.2203
42.5797 10.0995
42.7713 9.98134
42.963 9.84648
43.1549 9.69023
43.3468 9.52451
43.5389 9.41937
43.7312 9.30751
43.9237 9.23396
44.1162 9.06553
44.3088 8.93807
44.5016 8.86633
44.6945 8.72213
44.8875 8.57473
45.0806 8.49598
45.2739 8.3418
45.4673 8.22577
45.6609 8.14881
45.8546 8.04513
46.0484 7.93626
46.2424 7.82676
46.4365 7.76233
46.631 7.57559
46.8254 7.47863
47.0199 7.36272
47.2146 7.31066
47.4095 7.15465
47.6044 7.08404
47.7996 6.95263
47.9948 6.8476
48.1902 6.81832
48.3858 6.64769
48.5815 6.61615
48.7774 6.52146
48.9734 6.39841
49.1696 6.3151
49.3661 6.20874
49.5626 6.11762
49.7592 6.04276
49.956 5.96129
50.153 5.89564
50.3501 5.78904
50.5474 5.73218
50.7448 5.62675
50.9424 5.55066
51.1402 5.44922
51.3381 5.37221
51.5362 5.30422
51.7344 5.19275
51.9328 5.14957
52.1316 5.05415
52.3304 4.98328
52.5293 4.88474
52.7284 4.78753
52.9276 4.75724
53.1271 4.6946
53.3267 4.6017
53.5265 4.47872
53.7264 4.40472
53.9266 4.34569
54.1269 4.23501
54.3274 4.14248
54.528 4.05468
54.7289 3.9065
54.9301 3.80973
55.1314 3.7044
55.3328 3.56513
55.5344 3.38405
55.7361 3.27144