File: XRD/Ni3Fe_FD0951.xy
TT I
1.27165 7.48231
1.45013 5.98222
1.62863 5.17669
1.80712 4.76468
1.98562 5.18997
2.16411 4.74392
2.34263 4.89748
2.52115 7.10786
2.69965 8.55203
2.87818 8.6021
3.05672 11.4706
3.23527 15.3078
3.4138 18.8456
3.59237 23.085
3.77094 25.7527
3.9495 29.2349
4.12809 34.3342
4.30669 132.096
4.4853 56.0487
4.6639 55.2186
4.84253 67.064
5.02118 86.0292
5.19981 311.464
5.37848 185.52
5.55716 100.579
5.73586 91.1883
5.91455 92.6656
6.09328 4505.53
6.27201 79.4857
6.45075 68.156
6.62952 62.3215
6.8083 58.3955
6.98711 54.7214
7.16591 56.0364
7.34475 73.1066
7.5236 53.7795
7.70247 55.7807
7.88135 56.7955
8.06026 61.403
8.23919 68.4658
8.41812 83.0226
8.59709 1173.33
8.77609 96.6747
8.9551 89.0201
9.13412 81.533
9.31318 82.8217
9.49226 83.512
9.67134 94.9118
9.85047 99.1933
10.0296 323.162
10.2088 368.706
10.388 101.802
10.5672 530.793
10.7465 84.9156
10.9257 77.2329
11.105 70.4414
11.2844 67.8535
11.4637 63.7265
11.6431 62.6429
11.8225 61.5637
12.002 62.5806
12.1814 157.131
12.3609 67.201
12.5405 63.5779
12.72 67.6238
12.8996 70.025
13.0792 77.7343
13.2589 242.69
13.4386 119.286
13.6183 256.197
13.7981 95.1263
13.9779 74.6492
14.1577 71.0741
14.3376 69.4951
14.5175 67.7974
14.6974 69.162
14.8774 109.594
15.0574 143.532
15.2374 68.8579
15.4175 65.2652
15.5976 64.7327
15.7778 93.7241
15.958 149.135
16.1382 60.3475
16.3185 57.2048
16.4988 54.4478
16.6792 53.6797
16.8596 54.0345
17.04 54.9049
17.2205 66.0418
17.401 68.97
17.5815 58.299
17.7622 60.2353
17.9428 72.1108
18.1237 136.672
18.3044 90.6318
18.4852 74.9687
18.666 59.1868
18.8469 57.2523
19.0278 55.7437
19.2088 58.3623
19.3898 73.895
19.5709 53.2294
19.752 52.4634
19.9332 55.276
20.1144 68.947
20.2957 63.8519
20.477 52.5669
20.6586 48.9587
20.84 47.9456
21.0215 47.8747
21.203 50.1501
21.3846 48.2762
21.5662 48.0417
21.7479 51.7226
21.9297 63.5859
22.1115 55.228
22.2933 48.9705
22.4753 47.8314
22.6572 47.807
22.8393 51.2445
23.0214 55.9398
23.2037 47.8868
23.3859 48.8671
23.5682 56.342
23.7505 47.2477
23.9329 44.5204
24.1154 43.4324
24.2979 42.6673
24.4805 42.2886
24.6631 42.0376
24.8458 41.3935
25.0286 42.0643
25.2114 43.9564
25.3943 43.8026
25.5773 40.3016
25.7605 39.7787
25.9436 40.226
26.1268 41.0513
26.31 39.4578
26.4933 40.1225
26.6767 41.4561
26.8601 39.8156
27.0437 38.2474
27.2272 37.9643
27.4109 37.8711
27.5946 37.7396
27.7784 37.2035
27.9623 37.8344
28.1462 38.3101
28.3304 36.5222
28.5145 35.3762
28.6987 35.0616
28.8829 34.9495
29.0673 34.0727
29.2517 33.6434
29.4361 33.5686
29.6207 32.5344
29.8053 32.341
29.99 32.0184
30.1748 31.9122
30.3597 31.8074
30.5447 31.6099
30.7297 31.6303
30.915 31.0941
31.1002 30.5744
31.2855 30.3744
31.4708 30.3564
31.6563 29.8059
31.8418 29.6976
32.0275 29.3742
32.2132 28.8437
32.399 28.52
32.5848 28.0599
32.7708 27.7192
32.9569 27.5833
33.143 27.365
33.3293 26.9513
33.5158 26.6434
33.7022 26.1177
33.8887 25.8547
34.0753 25.6301
34.262 25.2574
34.4488 24.9314
34.6357 24.5669
34.8227 24.2877
35.0098 24.0841
35.1969 23.8142
35.3842 23.6319
35.5716 23.4578
35.759 23.0797
35.9468 22.7368
36.1345 22.5649
36.3222 22.3349
36.5101 22.0389
36.6981 21.7438
36.8861 21.5019
37.0743 21.2051
37.2626 20.8829
37.451 20.6197
37.6395 20.5232
37.8281 20.151
38.0168 19.9163
38.2056 19.649
38.3945 19.4032
38.5837 19.1224
38.7728 18.9075
38.9621 18.66
39.1514 18.4106
39.3409 18.1743
39.5304 17.9653
39.7201 17.7849
39.9099 17.5478
40.0999 17.3329
40.2899 17.1504
40.48 16.7758
40.6703 16.6433
40.8607 16.5256
41.0512 16.3103
41.242 16.0061
41.4327 15.7556
41.6236 15.5582
41.8146 15.4322
42.0057 15.172
42.1969 14.9298
42.3882 14.8068
42.5797 14.5731
42.7713 14.4372
42.963 14.199
43.1549 14.0132
43.3468 13.8092
43.5389 13.5956
43.7312 13.4266
43.9237 13.2929
44.1162 13.0809
44.3088 12.8687
44.5016 12.6904
44.6945 12.5264
44.8875 12.3248
45.0806 12.1605
45.2739 11.9822
45.4673 11.8228
45.6609 11.6783
45.8546 11.5127
46.0484 11.3327
46.2424 11.2061
46.4365 11.0552
46.631 10.8286
46.8254 10.6968
47.0199 10.5469
47.2146 10.4261
47.4095 10.2112
47.6044 10.059
47.7996 9.90422
47.9948 9.7826
48.1902 9.64305
48.3858 9.47813
48.5815 9.36311
48.7774 9.24557
48.9734 9.08591
49.1696 8.97855
49.3661 8.81408
49.5626 8.68041
49.7592 8.55383
49.956 8.46273
50.153 8.28579
50.3501 8.18767
50.5474 8.06066
50.7448 7.92047
50.9424 7.77424
51.1402 7.68302
51.3381 7.55329
51.5362 7.4056
51.7344 7.33677
51.9328 7.1902
52.1316 7.08871
52.3304 6.93982
52.5293 6.82301
52.7284 6.74229
52.9276 6.60948
53.1271 6.54101
53.3267 6.37493
53.5265 6.27675
53.7264 6.20439
53.9266 6.07597
54.1269 5.9801
54.3274 5.83143
54.528 5.72607
54.7289 5.57941
54.9301 5.35642
55.1314 5.2827
55.3328 5.05076
55.5344 4.88483
55.7361 4.77983