File: XRD/Ni3Fe_FD0699.xy
TT I
1.27165 7.25304
1.45013 6.11065
1.62863 4.9651
1.80712 5.45879
1.98562 4.46791
2.16411 4.50527
2.34263 5.46508
2.52115 7.56501
2.69965 8.23357
2.87818 8.68807
3.05672 11.2671
3.23527 15.1116
3.4138 18.5524
3.59237 23.007
3.77094 25.8013
3.9495 29.1228
4.12809 34.3672
4.30669 113.484
4.4853 54.7458
4.6639 55.6003
4.84253 68.3866
5.02118 87.9324
5.19981 431.588
5.37848 194.181
5.55716 102.559
5.73586 93.0204
5.91455 95.8591
6.09328 4587.3
6.27201 81.2303
6.45075 69.2845
6.62952 62.9499
6.8083 59.0203
6.98711 55.6161
7.16591 55.9855
7.34475 69.1437
7.5236 54.464
7.70247 56.5838
7.88135 57.4124
8.06026 62.8589
8.23919 69.355
8.41812 84.605
8.59709 1255.92
8.77609 98.0725
8.9551 89.7042
9.13412 82.8189
9.31318 84.4948
9.49226 84.971
9.67134 95.5299
9.85047 101.554
10.0296 366.573
10.2088 355.751
10.388 105.897
10.5672 513.731
10.7465 86.1285
10.9257 77.6925
11.105 71.5472
11.2844 68.6907
11.4637 64.7616
11.6431 63.5263
11.8225 62.603
12.002 64.589
12.1814 155.649
12.3609 67.1166
12.5405 64.9156
12.72 68.3304
12.8996 71.3594
13.0792 80.6991
13.2589 249.791
13.4386 120.656
13.6183 259.373
13.7981 93.7053
13.9779 75.5755
14.1577 71.8187
14.3376 70.4675
14.5175 68.8326
14.6974 70.6238
14.8774 114.437
15.0574 139.486
15.2374 69.5715
15.4175 66.2971
15.5976 66.2057
15.7778 97.1878
15.958 149.073
16.1382 61.5174
16.3185 58.0069
16.4988 55.333
16.6792 54.4072
16.8596 54.7529
17.04 55.9988
17.2205 67.4627
17.401 69.9474
17.5815 59.0836
17.7622 61.5129
17.9428 74.4896
18.1237 142.19
18.3044 91.4341
18.4852 75.0123
18.666 60.0618
18.8469 57.9561
19.0278 56.7824
19.2088 59.4934
19.3898 76.1095
19.5709 54.2025
19.752 53.3115
19.9332 56.3223
20.1144 69.9733
20.2957 64.1742
20.477 52.7896
20.6586 49.6148
20.84 48.792
21.0215 48.5606
21.203 50.9363
21.3846 48.7306
21.5662 48.9999
21.7479 52.9973
21.9297 64.8996
22.1115 55.9022
22.2933 49.5532
22.4753 48.7133
22.6572 49.0077
22.8393 52.1118
23.0214 57.1409
23.2037 48.8207
23.3859 49.8214
23.5682 57.2771
23.7505 47.7686
23.9329 45.2867
24.1154 43.8919
24.2979 43.2194
24.4805 42.8366
24.6631 42.8788
24.8458 42.2969
25.0286 43.0007
25.2114 44.6198
25.3943 44.4752
25.5773 40.8242
25.7605 40.3288
25.9436 40.9285
26.1268 41.6405
26.31 40.0316
26.4933 40.818
26.6767 42.0876
26.8601 40.3135
27.0437 38.7497
27.2272 38.5543
27.4109 38.4555
27.5946 38.2482
27.7784 37.8419
27.9623 38.4441
28.1462 38.7654
28.3304 36.9535
28.5145 35.839
28.6987 35.591
28.8829 35.4019
29.0673 34.5446
29.2517 34.3154
29.4361 34.1631
29.6207 33.0963
29.8053 32.8696
29.99 32.5446
30.1748 32.3512
30.3597 32.0748
30.5447 32.1628
30.7297 32.2076
30.915 31.5362
31.1002 31.1375
31.2855 30.7852
31.4708 30.7161
31.6563 30.2168
31.8418 30.0735
32.0275 29.8465
32.2132 29.2619
32.399 28.9226
32.5848 28.4477
32.7708 28.0894
32.9569 28.1083
33.143 27.7411
33.3293 27.36
33.5158 26.9303
33.7022 26.5615
33.8887 26.2156
34.0753 25.9977
34.262 25.6149
34.4488 25.1739
34.6357 24.9626
34.8227 24.6708
35.0098 24.4723
35.1969 24.2355
35.3842 23.9562
35.5716 23.6569
35.759 23.4142
35.9468 23.0699
36.1345 22.8333
36.3222 22.5836
36.5101 22.3673
36.6981 22.1275
36.8861 21.771
37.0743 21.5113
37.2626 21.2393
37.451 20.929
37.6395 20.8319
37.8281 20.4364
38.0168 20.2026
38.2056 19.9363
38.3945 19.6448
38.5837 19.4263
38.7728 19.0872
38.9621 18.9077
39.1514 18.6927
39.3409 18.438
39.5304 18.1782
39.7201 18.0167
39.9099 17.8074
40.0999 17.6061
40.2899 17.333
40.48 17.0878
40.6703 16.8331
40.8607 16.6709
41.0512 16.4561
41.242 16.2229
41.4327 16.0605
41.6236 15.7937
41.8146 15.6658
42.0057 15.3925
42.1969 15.2042
42.3882 15.0414
42.5797 14.7913
42.7713 14.6288
42.963 14.4114
43.1549 14.1983
43.3468 13.9741
43.5389 13.8253
43.7312 13.5806
43.9237 13.5288
44.1162 13.2414
44.3088 13.0977
44.5016 12.876
44.6945 12.7363
44.8875 12.526
45.0806 12.3375
45.2739 12.1863
45.4673 12.0675
45.6609 11.8298
45.8546 11.671
46.0484 11.4834
46.2424 11.3411
46.4365 11.196
46.631 11.0082
46.8254 10.8402
47.0199 10.688
47.2146 10.499
47.4095 10.3717
47.6044 10.2414
47.7996 10.0624
47.9948 9.91252
48.1902 9.77529
48.3858 9.62904
48.5815 9.50861
48.7774 9.4144
48.9734 9.25365
49.1696 9.09622
49.3661 8.9503
49.5626 8.80083
49.7592 8.68616
49.956 8.56143
50.153 8.427
50.3501 8.27555
50.5474 8.18265
50.7448 8.05636
50.9424 7.90291
51.1402 7.82276
51.3381 7.66754
51.5362 7.55254
51.7344 7.41167
51.9328 7.26612
52.1316 7.15747
52.3304 7.05333
52.5293 6.92696
52.7284 6.81399
52.9276 6.70281
53.1271 6.61641
53.3267 6.508
53.5265 6.37522
53.7264 6.23211
53.9266 6.16769
54.1269 6.03387
54.3274 5.94862
54.528 5.82019
54.7289 5.6586
54.9301 5.471
55.1314 5.35471
55.3328 5.1233
55.5344 4.98012
55.7361 4.79558