File: XRD/Ni3Fe_FD0689.xy
TT I
1.27165 7.25708
1.45013 6.00763
1.62863 5.69596
1.80712 4.8697
1.98562 4.62002
2.16411 4.84034
2.34263 5.30536
2.52115 6.67128
2.69965 8.8545
2.87818 8.28721
3.05672 10.6838
3.23527 15.1656
3.4138 18.8479
3.59237 23.1308
3.77094 25.9412
3.9495 29.7032
4.12809 34.3468
4.30669 126.86
4.4853 56.4955
4.6639 55.6856
4.84253 68.4526
5.02118 87.8783
5.19981 424.035
5.37848 191.31
5.55716 102.278
5.73586 93.096
5.91455 95.0585
6.09328 4561.51
6.27201 81.39
6.45075 68.4324
6.62952 62.4901
6.8083 59.0202
6.98711 55.3949
7.16591 55.3895
7.34475 72.3399
7.5236 54.5007
7.70247 56.4993
7.88135 57.4884
8.06026 62.8031
8.23919 69.7185
8.41812 84.6214
8.59709 1230.78
8.77609 98.0808
8.9551 89.459
9.13412 82.641
9.31318 83.7077
9.49226 84.9211
9.67134 95.5617
9.85047 100.339
10.0296 367.282
10.2088 359.027
10.388 105.601
10.5672 514.1
10.7465 86.2701
10.9257 77.6457
11.105 71.5919
11.2844 69.0264
11.4637 64.8609
11.6431 63.591
11.8225 62.5859
12.002 64.1648
12.1814 155.649
12.3609 67.4867
12.5405 64.734
12.72 68.2699
12.8996 71.1193
13.0792 80.4529
13.2589 250.486
13.4386 120.503
13.6183 256.442
13.7981 93.5028
13.9779 75.7829
14.1577 72.0631
14.3376 70.792
14.5175 68.6096
14.6974 70.5287
14.8774 113.945
15.0574 140.358
15.2374 70.0324
15.4175 66.2125
15.5976 65.8702
15.7778 97.1391
15.958 150.309
16.1382 61.7892
16.3185 58.0847
16.4988 55.0914
16.6792 54.3605
16.8596 54.9241
17.04 55.9024
17.2205 67.2681
17.401 69.8606
17.5815 59.1878
17.7622 61.3251
17.9428 74.5589
18.1237 142.713
18.3044 91.5989
18.4852 75.08
18.666 60.2831
18.8469 57.7781
19.0278 56.9264
19.2088 59.4117
19.3898 76.2642
19.5709 54.1007
19.752 53.2348
19.9332 56.4551
20.1144 69.8744
20.2957 64.0323
20.477 52.9793
20.6586 49.6397
20.84 48.853
21.0215 48.5516
21.203 50.7383
21.3846 48.8595
21.5662 48.9674
21.7479 52.8801
21.9297 64.7239
22.1115 55.9397
22.2933 49.7138
22.4753 48.7568
22.6572 49.0023
22.8393 52.1011
23.0214 56.9569
23.2037 48.715
23.3859 49.9023
23.5682 57.3796
23.7505 47.8976
23.9329 45.0903
24.1154 43.9839
24.2979 43.4618
24.4805 42.8393
24.6631 42.6879
24.8458 42.273
25.0286 42.8692
25.2114 44.5363
25.3943 44.3866
25.5773 40.754
25.7605 40.3998
25.9436 40.8533
26.1268 41.5781
26.31 39.9703
26.4933 40.6891
26.6767 42.0565
26.8601 40.2744
27.0437 38.8899
27.2272 38.4537
27.4109 38.3993
27.5946 38.3594
27.7784 37.7672
27.9623 38.5489
28.1462 38.8388
28.3304 37.0459
28.5145 35.9818
28.6987 35.6275
28.8829 35.3837
29.0673 34.6286
29.2517 34.2313
29.4361 34.1044
29.6207 33.1356
29.8053 32.7849
29.99 32.4559
30.1748 32.4658
30.3597 32.1878
30.5447 32.1133
30.7297 32.1119
30.915 31.6121
31.1002 31.2059
31.2855 30.7782
31.4708 30.8535
31.6563 30.2023
31.8418 30.0759
32.0275 29.868
32.2132 29.3399
32.399 28.8223
32.5848 28.4622
32.7708 28.1405
32.9569 27.9152
33.143 27.7687
33.3293 27.383
33.5158 27.0121
33.7022 26.5548
33.8887 26.2656
34.0753 25.9827
34.262 25.6504
34.4488 25.2218
34.6357 24.9184
34.8227 24.6225
35.0098 24.4976
35.1969 24.2221
35.3842 23.9169
35.5716 23.7662
35.759 23.4415
35.9468 23.1376
36.1345 22.8342
36.3222 22.6125
36.5101 22.3646
36.6981 22.1204
36.8861 21.8012
37.0743 21.3869
37.2626 21.1995
37.451 20.9125
37.6395 20.7595
37.8281 20.4856
38.0168 20.1765
38.2056 19.9401
38.3945 19.6054
38.5837 19.4304
38.7728 19.108
38.9621 18.9527
39.1514 18.6633
39.3409 18.4193
39.5304 18.3141
39.7201 18.0358
39.9099 17.8306
40.0999 17.6073
40.2899 17.3189
40.48 17.0914
40.6703 16.9031
40.8607 16.6997
41.0512 16.5234
41.242 16.2033
41.4327 15.9896
41.6236 15.7785
41.8146 15.6624
42.0057 15.4146
42.1969 15.185
42.3882 15.0427
42.5797 14.813
42.7713 14.6059
42.963 14.3958
43.1549 14.1849
43.3468 13.9338
43.5389 13.774
43.7312 13.5555
43.9237 13.4551
44.1162 13.2444
44.3088 13.0675
44.5016 12.885
44.6945 12.6945
44.8875 12.5325
45.0806 12.3435
45.2739 12.1891
45.4673 12.0054
45.6609 11.8378
45.8546 11.6588
46.0484 11.5294
46.2424 11.3668
46.4365 11.1931
46.631 11.0039
46.8254 10.847
47.0199 10.6817
47.2146 10.5574
47.4095 10.3884
47.6044 10.2709
47.7996 10.0828
47.9948 9.92872
48.1902 9.78544
48.3858 9.66517
48.5815 9.50633
48.7774 9.39408
48.9734 9.25975
49.1696 9.08255
49.3661 8.95182
49.5626 8.84116
49.7592 8.69574
49.956 8.55414
50.153 8.40459
50.3501 8.28152
50.5474 8.17565
50.7448 8.07572
50.9424 7.91953
51.1402 7.81755
51.3381 7.6419
51.5362 7.51353
51.7344 7.40262
51.9328 7.26613
52.1316 7.12684
52.3304 7.06913
52.5293 6.93047
52.7284 6.84008
52.9276 6.69753
53.1271 6.59233
53.3267 6.46863
53.5265 6.39531
53.7264 6.26477
53.9266 6.15537
54.1269 6.03752
54.3274 5.93402
54.528 5.78517
54.7289 5.63222
54.9301 5.42577
55.1314 5.3768
55.3328 5.18177
55.5344 4.90845
55.7361 4.8238