File: XRD/Ni3Fe_FD0667.xy
TT I
1.27165 7.54769
1.45013 6.08489
1.62863 5.87216
1.80712 4.99186
1.98562 5.35033
2.16411 5.35203
2.34263 5.62426
2.52115 7.43232
2.69965 8.22518
2.87818 8.92316
3.05672 11.3679
3.23527 14.8995
3.4138 18.747
3.59237 23.7593
3.77094 25.9465
3.9495 29.5487
4.12809 34.4077
4.30669 179.591
4.4853 61.4011
4.6639 55.1829
4.84253 67.7502
5.02118 87.3504
5.19981 364.719
5.37848 180.813
5.55716 101.73
5.73586 92.098
5.91455 94.412
6.09328 4504.23
6.27201 81.7602
6.45075 67.1624
6.62952 62.375
6.8083 58.35
6.98711 55.6593
7.16591 55.0763
7.34475 83.9048
7.5236 54.4805
7.70247 55.7963
7.88135 57.4242
8.06026 61.9501
8.23919 69.6172
8.41812 84.9531
8.59709 1221.03
8.77609 98.2566
8.9551 89.7981
9.13412 81.6926
9.31318 82.1339
9.49226 84.1921
9.67134 96.7045
9.85047 99.809
10.0296 355.409
10.2088 370.817
10.388 104.292
10.5672 515.181
10.7465 86.0616
10.9257 77.7492
11.105 71.9373
11.2844 69.5662
11.4637 64.7957
11.6431 63.3966
11.8225 62.4156
12.002 63.6146
12.1814 154.83
12.3609 69.1181
12.5405 64.2773
12.72 69.5662
12.8996 70.8616
13.0792 79.2035
13.2589 243.902
13.4386 120.899
13.6183 253.155
13.7981 94.7331
13.9779 75.6311
14.1577 72.199
14.3376 71.1294
14.5175 68.5938
14.6974 70.4125
14.8774 111.395
15.0574 142.511
15.2374 70.4142
15.4175 66.5341
15.5976 65.8976
15.7778 95.9377
15.958 154.028
16.1382 61.9793
16.3185 58.4798
16.4988 55.454
16.6792 54.2329
16.8596 55.2265
17.04 55.7864
17.2205 66.955
17.401 70.1282
17.5815 59.054
17.7622 61.1453
17.9428 73.9698
18.1237 142.842
18.3044 91.0362
18.4852 75.8114
18.666 60.1023
18.8469 57.8203
19.0278 56.8183
19.2088 59.5456
19.3898 76.8403
19.5709 53.9948
19.752 53.3421
19.9332 56.2195
20.1144 69.7702
20.2957 64.2608
20.477 52.9816
20.6586 49.4725
20.84 48.9382
21.0215 48.4991
21.203 50.8146
21.3846 48.6976
21.5662 48.7361
21.7479 52.5237
21.9297 64.9039
22.1115 55.8379
22.2933 49.6886
22.4753 48.7016
22.6572 48.6471
22.8393 52.0213
23.0214 57.0464
23.2037 48.6534
23.3859 49.6792
23.5682 57.0823
23.7505 47.8868
23.9329 45.1587
24.1154 44.0071
24.2979 43.3098
24.4805 42.7017
24.6631 42.5625
24.8458 41.9691
25.0286 42.9323
25.2114 44.6763
25.3943 44.4013
25.5773 40.7882
25.7605 40.2602
25.9436 40.7405
26.1268 41.6919
26.31 40.0038
26.4933 40.5998
26.6767 42.1573
26.8601 40.2993
27.0437 38.746
27.2272 38.4768
27.4109 38.3309
27.5946 38.2589
27.7784 37.9093
27.9623 38.3046
28.1462 38.7815
28.3304 37.0351
28.5145 35.9004
28.6987 35.5275
28.8829 35.4423
29.0673 34.6048
29.2517 34.3018
29.4361 34.044
29.6207 33.0016
29.8053 32.803
29.99 32.5092
30.1748 32.4106
30.3597 32.1585
30.5447 32.1598
30.7297 32.133
30.915 31.5565
31.1002 31.0044
31.2855 30.8203
31.4708 30.8921
31.6563 30.3411
31.8418 30.0001
32.0275 29.9338
32.2132 29.3284
32.399 28.8417
32.5848 28.4503
32.7708 28.1115
32.9569 27.9533
33.143 27.7005
33.3293 27.3475
33.5158 26.9004
33.7022 26.6025
33.8887 26.2479
34.0753 25.937
34.262 25.6213
34.4488 25.1938
34.6357 24.8999
34.8227 24.6686
35.0098 24.4261
35.1969 24.1331
35.3842 24.033
35.5716 23.7969
35.759 23.4282
35.9468 23.0802
36.1345 22.8322
36.3222 22.5615
36.5101 22.347
36.6981 22.0333
36.8861 21.82
37.0743 21.4936
37.2626 21.1876
37.451 21.0101
37.6395 20.8119
37.8281 20.4371
38.0168 20.1924
38.2056 19.9286
38.3945 19.6664
38.5837 19.4617
38.7728 19.2273
38.9621 18.8789
39.1514 18.7084
39.3409 18.4594
39.5304 18.177
39.7201 17.9947
39.9099 17.8162
40.0999 17.6059
40.2899 17.292
40.48 17.0797
40.6703 16.9393
40.8607 16.7375
41.0512 16.5412
41.242 16.2302
41.4327 16.0569
41.6236 15.8076
41.8146 15.6225
42.0057 15.3923
42.1969 15.1935
42.3882 15.0147
42.5797 14.7832
42.7713 14.6242
42.963 14.4169
43.1549 14.2367
43.3468 13.9705
43.5389 13.8066
43.7312 13.6494
43.9237 13.438
44.1162 13.2959
44.3088 13.0533
44.5016 12.9128
44.6945 12.685
44.8875 12.5359
45.0806 12.3348
45.2739 12.1584
45.4673 12.0704
45.6609 11.8057
45.8546 11.6643
46.0484 11.5049
46.2424 11.3428
46.4365 11.2273
46.631 11.0358
46.8254 10.8525
47.0199 10.6961
47.2146 10.548
47.4095 10.4008
47.6044 10.1939
47.7996 10.0831
47.9948 9.92901
48.1902 9.80275
48.3858 9.64312
48.5815 9.51978
48.7774 9.40079
48.9734 9.24902
49.1696 9.09961
49.3661 8.9315
49.5626 8.77617
49.7592 8.69357
49.956 8.56548
50.153 8.42931
50.3501 8.3131
50.5474 8.19458
50.7448 8.04448
50.9424 7.90233
51.1402 7.78967
51.3381 7.64221
51.5362 7.52746
51.7344 7.43324
51.9328 7.31959
52.1316 7.17334
52.3304 7.02997
52.5293 6.9173
52.7284 6.84575
52.9276 6.71433
53.1271 6.61181
53.3267 6.47309
53.5265 6.34595
53.7264 6.24598
53.9266 6.19924
54.1269 6.04873
54.3274 5.92856
54.528 5.7909
54.7289 5.65855
54.9301 5.49463
55.1314 5.34921
55.3328 5.14228
55.5344 4.96483
55.7361 4.79427