File: XRD/Ni3Fe_FD0143.xy
TT I
1.27165 7.75939
1.45013 6.92251
1.62863 5.58783
1.80712 5.1268
1.98562 4.76511
2.16411 4.68742
2.34263 4.7115
2.52115 4.51542
2.69965 5.30397
2.87818 7.50467
3.05672 11.3316
3.23527 14.848
3.4138 18.4549
3.59237 21.6122
3.77094 24.7286
3.9495 28.477
4.12809 32.2595
4.30669 37.5179
4.4853 44.3875
4.6639 53.4428
4.84253 65.6794
5.02118 90.1748
5.19981 554.021
5.37848 467.625
5.55716 107.666
5.73586 95.2433
5.91455 105.168
6.09328 2657.18
6.27201 89.6428
6.45075 66.1817
6.62952 59.5969
6.8083 55.2591
6.98711 53.4819
7.16591 51.8093
7.34475 51.7699
7.5236 55.7853
7.70247 53.4141
7.88135 55.8968
8.06026 60.1864
8.23919 67.7985
8.41812 83.0864
8.59709 871.874
8.77609 116.633
8.9551 84.7716
9.13412 81.1461
9.31318 86.6366
9.49226 82.8625
9.67134 88.2608
9.85047 97.9533
10.0296 546.098
10.2088 1006.18
10.388 104.109
10.5672 324.542
10.7465 90.3093
10.9257 75.0894
11.105 69.6016
11.2844 65.6626
11.4637 62.9984
11.6431 61.6742
11.8225 60.6977
12.002 65.3047
12.1814 116.232
12.3609 75.3321
12.5405 62.5865
12.72 64.8655
12.8996 69.118
13.0792 78.7017
13.2589 201.813
13.4386 215.121
13.6183 189.798
13.7981 155.537
13.9779 75.3309
14.1577 73.9736
14.3376 68.6857
14.5175 68.0784
14.6974 69.3527
14.8774 120.732
15.0574 203.722
15.2374 68.5307
15.4175 65.6905
15.5976 65.3174
15.7778 107.206
15.958 184.723
16.1382 61.5562
16.3185 56.852
16.4988 54.707
16.6792 53.6163
16.8596 53.7849
17.04 54.7924
17.2205 64.9046
17.401 80.2866
17.5815 58.7472
17.7622 61.0362
17.9428 83.5809
18.1237 113.117
18.3044 88.2309
18.4852 95.4846
18.666 60.4974
18.8469 57.8341
19.0278 56.3256
19.2088 61.5356
19.3898 68.6805
19.5709 56.2942
19.752 53.005
19.9332 57.971
20.1144 66.3144
20.2957 60.829
20.477 59.1147
20.6586 49.5467
20.84 48.8228
21.0215 48.6641
21.203 49.5555
21.3846 50.4171
21.5662 48.6693
21.7479 53.9009
21.9297 61.7003
22.1115 56.1509
22.2933 52.4519
22.4753 48.6804
22.6572 48.8174
22.8393 51.7562
23.0214 56.8543
23.2037 49.8103
23.3859 51.5505
23.5682 53.1405
23.7505 53.4502
23.9329 45.5199
24.1154 44.0351
24.2979 43.5807
24.4805 42.9067
24.6631 42.89
24.8458 42.3931
25.0286 42.9123
25.2114 44.5137
25.3943 44.5593
25.5773 41.5793
25.7605 40.5939
25.9436 40.9113
26.1268 41.4791
26.31 40.8903
26.4933 40.7178
26.6767 41.8721
26.8601 41.234
27.0437 39.3103
27.2272 38.7119
27.4109 38.4174
27.5946 38.6041
27.7784 38.3974
27.9623 38.315
28.1462 39.3588
28.3304 37.853
28.5145 36.1856
28.6987 35.7889
28.8829 35.2537
29.0673 35.0007
29.2517 34.4446
29.4361 34.2361
29.6207 33.4884
29.8053 33.0405
29.99 32.7319
30.1748 32.4563
30.3597 32.451
30.5447 32.2411
30.7297 32.2224
30.915 32.0879
31.1002 31.3352
31.2855 30.9791
31.4708 30.7857
31.6563 30.7692
31.8418 30.2487
32.0275 30.0772
32.2132 29.6162
32.399 29.1025
32.5848 28.6547
32.7708 28.2943
32.9569 28.0722
33.143 27.8663
33.3293 27.6539
33.5158 27.233
33.7022 26.7026
33.8887 26.4773
34.0753 26.0262
34.262 25.6802
34.4488 25.4781
34.6357 25.0491
34.8227 24.8037
35.0098 24.5715
35.1969 24.2804
35.3842 23.9953
35.5716 23.9182
35.759 23.5757
35.9468 23.2417
36.1345 23.0372
36.3222 22.8096
36.5101 22.5698
36.6981 22.2243
36.8861 21.9448
37.0743 21.5884
37.2626 21.3463
37.451 21.0647
37.6395 20.9279
37.8281 20.5657
38.0168 20.3097
38.2056 19.9942
38.3945 19.7856
38.5837 19.4521
38.7728 19.2632
38.9621 19.035
39.1514 18.774
39.3409 18.5609
39.5304 18.3052
39.7201 18.1143
39.9099 17.911
40.0999 17.7043
40.2899 17.4505
40.48 17.2188
40.6703 16.9558
40.8607 16.8702
41.0512 16.632
41.242 16.4154
41.4327 16.099
41.6236 15.8919
41.8146 15.744
42.0057 15.4957
42.1969 15.3033
42.3882 15.0668
42.5797 14.8783
42.7713 14.6489
42.963 14.4904
43.1549 14.3202
43.3468 14.069
43.5389 13.9278
43.7312 13.7099
43.9237 13.4996
44.1162 13.3539
44.3088 13.0963
44.5016 12.9466
44.6945 12.7225
44.8875 12.6342
45.0806 12.3967
45.2739 12.2948
45.4673 12.0741
45.6609 11.885
45.8546 11.7471
46.0484 11.5593
46.2424 11.3792
46.4365 11.2626
46.631 11.0885
46.8254 10.8772
47.0199 10.7299
47.2146 10.5845
47.4095 10.3984
47.6044 10.2381
47.7996 10.1374
47.9948 9.97327
48.1902 9.81898
48.3858 9.67833
48.5815 9.57719
48.7774 9.43405
48.9734 9.29835
49.1696 9.15026
49.3661 8.96973
49.5626 8.8402
49.7592 8.71553
49.956 8.61024
50.153 8.47451
50.3501 8.32972
50.5474 8.19438
50.7448 8.08117
50.9424 7.95289
51.1402 7.83354
51.3381 7.71411
51.5362 7.62827
51.7344 7.44104
51.9328 7.2865
52.1316 7.18958
52.3304 7.10536
52.5293 6.94949
52.7284 6.85204
52.9276 6.70236
53.1271 6.62928
53.3267 6.53118
53.5265 6.38703
53.7264 6.26282
53.9266 6.1933
54.1269 6.05311
54.3274 5.96615
54.528 5.78529
54.7289 5.5918
54.9301 5.43366
55.1314 5.28493
55.3328 5.03654
55.5344 4.8977
55.7361 4.75474