File: XRD/Ni3Fe_FD0395.xy
TT I
1.27165 7.50937
1.45013 6.26935
1.62863 5.27607
1.80712 5.22886
1.98562 4.95813
2.16411 4.84503
2.34263 5.17263
2.52115 6.40196
2.69965 7.56031
2.87818 8.66756
3.05672 11.1661
3.23527 14.7712
3.4138 19.3811
3.59237 24.8481
3.77094 26.8197
3.9495 30.6707
4.12809 35.5805
4.30669 237.604
4.4853 68.5982
4.6639 56.0536
4.84253 68.6502
5.02118 89.3978
5.19981 443.107
5.37848 225.17
5.55716 105.392
5.73586 94.4805
5.91455 98.246
6.09328 4025.26
6.27201 86.8413
6.45075 69.1489
6.62952 64.2382
6.8083 60.183
6.98711 57.2839
7.16591 56.5663
7.34475 97.4799
7.5236 56.159
7.70247 57.6509
7.88135 59.3144
8.06026 63.6766
8.23919 71.2447
8.41812 87.4869
8.59709 1104.85
8.77609 104.445
8.9551 94.6506
9.13412 83.7983
9.31318 84.7232
9.49226 86.3262
9.67134 101.92
9.85047 102.177
10.0296 374.465
10.2088 512.031
10.388 108.26
10.5672 476.764
10.7465 89.7004
10.9257 80.4681
11.105 73.791
11.2844 72.3985
11.4637 66.1924
11.6431 64.9931
11.8225 64.3151
12.002 65.2369
12.1814 147.493
12.3609 74.0185
12.5405 65.95
12.72 72.4381
12.8996 72.7753
13.0792 80.8759
13.2589 231.791
13.4386 139.075
13.6183 234.82
13.7981 106.895
13.9779 77.8087
14.1577 74.4733
14.3376 73.6958
14.5175 70.5741
14.6974 72.0439
14.8774 112.123
15.0574 166.387
15.2374 73.1359
15.4175 67.8827
15.5976 67.5332
15.7778 96.6622
15.958 171.402
16.1382 64.7939
16.3185 60.2742
16.4988 56.8367
16.6792 55.9323
16.8596 56.7451
17.04 57.2398
17.2205 67.8463
17.401 74.7818
17.5815 60.657
17.7622 62.9678
17.9428 76.5406
18.1237 137.74
18.3044 90.6453
18.4852 82.3416
18.666 62.0071
18.8469 59.5226
19.0278 58.2674
19.2088 61.2102
19.3898 76.999
19.5709 55.7866
19.752 54.5933
19.9332 57.6976
20.1144 70.5956
20.2957 64.3427
20.477 55.8831
20.6586 50.9445
20.84 50.0965
21.0215 49.8341
21.203 51.8567
21.3846 50.4899
21.5662 50.0481
21.7479 53.9346
21.9297 65.5747
22.1115 57.1223
22.2933 51.474
22.4753 50.2587
22.6572 50.0787
22.8393 52.9417
23.0214 59.036
23.2037 50.2475
23.3859 51.0664
23.5682 57.3777
23.7505 50.1968
23.9329 46.3468
24.1154 45.3493
24.2979 44.5305
24.4805 43.8544
24.6631 43.997
24.8458 43.4161
25.0286 43.8324
25.2114 45.8042
25.3943 45.7994
25.5773 41.9831
25.7605 41.5431
25.9436 41.9661
26.1268 42.6323
26.31 41.3166
26.4933 41.751
26.6767 43.1261
26.8601 41.4648
27.0437 39.8584
27.2272 39.5313
27.4109 39.3016
27.5946 39.3386
27.7784 38.7441
27.9623 39.2666
28.1462 39.7913
28.3304 38.225
28.5145 36.895
28.6987 36.5512
28.8829 36.2527
29.0673 35.4979
29.2517 35.1421
29.4361 35.0856
29.6207 33.9766
29.8053 33.7232
29.99 33.4487
30.1748 33.2497
30.3597 33.1136
30.5447 32.9296
30.7297 32.9809
30.915 32.4578
31.1002 31.8709
31.2855 31.5346
31.4708 31.4839
31.6563 31.2049
31.8418 30.9037
32.0275 30.6714
32.2132 30.1181
32.399 29.6075
32.5848 29.2575
32.7708 28.8664
32.9569 28.7295
33.143 28.4223
33.3293 28.0908
33.5158 27.6916
33.7022 27.1915
33.8887 26.9428
34.0753 26.6566
34.262 26.2682
34.4488 25.9191
34.6357 25.615
34.8227 25.3195
35.0098 25.0806
35.1969 24.803
35.3842 24.6408
35.5716 24.4648
35.759 24.0354
35.9468 23.6979
36.1345 23.3762
36.3222 23.1838
36.5101 22.9362
36.6981 22.6563
36.8861 22.4144
37.0743 22.0405
37.2626 21.8132
37.451 21.5368
37.6395 21.335
37.8281 20.9725
38.0168 20.6762
38.2056 20.5291
38.3945 20.207
38.5837 19.9523
38.7728 19.7248
38.9621 19.4649
39.1514 19.169
39.3409 18.9356
39.5304 18.7289
39.7201 18.4319
39.9099 18.2566
40.0999 18.0491
40.2899 17.7703
40.48 17.5853
40.6703 17.2674
40.8607 17.1435
41.0512 16.9311
41.242 16.6899
41.4327 16.514
41.6236 16.197
41.8146 15.9956
42.0057 15.8135
42.1969 15.6339
42.3882 15.5082
42.5797 15.2173
42.7713 15.0051
42.963 14.7698
43.1549 14.6011
43.3468 14.395
43.5389 14.1541
43.7312 14.001
43.9237 13.7847
44.1162 13.6134
44.3088 13.3982
44.5016 13.2543
44.6945 13.0408
44.8875 12.8467
45.0806 12.6955
45.2739 12.4865
45.4673 12.3793
45.6609 12.1477
45.8546 12.0137
46.0484 11.8463
46.2424 11.6654
46.4365 11.4987
46.631 11.3031
46.8254 11.1164
47.0199 10.9567
47.2146 10.8199
47.4095 10.6282
47.6044 10.4597
47.7996 10.348
47.9948 10.2186
48.1902 10.0634
48.3858 9.89233
48.5815 9.74832
48.7774 9.61644
48.9734 9.40775
49.1696 9.31782
49.3661 9.18102
49.5626 9.04049
49.7592 8.91865
49.956 8.77697
50.153 8.62671
50.3501 8.49748
50.5474 8.39884
50.7448 8.24058
50.9424 8.17844
51.1402 7.98615
51.3381 7.81951
51.5362 7.75222
51.7344 7.59386
51.9328 7.4897
52.1316 7.34766
52.3304 7.23451
52.5293 7.10802
52.7284 7.01654
52.9276 6.88
53.1271 6.79022
53.3267 6.66753
53.5265 6.55037
53.7264 6.43716
53.9266 6.3212
54.1269 6.19493
54.3274 6.06981
54.528 5.95995
54.7289 5.75114
54.9301 5.60006
55.1314 5.51436
55.3328 5.29543
55.5344 5.11859
55.7361 4.94741