File: XRD/Ni3Fe_FD0200.xy
TT I
1.27165 8.40498
1.45013 6.7026
1.62863 5.50855
1.80712 5.83886
1.98562 5.34982
2.16411 4.99605
2.34263 4.32479
2.52115 4.82527
2.69965 5.93573
2.87818 8.04979
3.05672 10.9852
3.23527 15.6125
3.4138 19.1301
3.59237 22.8328
3.77094 25.8813
3.9495 30.3244
4.12809 35.5796
4.30669 40.607
4.4853 48.9381
4.6639 58.4745
4.84253 71.7246
5.02118 97.8305
5.19981 882.201
5.37848 298.501
5.55716 113.287
5.73586 101.684
5.91455 112.317
6.09328 3490.56
6.27201 90.8556
6.45075 71.1986
6.62952 64.1728
6.8083 59.7651
6.98711 57.4635
7.16591 56.4684
7.34475 56.2876
7.5236 58.2553
7.70247 58.1503
7.88135 60.6781
8.06026 65.4475
8.23919 73.3345
8.41812 91.3163
8.59709 1021.8
8.77609 112.757
8.9551 90.8701
9.13412 87.7674
9.31318 89.2731
9.49226 90.2763
9.67134 95.9065
9.85047 106.945
10.0296 534.765
10.2088 631.93
10.388 114.694
10.5672 421.906
10.7465 93.6183
10.9257 81.1374
11.105 75.2542
11.2844 71.0284
11.4637 67.9447
11.6431 66.5427
11.8225 65.3446
12.002 69.101
12.1814 135.691
12.3609 71.4343
12.5405 67.6277
12.72 69.9505
12.8996 74.8625
13.0792 86.3617
13.2589 222.625
13.4386 156.942
13.6183 219.079
13.7981 116.703
13.9779 80.469
14.1577 76.5436
14.3376 73.6266
14.5175 72.9803
14.6974 74.7221
14.8774 119.197
15.0574 179.196
15.2374 72.7212
15.4175 70.2563
15.5976 70.058
15.7778 103.513
15.958 178.434
16.1382 64.1328
16.3185 60.5971
16.4988 58.3709
16.6792 57.3769
16.8596 57.4443
17.04 59.1721
17.2205 68.6109
17.401 78.609
17.5815 62.3049
17.7622 64.7467
17.9428 83.9786
18.1237 135.54
18.3044 89.8293
18.4852 85.7672
18.666 63.6977
18.8469 61.2154
19.0278 59.7821
19.2088 63.1755
19.3898 75.26
19.5709 57.4888
19.752 56.2036
19.9332 59.7915
20.1144 72.2067
20.2957 64.0747
20.477 57.4971
20.6586 52.2505
20.84 51.5444
21.0215 51.5391
21.203 52.7045
21.3846 51.9598
21.5662 52.0085
21.7479 55.3833
21.9297 66.1603
22.1115 57.7983
22.2933 52.9172
22.4753 50.9318
22.6572 52.2271
22.8393 54.219
23.0214 59.9108
23.2037 51.5726
23.3859 52.8589
23.5682 57.1602
23.7505 51.7288
23.9329 47.7805
24.1154 46.3426
24.2979 45.8355
24.4805 45.0092
24.6631 45.1037
24.8458 44.5655
25.0286 45.2069
25.2114 46.5752
25.3943 46.7445
25.5773 43.01
25.7605 42.511
25.9436 42.7771
26.1268 43.6136
26.31 42.378
26.4933 42.8196
26.6767 43.9842
26.8601 42.4973
27.0437 40.9368
27.2272 40.633
27.4109 40.2167
27.5946 40.2748
27.7784 39.9652
27.9623 40.0681
28.1462 40.7285
28.3304 39.1016
28.5145 37.7391
28.6987 37.4341
28.8829 37.0281
29.0673 36.4123
29.2517 35.8732
29.4361 35.7763
29.6207 34.8091
29.8053 34.434
29.99 34.1506
30.1748 34.0536
30.3597 33.9402
30.5447 33.6501
30.7297 33.7559
30.915 33.2024
31.1002 32.6685
31.2855 32.4156
31.4708 32.3001
31.6563 31.915
31.8418 31.6137
32.0275 31.3468
32.2132 30.9305
32.399 30.3759
32.5848 29.8638
32.7708 29.4982
32.9569 29.3351
33.143 29.0593
33.3293 28.7307
33.5158 28.4199
33.7022 27.8804
33.8887 27.6056
34.0753 27.2586
34.262 26.9142
34.4488 26.5631
34.6357 26.1529
34.8227 25.9208
35.0098 25.6997
35.1969 25.3843
35.3842 25.0968
35.5716 24.8446
35.759 24.5707
35.9468 24.2012
36.1345 24.0265
36.3222 23.7667
36.5101 23.5265
36.6981 23.1315
36.8861 22.8583
37.0743 22.5621
37.2626 22.2679
37.451 21.9848
37.6395 21.8574
37.8281 21.4726
38.0168 21.1793
38.2056 20.9662
38.3945 20.5833
38.5837 20.3573
38.7728 20.1
38.9621 19.8512
39.1514 19.6283
39.3409 19.3582
39.5304 19.1298
39.7201 18.9177
39.9099 18.724
40.0999 18.4202
40.2899 18.1986
40.48 17.9829
40.6703 17.7121
40.8607 17.5935
41.0512 17.3048
41.242 17.0425
41.4327 16.828
41.6236 16.597
41.8146 16.4056
42.0057 16.153
42.1969 15.9277
42.3882 15.7752
42.5797 15.4561
42.7713 15.3211
42.963 15.1356
43.1549 14.9242
43.3468 14.7257
43.5389 14.5087
43.7312 14.288
43.9237 14.0755
44.1162 13.9048
44.3088 13.723
44.5016 13.5001
44.6945 13.3369
44.8875 13.1107
45.0806 12.9414
45.2739 12.7675
45.4673 12.6051
45.6609 12.4192
45.8546 12.2314
46.0484 12.0405
46.2424 11.8976
46.4365 11.7511
46.631 11.4978
46.8254 11.3806
47.0199 11.2282
47.2146 11.0821
47.4095 10.8509
47.6044 10.6875
47.7996 10.5694
47.9948 10.3865
48.1902 10.2422
48.3858 10.0997
48.5815 9.95819
48.7774 9.81482
48.9734 9.69636
49.1696 9.5435
49.3661 9.39645
49.5626 9.22739
49.7592 9.09146
49.956 8.9584
50.153 8.83089
50.3501 8.66597
50.5474 8.60418
50.7448 8.41666
50.9424 8.30093
51.1402 8.18311
51.3381 8.06051
51.5362 7.90863
51.7344 7.76388
51.9328 7.58827
52.1316 7.46368
52.3304 7.41672
52.5293 7.26583
52.7284 7.17077
52.9276 6.96657
53.1271 6.91633
53.3267 6.79083
53.5265 6.68859
53.7264 6.56194
53.9266 6.43553
54.1269 6.34566
54.3274 6.18772
54.528 6.05014
54.7289 5.88404
54.9301 5.70546
55.1314 5.52419
55.3328 5.29337
55.5344 5.08083
55.7361 4.98347