File: XRD/Ni3Fe_FD0828.xy
TT I
1.27165 7.18212
1.45013 5.84417
1.62863 5.27175
1.80712 4.9968
1.98562 4.48266
2.16411 4.86333
2.34263 6.05173
2.52115 7.84828
2.69965 8.35702
2.87818 8.98747
3.05672 11.6745
3.23527 14.7123
3.4138 18.6179
3.59237 22.7394
3.77094 25.87
3.9495 29.4263
4.12809 33.8427
4.30669 94.6863
4.4853 52.356
4.6639 55.2827
4.84253 67.9232
5.02118 86.8754
5.19981 406.528
5.37848 195.092
5.55716 101.578
5.73586 92.3531
5.91455 95.1367
6.09328 4576.74
6.27201 79.0669
6.45075 70.2053
6.62952 62.6694
6.8083 59.4582
6.98711 55.0574
7.16591 56.0696
7.34475 64.4089
7.5236 53.9217
7.70247 56.7663
7.88135 57.2036
8.06026 62.4418
8.23919 68.8662
8.41812 83.2293
8.59709 1218.89
8.77609 96.9763
8.9551 88.7307
9.13412 82.9292
9.31318 84.8232
9.49226 84.4606
9.67134 94.8886
9.85047 100.501
10.0296 343.49
10.2088 350.991
10.388 104.435
10.5672 538.16
10.7465 85.5398
10.9257 77.2632
11.105 70.6752
11.2844 67.6578
11.4637 64.0558
11.6431 62.7231
11.8225 62.1544
12.002 64.1862
12.1814 161.941
12.3609 65.6774
12.5405 64.5273
12.72 67.2048
12.8996 71.0104
13.0792 79.7319
13.2589 250.34
13.4386 117.319
13.6183 259.65
13.7981 93.1968
13.9779 75.2
14.1577 71.2937
14.3376 69.4037
14.5175 68.0387
14.6974 70.0435
14.8774 112.115
15.0574 140.208
15.2374 68.8912
15.4175 65.9292
15.5976 65.2436
15.7778 95.708
15.958 146.013
16.1382 60.911
16.3185 57.0472
16.4988 54.7078
16.6792 53.8271
16.8596 54.3399
17.04 55.5907
17.2205 66.5683
17.401 68.669
17.5815 58.6346
17.7622 60.8339
17.9428 73.1775
18.1237 141.267
18.3044 91.3632
18.4852 73.6103
18.666 59.7017
18.8469 57.3012
19.0278 56.2199
19.2088 58.6423
19.3898 75.6694
19.5709 53.4768
19.752 52.6922
19.9332 55.7046
20.1144 69.6186
20.2957 63.9674
20.477 52.3522
20.6586 49.1495
20.84 48.4044
21.0215 47.9607
21.203 50.5693
21.3846 48.2924
21.5662 48.3958
21.7479 52.3236
21.9297 63.9644
22.1115 55.7327
22.2933 48.924
22.4753 48.1942
22.6572 48.3979
22.8393 51.6182
23.0214 56.2944
23.2037 48.2277
23.3859 49.2654
23.5682 57.0257
23.7505 47.3913
23.9329 44.7138
24.1154 43.6446
24.2979 42.7424
24.4805 42.4996
24.6631 42.2037
24.8458 41.6864
25.0286 42.3204
25.2114 44.1413
25.3943 44.0042
25.5773 40.4064
25.7605 39.8571
25.9436 40.4321
26.1268 41.2324
26.31 39.6639
26.4933 40.2854
26.6767 41.758
26.8601 39.8954
27.0437 38.3318
27.2272 38.0741
27.4109 38.1243
27.5946 38.0405
27.7784 37.3938
27.9623 38.1439
28.1462 38.2564
28.3304 36.6008
28.5145 35.5279
28.6987 35.1553
28.8829 35.0703
29.0673 34.2862
29.2517 33.9675
29.4361 33.7454
29.6207 32.7067
29.8053 32.4453
29.99 32.146
30.1748 32.0701
30.3597 31.8364
30.5447 31.8271
30.7297 31.8942
30.915 31.1646
31.1002 30.779
31.2855 30.5449
31.4708 30.4692
31.6563 29.9186
31.8418 29.868
32.0275 29.6046
32.2132 28.953
32.399 28.5785
32.5848 28.2002
32.7708 27.7837
32.9569 27.733
33.143 27.5136
33.3293 27.0602
33.5158 26.7229
33.7022 26.2677
33.8887 26.0547
34.0753 25.6513
34.262 25.4082
34.4488 24.9361
34.6357 24.7161
34.8227 24.3862
35.0098 24.1977
35.1969 23.9602
35.3842 23.7199
35.5716 23.5091
35.759 23.2171
35.9468 22.8894
36.1345 22.6535
36.3222 22.4249
36.5101 22.1977
36.6981 21.9317
36.8861 21.5225
37.0743 21.2138
37.2626 20.9953
37.451 20.7079
37.6395 20.6097
37.8281 20.2471
38.0168 19.9759
38.2056 19.8181
38.3945 19.4763
38.5837 19.1801
38.7728 18.9677
38.9621 18.7383
39.1514 18.4802
39.3409 18.209
39.5304 18.0168
39.7201 17.8645
39.9099 17.6331
40.0999 17.4161
40.2899 17.1505
40.48 16.902
40.6703 16.7486
40.8607 16.5257
41.0512 16.2667
41.242 16.0778
41.4327 15.8418
41.6236 15.6694
41.8146 15.4265
42.0057 15.2514
42.1969 15.0343
42.3882 14.8562
42.5797 14.6818
42.7713 14.4545
42.963 14.2375
43.1549 14.0985
43.3468 13.8561
43.5389 13.7108
43.7312 13.4062
43.9237 13.3027
44.1162 13.1113
44.3088 12.9038
44.5016 12.7598
44.6945 12.5491
44.8875 12.3894
45.0806 12.2673
45.2739 12.0259
45.4673 11.8976
45.6609 11.7162
45.8546 11.5636
46.0484 11.3799
46.2424 11.2129
46.4365 11.0886
46.631 10.8667
46.8254 10.7455
47.0199 10.5509
47.2146 10.401
47.4095 10.2266
47.6044 10.1007
47.7996 9.91498
47.9948 9.79437
48.1902 9.67393
48.3858 9.53085
48.5815 9.39953
48.7774 9.27643
48.9734 9.17234
49.1696 8.98325
49.3661 8.88585
49.5626 8.67588
49.7592 8.63341
49.956 8.47109
50.153 8.3346
50.3501 8.19174
50.5474 8.07733
50.7448 7.95757
50.9424 7.81335
51.1402 7.70339
51.3381 7.60823
51.5362 7.45877
51.7344 7.37353
51.9328 7.22288
52.1316 7.0841
52.3304 6.99275
52.5293 6.85601
52.7284 6.75212
52.9276 6.60056
53.1271 6.54049
53.3267 6.42734
53.5265 6.28623
53.7264 6.20367
53.9266 6.08073
54.1269 5.99111
54.3274 5.80638
54.528 5.75482
54.7289 5.57665
54.9301 5.41245
55.1314 5.32993
55.3328 5.0934
55.5344 4.92961
55.7361 4.75513