File: XRD/Ni3Fe_FD0672.xy
TT I
1.27165 7.40722
1.45013 6.15791
1.62863 5.20257
1.80712 4.68762
1.98562 4.97634
2.16411 4.81172
2.34263 5.54434
2.52115 7.10389
2.69965 7.87471
2.87818 8.92464
3.05672 11.7153
3.23527 15.0993
3.4138 18.6707
3.59237 23.1267
3.77094 26.2954
3.9495 29.8952
4.12809 34.5526
4.30669 163.091
4.4853 59.9218
4.6639 55.5858
4.84253 67.3989
5.02118 87.3061
5.19981 383.562
5.37848 181.271
5.55716 101.828
5.73586 92.2679
5.91455 95.4072
6.09328 4528.96
6.27201 81.6945
6.45075 67.1699
6.62952 62.1967
6.8083 58.3321
6.98711 55.7037
7.16591 55.1899
7.34475 80.5081
7.5236 54.7389
7.70247 55.8939
7.88135 57.8181
8.06026 62.2436
8.23919 69.9006
8.41812 85.0326
8.59709 1228.9
8.77609 98.252
8.9551 89.7253
9.13412 81.9453
9.31318 82.4328
9.49226 84.1145
9.67134 96.0775
9.85047 99.8572
10.0296 362.129
10.2088 377.397
10.388 104.53
10.5672 512.623
10.7465 86.284
10.9257 77.5625
11.105 71.6984
11.2844 69.5101
11.4637 64.9013
11.6431 63.3268
11.8225 62.3337
12.002 63.9319
12.1814 154.115
12.3609 68.7793
12.5405 64.2659
12.72 68.9552
12.8996 70.8666
13.0792 79.3945
13.2589 246.785
13.4386 120.003
13.6183 253.975
13.7981 94.088
13.9779 75.5129
14.1577 72.1377
14.3376 70.8114
14.5175 69.0265
14.6974 70.2468
14.8774 112.466
15.0574 141.507
15.2374 70.2426
15.4175 66.2596
15.5976 65.9002
15.7778 96.0957
15.958 152.428
16.1382 61.8701
16.3185 58.3399
16.4988 55.4618
16.6792 54.4634
16.8596 55.1753
17.04 56.0108
17.2205 67.0769
17.401 69.7995
17.5815 59.291
17.7622 61.1306
17.9428 74.3002
18.1237 142.694
18.3044 91.014
18.4852 75.4496
18.666 60.1956
18.8469 57.8633
19.0278 56.7504
19.2088 59.395
19.3898 76.6675
19.5709 53.9973
19.752 53.1869
19.9332 56.3809
20.1144 70.0046
20.2957 64.1661
20.477 52.8486
20.6586 49.5923
20.84 48.7011
21.0215 48.4231
21.203 50.751
21.3846 48.7787
21.5662 48.7916
21.7479 52.7574
21.9297 64.8267
22.1115 55.986
22.2933 49.7017
22.4753 48.662
22.6572 48.8671
22.8393 52.1141
23.0214 57.0875
23.2037 48.6476
23.3859 49.7076
23.5682 57.2255
23.7505 47.8357
23.9329 45.1722
24.1154 44.0727
24.2979 43.289
24.4805 42.9713
24.6631 42.825
24.8458 42.1582
25.0286 42.8139
25.2114 44.8034
25.3943 44.4265
25.5773 40.7435
25.7605 40.3393
25.9436 40.8002
26.1268 41.6104
26.31 40.0862
26.4933 40.7547
26.6767 42.137
26.8601 40.3302
27.0437 38.9619
27.2272 38.5449
27.4109 38.3367
27.5946 38.2851
27.7784 37.881
27.9623 38.3456
28.1462 38.7806
28.3304 36.9771
28.5145 35.7805
28.6987 35.578
28.8829 35.4287
29.0673 34.656
29.2517 34.2917
29.4361 34.1194
29.6207 33.1733
29.8053 32.8586
29.99 32.4756
30.1748 32.4335
30.3597 32.2421
30.5447 32.1238
30.7297 32.1408
30.915 31.6026
31.1002 31.1468
31.2855 30.8351
31.4708 30.7698
31.6563 30.345
31.8418 30.1436
32.0275 29.9649
32.2132 29.3166
32.399 28.9115
32.5848 28.4787
32.7708 28.1488
32.9569 27.9992
33.143 27.8205
33.3293 27.413
33.5158 26.9894
33.7022 26.5139
33.8887 26.3076
34.0753 26.0095
34.262 25.665
34.4488 25.3179
34.6357 24.9324
34.8227 24.6859
35.0098 24.5275
35.1969 24.1839
35.3842 24.0045
35.5716 23.8271
35.759 23.4284
35.9468 23.0908
36.1345 22.9295
36.3222 22.7045
36.5101 22.3614
36.6981 22.0858
36.8861 21.7866
37.0743 21.5054
37.2626 21.1816
37.451 20.96
37.6395 20.83
37.8281 20.4872
38.0168 20.1768
38.2056 19.9636
38.3945 19.7152
38.5837 19.4785
38.7728 19.1951
38.9621 18.9279
39.1514 18.6809
39.3409 18.4226
39.5304 18.2459
39.7201 18.0071
39.9099 17.7891
40.0999 17.5127
40.2899 17.2687
40.48 17.1281
40.6703 16.9391
40.8607 16.7173
41.0512 16.457
41.242 16.2362
41.4327 16.0353
41.6236 15.7851
41.8146 15.6865
42.0057 15.4127
42.1969 15.1677
42.3882 15.037
42.5797 14.8154
42.7713 14.6262
42.963 14.4096
43.1549 14.2499
43.3468 13.9854
43.5389 13.8333
43.7312 13.605
43.9237 13.4152
44.1162 13.2366
44.3088 13.0637
44.5016 12.8982
44.6945 12.7395
44.8875 12.5325
45.0806 12.367
45.2739 12.1423
45.4673 12.0524
45.6609 11.8339
45.8546 11.6649
46.0484 11.4715
46.2424 11.3359
46.4365 11.1473
46.631 11.0034
46.8254 10.8777
47.0199 10.6758
47.2146 10.5608
47.4095 10.37
47.6044 10.2245
47.7996 10.0616
47.9948 9.92373
48.1902 9.76998
48.3858 9.65649
48.5815 9.49901
48.7774 9.37527
48.9734 9.23828
49.1696 9.08806
49.3661 8.94352
49.5626 8.81113
49.7592 8.67572
49.956 8.55607
50.153 8.43448
50.3501 8.29677
50.5474 8.15893
50.7448 8.05125
50.9424 7.93883
51.1402 7.78845
51.3381 7.64656
51.5362 7.56579
51.7344 7.43687
51.9328 7.3077
52.1316 7.16147
52.3304 7.06089
52.5293 6.93271
52.7284 6.88875
52.9276 6.67613
53.1271 6.61205
53.3267 6.51661
53.5265 6.41421
53.7264 6.24656
53.9266 6.14938
54.1269 6.04344
54.3274 5.92643
54.528 5.80067
54.7289 5.62879
54.9301 5.45479
55.1314 5.37533
55.3328 5.15775
55.5344 4.95591
55.7361 4.80017