File: XRD/Ni3Fe_FD0285.xy
TT I
1.27165 7.51039
1.45013 6.2635
1.62863 5.26311
1.80712 5.35887
1.98562 5.29393
2.16411 5.05692
2.34263 4.01553
2.52115 5.58867
2.69965 6.70205
2.87818 8.26972
3.05672 10.8842
3.23527 15.0422
3.4138 19.1504
3.59237 24.9074
3.77094 26.9419
3.9495 30.7173
4.12809 36.0678
4.30669 255.113
4.4853 70.8732
4.6639 57.3979
4.84253 69.9044
5.02118 92.0037
5.19981 513.875
5.37848 260.605
5.55716 108.433
5.73586 97.5869
5.91455 101.231
6.09328 3694.22
6.27201 89.8098
6.45075 70.6336
6.62952 65.6424
6.8083 61.5903
6.98711 57.9833
7.16591 58.3239
7.34475 101.604
7.5236 56.6828
7.70247 58.7435
7.88135 60.079
8.06026 64.7162
8.23919 72.6879
8.41812 90.3549
8.59709 1039.06
8.77609 109.398
8.9551 96.6856
9.13412 85.5053
9.31318 86.3628
9.49226 88.0637
9.67134 104.393
9.85047 104.685
10.0296 399.758
10.2088 600.984
10.388 110.847
10.5672 456.621
10.7465 91.5698
10.9257 82.1994
11.105 74.715
11.2844 73.8624
11.4637 67.8625
11.6431 66.5302
11.8225 65.3752
12.002 66.2321
12.1814 139.988
12.3609 76.8066
12.5405 67.63
12.72 73.5462
12.8996 73.8884
13.0792 82.3324
13.2589 218.299
13.4386 150.342
13.6183 220.811
13.7981 112.401
13.9779 79.0653
14.1577 75.5893
14.3376 74.911
14.5175 71.5051
14.6974 73.4539
14.8774 111.837
15.0574 174.481
15.2374 74.8696
15.4175 69.0703
15.5976 68.5444
15.7778 97.3455
15.958 175.624
16.1382 66.064
16.3185 61.2055
16.4988 58.091
16.6792 56.7833
16.8596 57.7339
17.04 58.0662
17.2205 67.6393
17.401 77.4864
17.5815 61.5857
17.7622 63.8169
17.9428 78.2187
18.1237 137.376
18.3044 89.6434
18.4852 85.375
18.666 62.9201
18.8469 60.5775
19.0278 59.2688
19.2088 62.2123
19.3898 78.0542
19.5709 56.7813
19.752 55.3585
19.9332 58.5786
20.1144 71.5764
20.2957 64.4645
20.477 57.2334
20.6586 51.728
20.84 50.7375
21.0215 50.5904
21.203 52.2996
21.3846 51.4471
21.5662 50.8348
21.7479 54.5007
21.9297 66.3734
22.1115 57.6479
22.2933 52.2529
22.4753 51.1609
22.6572 50.9801
22.8393 53.337
23.0214 59.8782
23.2037 50.8148
23.3859 51.8758
23.5682 57.7849
23.7505 51.2645
23.9329 47.0985
24.1154 46.0417
24.2979 45.2123
24.4805 44.6693
24.6631 44.464
24.8458 43.9283
25.0286 44.524
25.2114 46.2567
25.3943 46.4712
25.5773 42.7726
25.7605 42.2672
25.9436 42.4546
26.1268 43.2793
26.31 41.7991
26.4933 42.1588
26.6767 43.5887
26.8601 42.1088
27.0437 40.4815
27.2272 40.1273
27.4109 39.7219
27.5946 39.904
27.7784 39.3149
27.9623 39.815
28.1462 40.3497
28.3304 38.8503
28.5145 37.3767
28.6987 37.0316
28.8829 36.7699
29.0673 36.1672
29.2517 35.6701
29.4361 35.4889
29.6207 34.6565
29.8053 34.2376
29.99 33.8736
30.1748 33.7697
30.3597 33.4907
30.5447 33.5183
30.7297 33.4352
30.915 32.8992
31.1002 32.4422
31.2855 31.9777
31.4708 31.9469
31.6563 31.6801
31.8418 31.2758
32.0275 31.2168
32.2132 30.5825
32.399 30.156
32.5848 29.6985
32.7708 29.2339
32.9569 29.1541
33.143 28.882
33.3293 28.5537
33.5158 28.1598
33.7022 27.645
33.8887 27.377
34.0753 27.0717
34.262 26.6784
34.4488 26.301
34.6357 26.0342
34.8227 25.7536
35.0098 25.4302
35.1969 25.1011
35.3842 24.9445
35.5716 24.7451
35.759 24.382
35.9468 24.0602
36.1345 23.795
36.3222 23.5898
36.5101 23.3523
36.6981 22.9892
36.8861 22.6538
37.0743 22.3485
37.2626 22.0809
37.451 21.8876
37.6395 21.6616
37.8281 21.3502
38.0168 21.0404
38.2056 20.7349
38.3945 20.5484
38.5837 20.2718
38.7728 20.0155
38.9621 19.7035
39.1514 19.4915
39.3409 19.213
39.5304 18.9958
39.7201 18.7559
39.9099 18.575
40.0999 18.3004
40.2899 18.085
40.48 17.8075
40.6703 17.6227
40.8607 17.4051
41.0512 17.1764
41.242 16.9207
41.4327 16.7005
41.6236 16.4114
41.8146 16.2709
42.0057 16.0485
42.1969 15.838
42.3882 15.6259
42.5797 15.4236
42.7713 15.214
42.963 15.0167
43.1549 14.7556
43.3468 14.5959
43.5389 14.418
43.7312 14.1763
43.9237 13.9635
44.1162 13.8418
44.3088 13.6372
44.5016 13.4314
44.6945 13.2387
44.8875 13.0636
45.0806 12.8766
45.2739 12.7021
45.4673 12.4742
45.6609 12.3472
45.8546 12.1736
46.0484 11.9936
46.2424 11.8188
46.4365 11.6593
46.631 11.4623
46.8254 11.2995
47.0199 11.1159
47.2146 10.9862
47.4095 10.7915
47.6044 10.6886
47.7996 10.4561
47.9948 10.339
48.1902 10.1915
48.3858 10.0557
48.5815 9.92173
48.7774 9.76833
48.9734 9.64681
49.1696 9.45941
49.3661 9.33996
49.5626 9.16786
49.7592 9.09
49.956 8.94321
50.153 8.79072
50.3501 8.6517
50.5474 8.54675
50.7448 8.39267
50.9424 8.2246
51.1402 8.11197
51.3381 7.97063
51.5362 7.81476
51.7344 7.71661
51.9328 7.56607
52.1316 7.45915
52.3304 7.33927
52.5293 7.25214
52.7284 7.1423
52.9276 6.94286
53.1271 6.88894
53.3267 6.74717
53.5265 6.64669
53.7264 6.53175
53.9266 6.40591
54.1269 6.3246
54.3274 6.16428
54.528 5.99926
54.7289 5.86797
54.9301 5.65281
55.1314 5.55569
55.3328 5.35429
55.5344 5.13783
55.7361 4.98777