File: XRD/Ni3Fe_FD0556.xy
TT I
1.27165 7.54562
1.45013 6.18983
1.62863 5.7333
1.80712 5.05154
1.98562 4.39514
2.16411 5.01676
2.34263 4.99136
2.52115 7.05226
2.69965 7.43154
2.87818 8.37302
3.05672 11.2274
3.23527 14.331
3.4138 18.6813
3.59237 23.769
3.77094 26.0001
3.9495 29.586
4.12809 34.7518
4.30669 166.356
4.4853 60.4558
4.6639 55.7501
4.84253 68.2892
5.02118 88.3916
5.19981 414.881
5.37848 195.949
5.55716 102.692
5.73586 92.7419
5.91455 96.2062
6.09328 4411.51
6.27201 82.9466
6.45075 67.4265
6.62952 62.5738
6.8083 58.7216
6.98711 55.972
7.16591 55.0872
7.34475 82.1071
7.5236 54.8892
7.70247 56.1095
7.88135 58.1952
8.06026 62.4591
8.23919 69.6817
8.41812 85.5457
8.59709 1219.05
8.77609 99.8293
8.9551 90.7878
9.13412 82.2498
9.31318 83.2546
9.49226 85.2652
9.67134 97.1361
9.85047 100.59
10.0296 373.818
10.2088 385.259
10.388 105.349
10.5672 515.504
10.7465 87.0618
10.9257 78.2795
11.105 72.0068
11.2844 70.1385
11.4637 65.2708
11.6431 63.9175
11.8225 62.5877
12.002 64.2106
12.1814 155.058
12.3609 69.7537
12.5405 64.6774
12.72 69.6603
12.8996 71.5321
13.0792 79.9874
13.2589 247.177
13.4386 122.423
13.6183 253.144
13.7981 96.8924
13.9779 76.2753
14.1577 72.6087
14.3376 71.4868
14.5175 69.4804
14.6974 71.0486
14.8774 114.548
15.0574 146.08
15.2374 70.9507
15.4175 66.9879
15.5976 66.2482
15.7778 97.9871
15.958 154.638
16.1382 62.5005
16.3185 58.8423
16.4988 55.7757
16.6792 54.7608
16.8596 55.5496
17.04 56.282
17.2205 67.5742
17.401 71.1694
17.5815 59.7376
17.7622 62.0001
17.9428 75.3543
18.1237 141.554
18.3044 91.8653
18.4852 77.3943
18.666 60.6047
18.8469 58.5194
19.0278 57.3303
19.2088 60.2008
19.3898 76.5903
19.5709 54.5573
19.752 53.5413
19.9332 57.0339
20.1144 70.6374
20.2957 64.4262
20.477 53.7713
20.6586 50.0192
20.84 49.1051
21.0215 49.0458
21.203 51.0342
21.3846 49.2643
21.5662 49.2668
21.7479 53.2372
21.9297 65.2613
22.1115 56.3346
22.2933 50.088
22.4753 49.2099
22.6572 49.2283
22.8393 52.4757
23.0214 57.6664
23.2037 49.1578
23.3859 50.1832
23.5682 57.3748
23.7505 48.4157
23.9329 45.5174
24.1154 44.4312
24.2979 43.6109
24.4805 43.1547
24.6631 43.1615
24.8458 42.5935
25.0286 43.1893
25.2114 44.9978
25.3943 44.8394
25.5773 41.334
25.7605 40.5988
25.9436 41.1375
26.1268 42.0283
26.31 40.4038
26.4933 41.0309
26.6767 42.4253
26.8601 40.6728
27.0437 39.2517
27.2272 38.7465
27.4109 38.6695
27.5946 38.6492
27.7784 38.1489
27.9623 38.6718
28.1462 38.9981
28.3304 37.4115
28.5145 36.1751
28.6987 35.8792
28.8829 35.8017
29.0673 34.8595
29.2517 34.6298
29.4361 34.4879
29.6207 33.2877
29.8053 33.0506
29.99 32.84
30.1748 32.5834
30.3597 32.3573
30.5447 32.3601
30.7297 32.4325
30.915 31.8586
31.1002 31.3264
31.2855 31.0307
31.4708 31.1414
31.6563 30.4711
31.8418 30.2715
32.0275 30.0931
32.2132 29.5985
32.399 29.0812
32.5848 28.76
32.7708 28.3125
32.9569 28.2293
33.143 27.9656
33.3293 27.5738
33.5158 27.1974
33.7022 26.8067
33.8887 26.554
34.0753 26.122
34.262 25.8043
34.4488 25.3731
34.6357 25.0949
34.8227 24.8858
35.0098 24.6853
35.1969 24.3758
35.3842 24.1306
35.5716 24.0136
35.759 23.6583
35.9468 23.2373
36.1345 23.0476
36.3222 22.7988
36.5101 22.5606
36.6981 22.3125
36.8861 21.9544
37.0743 21.6934
37.2626 21.4167
37.451 21.0869
37.6395 20.9896
37.8281 20.5999
38.0168 20.3071
38.2056 20.0371
38.3945 19.7904
38.5837 19.5695
38.7728 19.3939
38.9621 19.0709
39.1514 18.8035
39.3409 18.6137
39.5304 18.438
39.7201 18.2155
39.9099 17.9283
40.0999 17.7265
40.2899 17.5084
40.48 17.2216
40.6703 17.0725
40.8607 16.8776
41.0512 16.5678
41.242 16.3483
41.4327 16.1773
41.6236 15.9612
41.8146 15.8086
42.0057 15.4533
42.1969 15.336
42.3882 15.1904
42.5797 14.9055
42.7713 14.7124
42.963 14.5427
43.1549 14.3136
43.3468 14.0847
43.5389 13.8817
43.7312 13.7444
43.9237 13.5407
44.1162 13.332
44.3088 13.1605
44.5016 12.9627
44.6945 12.8082
44.8875 12.6679
45.0806 12.4445
45.2739 12.2914
45.4673 12.1513
45.6609 11.921
45.8546 11.7671
46.0484 11.5986
46.2424 11.4612
46.4365 11.2652
46.631 11.088
46.8254 10.9396
47.0199 10.7669
47.2146 10.6317
47.4095 10.4689
47.6044 10.2883
47.7996 10.1245
47.9948 9.99621
48.1902 9.8144
48.3858 9.7186
48.5815 9.58732
48.7774 9.42692
48.9734 9.28483
49.1696 9.15502
49.3661 9.03106
49.5626 8.86882
49.7592 8.75764
49.956 8.59635
50.153 8.48725
50.3501 8.35063
50.5474 8.2304
50.7448 8.10845
50.9424 7.98237
51.1402 7.86567
51.3381 7.72925
51.5362 7.60562
51.7344 7.44519
51.9328 7.32252
52.1316 7.21753
52.3304 7.10914
52.5293 6.9797
52.7284 6.86528
52.9276 6.78111
53.1271 6.69363
53.3267 6.51436
53.5265 6.42438
53.7264 6.32529
53.9266 6.19863
54.1269 6.07057
54.3274 5.99727
54.528 5.81439
54.7289 5.69139
54.9301 5.50346
55.1314 5.38895
55.3328 5.1502
55.5344 4.97082
55.7361 4.836