File: XRD/Ni3Fe_FD0387.xy
TT I
1.27165 7.45777
1.45013 6.40681
1.62863 5.83306
1.80712 5.1507
1.98562 4.91763
2.16411 5.00505
2.34263 4.90014
2.52115 5.05141
2.69965 6.96668
2.87818 7.92781
3.05672 11.3954
3.23527 15.1725
3.4138 19.2202
3.59237 24.3689
3.77094 26.7197
3.9495 29.9867
4.12809 35.4275
4.30669 212.227
4.4853 66.367
4.6639 56.7645
4.84253 69.231
5.02118 90.3148
5.19981 459.978
5.37848 226.18
5.55716 105.613
5.73586 95.1754
5.91455 99.221
6.09328 4006.54
6.27201 87.2803
6.45075 69.4203
6.62952 64.3961
6.8083 60.4132
6.98711 57.1166
7.16591 56.9359
7.34475 91.9276
7.5236 56.0809
7.70247 57.7694
7.88135 59.2727
8.06026 63.6454
8.23919 71.37
8.41812 88.4408
8.59709 1144.06
8.77609 105.3
8.9551 93.9634
9.13412 84.1948
9.31318 84.7227
9.49226 86.8429
9.67134 100.677
9.85047 102.857
10.0296 386.648
10.2088 506.03
10.388 108.558
10.5672 482.833
10.7465 89.4039
10.9257 80.5798
11.105 73.9037
11.2844 72.3539
11.4637 66.5413
11.6431 65.306
11.8225 64.0351
12.002 65.5157
12.1814 148.591
12.3609 72.945
12.5405 66.0716
12.72 71.7091
12.8996 73.0902
13.0792 81.0754
13.2589 236.495
13.4386 140.671
13.6183 239.356
13.7981 106.587
13.9779 77.8351
14.1577 74.2729
14.3376 73.5119
14.5175 70.476
14.6974 72.5005
14.8774 113.936
15.0574 162.764
15.2374 72.899
15.4175 68.0666
15.5976 67.4365
15.7778 98.2191
15.958 168.584
16.1382 64.4387
16.3185 60.3058
16.4988 57.0509
16.6792 55.9587
16.8596 56.6637
17.04 57.3514
17.2205 67.924
17.401 74.819
17.5815 60.6681
17.7622 62.9944
17.9428 77.0024
18.1237 136.938
18.3044 91.0027
18.4852 81.9523
18.666 62.1014
18.8469 59.5743
19.0278 58.3757
19.2088 61.4611
19.3898 76.6721
19.5709 56.0564
19.752 54.8053
19.9332 58.0716
20.1144 70.6068
20.2957 64.545
20.477 55.8614
20.6586 51.0009
20.84 50.1601
21.0215 49.9327
21.203 51.7927
21.3846 50.3995
21.5662 50.0047
21.7479 54.0724
21.9297 65.7003
22.1115 57.0433
22.2933 51.43
22.4753 50.1307
22.6572 50.1594
22.8393 53.2092
23.0214 58.7204
23.2037 50.158
23.3859 51.2716
23.5682 57.3963
23.7505 50.1173
23.9329 46.3817
24.1154 45.3082
24.2979 44.7248
24.4805 44.1047
24.6631 44.0938
24.8458 43.4029
25.0286 44.0042
25.2114 45.7522
25.3943 45.6208
25.5773 41.9817
25.7605 41.5131
25.9436 41.9559
26.1268 42.5653
26.31 41.3135
26.4933 41.7924
26.6767 43.1944
26.8601 41.5963
27.0437 39.9339
27.2272 39.6356
27.4109 39.4131
27.5946 39.4013
27.7784 38.9789
27.9623 39.2957
28.1462 39.8547
28.3304 38.1988
28.5145 36.9217
28.6987 36.6134
28.8829 36.1966
29.0673 35.5164
29.2517 35.2848
29.4361 34.9987
29.6207 34.0405
29.8053 33.8195
29.99 33.3959
30.1748 33.3169
30.3597 33.1389
30.5447 33.0698
30.7297 33.076
30.915 32.5489
31.1002 31.9899
31.2855 31.7
31.4708 31.5531
31.6563 31.2407
31.8418 30.9138
32.0275 30.7182
32.2132 30.1688
32.399 29.735
32.5848 29.1717
32.7708 28.8304
32.9569 28.7431
33.143 28.5581
33.3293 28.1172
33.5158 27.8335
33.7022 27.3794
33.8887 27.0477
34.0753 26.736
34.262 26.297
34.4488 25.9781
34.6357 25.5584
34.8227 25.3634
35.0098 25.1805
35.1969 24.8212
35.3842 24.701
35.5716 24.409
35.759 24.1322
35.9468 23.7026
36.1345 23.4754
36.3222 23.2674
36.5101 22.9618
36.6981 22.7446
36.8861 22.4156
37.0743 22.0585
37.2626 21.7646
37.451 21.5067
37.6395 21.3687
37.8281 21.0549
38.0168 20.7191
38.2056 20.4734
38.3945 20.1944
38.5837 19.9004
38.7728 19.6825
38.9621 19.4537
39.1514 19.157
39.3409 18.9549
39.5304 18.6814
39.7201 18.4732
39.9099 18.3212
40.0999 18.0233
40.2899 17.8065
40.48 17.5127
40.6703 17.3521
40.8607 17.1596
41.0512 17.0005
41.242 16.6539
41.4327 16.524
41.6236 16.2134
41.8146 16.0308
42.0057 15.8566
42.1969 15.6221
42.3882 15.4426
42.5797 15.2227
42.7713 15.0047
42.963 14.7894
43.1549 14.6227
43.3468 14.3915
43.5389 14.1819
43.7312 13.9706
43.9237 13.8282
44.1162 13.5772
44.3088 13.4108
44.5016 13.2497
44.6945 13.0545
44.8875 12.8979
45.0806 12.6719
45.2739 12.4963
45.4673 12.3143
45.6609 12.1687
45.8546 11.9746
46.0484 11.7953
46.2424 11.6541
46.4365 11.4982
46.631 11.2975
46.8254 11.121
47.0199 10.9692
47.2146 10.8147
47.4095 10.6701
47.6044 10.4971
47.7996 10.3466
47.9948 10.19
48.1902 10.0414
48.3858 9.88337
48.5815 9.74376
48.7774 9.63325
48.9734 9.49542
49.1696 9.33518
49.3661 9.16717
49.5626 9.04961
49.7592 8.95842
49.956 8.78693
50.153 8.68566
50.3501 8.5208
50.5474 8.38544
50.7448 8.23624
50.9424 8.1192
51.1402 7.9941
51.3381 7.84238
51.5362 7.73084
51.7344 7.62353
51.9328 7.46719
52.1316 7.35068
52.3304 7.26957
52.5293 7.11525
52.7284 7.01204
52.9276 6.89419
53.1271 6.79269
53.3267 6.66313
53.5265 6.54453
53.7264 6.44225
53.9266 6.30761
54.1269 6.20786
54.3274 6.08723
54.528 5.93882
54.7289 5.79517
54.9301 5.63414
55.1314 5.48715
55.3328 5.28611
55.5344 5.11005
55.7361 4.86157