File: XRD/Ni3Fe_FD0652.xy
TT I
1.27165 7.31116
1.45013 6.0016
1.62863 5.27989
1.80712 5.24486
1.98562 4.66464
2.16411 5.22475
2.34263 5.67904
2.52115 7.17585
2.69965 7.85582
2.87818 8.52381
3.05672 11.3436
3.23527 14.9958
3.4138 19.0033
3.59237 24.8285
3.77094 26.5061
3.9495 30.4556
4.12809 35.1654
4.30669 286.552
4.4853 72.8477
4.6639 55.605
4.84253 67.2403
5.02118 86.3661
5.19981 330.76
5.37848 197.867
5.55716 102.048
5.73586 92.067
5.91455 93.2726
6.09328 4345.77
6.27201 84.7613
6.45075 67.8032
6.62952 63.7236
6.8083 59.6147
6.98711 56.5079
7.16591 56.1155
7.34475 107.352
7.5236 55.2669
7.70247 56.6212
7.88135 58.2674
8.06026 62.8466
8.23919 69.8021
8.41812 85.9626
8.59709 1081.84
8.77609 100.445
8.9551 94.1061
9.13412 82.0782
9.31318 82.8078
9.49226 84.8359
9.67134 102.178
9.85047 99.7085
10.0296 316.467
10.2088 447.361
10.388 105.616
10.5672 491.755
10.7465 86.8896
10.9257 79.3079
11.105 72.2813
11.2844 71.7488
11.4637 65.3732
11.6431 64.0362
11.8225 62.7875
12.002 63.754
12.1814 145.963
12.3609 73.3696
12.5405 64.734
12.72 71.6726
12.8996 70.9938
13.0792 78.5496
13.2589 224.813
13.4386 130.127
13.6183 235.23
13.7981 100.169
13.9779 76.2354
14.1577 73.0564
14.3376 72.963
14.5175 68.932
14.6974 70.886
14.8774 106.504
15.0574 154.871
15.2374 72.403
15.4175 66.6277
15.5976 66.003
15.7778 92.1262
15.958 163.773
16.1382 63.8313
16.3185 59.3561
16.4988 55.8743
16.6792 54.7632
16.8596 55.7365
17.04 55.8075
17.2205 65.9811
17.401 72.3238
17.5815 59.3843
17.7622 61.4481
17.9428 72.6121
18.1237 138.539
18.3044 89.1697
18.4852 79.9642
18.666 60.4903
18.8469 58.2771
19.0278 56.9869
19.2088 59.4709
19.3898 77.1106
19.5709 54.5262
19.752 53.4405
19.9332 56.0764
20.1144 69.7478
20.2957 63.3126
20.477 54.2079
20.6586 49.8818
20.84 49.0337
21.0215 48.583
21.203 50.949
21.3846 49.2237
21.5662 48.7894
21.7479 52.4734
21.9297 64.6894
22.1115 56.1012
22.2933 50.2964
22.4753 49.1911
22.6572 48.8423
22.8393 51.6668
23.0214 58.0832
23.2037 48.9926
23.3859 49.7007
23.5682 56.756
23.7505 48.7734
23.9329 45.4814
24.1154 44.3131
24.2979 43.5269
24.4805 43.12
24.6631 42.8909
24.8458 42.3855
25.0286 42.9957
25.2114 44.7287
25.3943 44.9672
25.5773 41.136
25.7605 40.6056
25.9436 41.0232
26.1268 41.9198
26.31 40.2183
26.4933 40.8411
26.6767 42.3808
26.8601 40.619
27.0437 38.9534
27.2272 38.6465
27.4109 38.4299
27.5946 38.5603
27.7784 38.0308
27.9623 38.4591
28.1462 38.9185
28.3304 37.5125
28.5145 36.1982
28.6987 35.7403
28.8829 35.533
29.0673 34.8925
29.2517 34.5542
29.4361 34.2822
29.6207 33.2684
29.8053 32.9971
29.99 32.7798
30.1748 32.5804
30.3597 32.344
30.5447 32.4156
30.7297 32.3026
30.915 31.6806
31.1002 31.2974
31.2855 31.0084
31.4708 30.9459
31.6563 30.4418
31.8418 30.2351
32.0275 30.0929
32.2132 29.5454
32.399 28.9632
32.5848 28.6366
32.7708 28.2849
32.9569 28.132
33.143 27.8808
33.3293 27.5454
33.5158 27.1366
33.7022 26.8174
33.8887 26.4503
34.0753 26.0719
34.262 25.7756
34.4488 25.5
34.6357 25.0732
34.8227 24.7921
35.0098 24.5542
35.1969 24.3336
35.3842 24.0633
35.5716 23.9096
35.759 23.5756
35.9468 23.1889
36.1345 22.9817
36.3222 22.8265
36.5101 22.5137
36.6981 22.263
36.8861 21.9252
37.0743 21.5828
37.2626 21.3894
37.451 21.0897
37.6395 20.8944
37.8281 20.5844
38.0168 20.3288
38.2056 20.0545
38.3945 19.7956
38.5837 19.5357
38.7728 19.2898
38.9621 19.0763
39.1514 18.7935
39.3409 18.5594
39.5304 18.3036
39.7201 18.0963
39.9099 17.8795
40.0999 17.6854
40.2899 17.452
40.48 17.1946
40.6703 17.0391
40.8607 16.8313
41.0512 16.5763
41.242 16.359
41.4327 16.2146
41.6236 15.9583
41.8146 15.7076
42.0057 15.5018
42.1969 15.2568
42.3882 15.0979
42.5797 14.8692
42.7713 14.7348
42.963 14.4379
43.1549 14.2945
43.3468 14.0787
43.5389 13.9154
43.7312 13.6978
43.9237 13.5175
44.1162 13.3061
44.3088 13.1487
44.5016 12.9488
44.6945 12.7689
44.8875 12.6509
45.0806 12.4645
45.2739 12.2758
45.4673 12.1197
45.6609 11.9377
45.8546 11.7513
46.0484 11.597
46.2424 11.4638
46.4365 11.2716
46.631 11.0963
46.8254 10.9472
47.0199 10.8038
47.2146 10.6479
47.4095 10.4453
47.6044 10.2827
47.7996 10.1358
47.9948 9.97815
48.1902 9.88707
48.3858 9.70623
48.5815 9.58636
48.7774 9.44152
48.9734 9.2996
49.1696 9.13491
49.3661 8.97179
49.5626 8.86812
49.7592 8.73764
49.956 8.58741
50.153 8.47911
50.3501 8.32754
50.5474 8.20159
50.7448 8.09539
50.9424 8.0255
51.1402 7.88608
51.3381 7.75064
51.5362 7.58186
51.7344 7.47626
51.9328 7.32522
52.1316 7.20644
52.3304 7.12211
52.5293 7.00171
52.7284 6.89478
52.9276 6.74214
53.1271 6.67386
53.3267 6.55449
53.5265 6.40901
53.7264 6.33083
53.9266 6.2018
54.1269 6.05822
54.3274 5.97152
54.528 5.84686
54.7289 5.63431
54.9301 5.51755
55.1314 5.4063
55.3328 5.18898
55.5344 4.98525
55.7361 4.85368