File: XRD/Ni3Fe_FD0912.xy
TT I
1.27165 7.40865
1.45013 6.17799
1.62863 5.18037
1.80712 4.28841
1.98562 4.94738
2.16411 4.57383
2.34263 5.34824
2.52115 7.61294
2.69965 8.77841
2.87818 8.75691
3.05672 11.1088
3.23527 14.8092
3.4138 18.8856
3.59237 23.3175
3.77094 25.5305
3.9495 29.4931
4.12809 34.8252
4.30669 124.384
4.4853 56.0634
4.6639 54.9889
4.84253 67.409
5.02118 86.5087
5.19981 353.109
5.37848 179.844
5.55716 100.824
5.73586 91.3733
5.91455 93.2494
6.09328 4722.49
6.27201 79.785
6.45075 68.0395
6.62952 62.0689
6.8083 58.4382
6.98711 54.803
7.16591 55.1633
7.34475 71.7179
7.5236 53.5931
7.70247 56.0139
7.88135 56.8388
8.06026 61.7206
8.23919 68.5472
8.41812 83.2174
8.59709 1214.62
8.77609 96.0435
8.9551 88.5367
9.13412 81.167
9.31318 82.6832
9.49226 83.4806
9.67134 94.6218
9.85047 99.5209
10.0296 333.937
10.2088 319.791
10.388 102.966
10.5672 555.174
10.7465 84.7928
10.9257 76.9034
11.105 70.4787
11.2844 68.0014
11.4637 63.9336
11.6431 62.5977
11.8225 61.7132
12.002 63.1706
12.1814 157.994
12.3609 66.171
12.5405 63.7969
12.72 67.3115
12.8996 70.4477
13.0792 78.751
13.2589 245.034
13.4386 113.234
13.6183 257.611
13.7981 91.4199
13.9779 74.7853
14.1577 70.8023
14.3376 69.6141
14.5175 67.968
14.6974 69.504
14.8774 110.109
15.0574 136.211
15.2374 68.7557
15.4175 65.4575
15.5976 64.8788
15.7778 93.9644
15.958 143.27
16.1382 60.6006
16.3185 57.0094
16.4988 54.4343
16.6792 53.5625
16.8596 53.9856
17.04 54.9577
17.2205 66.1807
17.401 67.3223
17.5815 58.2331
17.7622 60.3998
17.9428 72.2708
18.1237 140.075
18.3044 90.574
18.4852 72.9125
18.666 59.1036
18.8469 57.0602
19.0278 55.788
19.2088 58.4333
19.3898 75.3504
19.5709 53.2327
19.752 52.4161
19.9332 55.4786
20.1144 69.3968
20.2957 63.7668
20.477 51.8469
20.6586 48.6885
20.84 47.8923
21.0215 47.8791
21.203 50.2324
21.3846 48.0604
21.5662 48.0513
21.7479 51.9088
21.9297 63.9877
22.1115 55.5018
22.2933 48.7656
22.4753 47.839
22.6572 48.071
22.8393 51.1493
23.0214 56.0898
23.2037 47.7984
23.3859 48.904
23.5682 56.8082
23.7505 47.0036
23.9329 44.4197
24.1154 43.3212
24.2979 42.7097
24.4805 42.2153
24.6631 42.1048
24.8458 41.5366
25.0286 42.1881
25.2114 43.874
25.3943 43.7054
25.5773 40.1649
25.7605 39.7692
25.9436 40.1199
26.1268 40.9831
26.31 39.3787
26.4933 40.1719
26.6767 41.494
26.8601 39.6963
27.0437 38.1802
27.2272 37.7699
27.4109 37.9418
27.5946 37.7561
27.7784 37.277
27.9623 37.8912
28.1462 38.1668
28.3304 36.4328
28.5145 35.3734
28.6987 35.032
28.8829 34.8175
29.0673 33.9883
29.2517 33.7872
29.4361 33.54
29.6207 32.5991
29.8053 32.2222
29.99 32.0643
30.1748 31.9531
30.3597 31.7713
30.5447 31.6497
30.7297 31.7262
30.915 30.9758
31.1002 30.6587
31.2855 30.3169
31.4708 30.3139
31.6563 29.8085
31.8418 29.5458
32.0275 29.3211
32.2132 28.9264
32.399 28.4384
32.5848 28.0918
32.7708 27.5761
32.9569 27.5428
33.143 27.3515
33.3293 26.8694
33.5158 26.5744
33.7022 26.1516
33.8887 25.8334
34.0753 25.5678
34.262 25.2522
34.4488 24.8223
34.6357 24.4441
34.8227 24.234
35.0098 24.017
35.1969 23.831
35.3842 23.5897
35.5716 23.3666
35.759 23.1052
35.9468 22.7165
36.1345 22.5179
36.3222 22.2727
36.5101 22.0501
36.6981 21.6932
36.8861 21.4196
37.0743 21.1323
37.2626 20.9108
37.451 20.5822
37.6395 20.4484
37.8281 20.086
38.0168 19.8887
38.2056 19.6798
38.3945 19.2838
38.5837 19.1265
38.7728 18.8752
38.9621 18.6223
39.1514 18.4307
39.3409 18.129
39.5304 17.8888
39.7201 17.7465
39.9099 17.5466
40.0999 17.2354
40.2899 17.0831
40.48 16.779
40.6703 16.696
40.8607 16.4027
41.0512 16.2384
41.242 15.9582
41.4327 15.795
41.6236 15.6374
41.8146 15.4205
42.0057 15.1721
42.1969 14.9723
42.3882 14.756
42.5797 14.5637
42.7713 14.4381
42.963 14.1334
43.1549 13.9458
43.3468 13.8101
43.5389 13.5905
43.7312 13.3613
43.9237 13.2257
44.1162 13.0243
44.3088 12.9152
44.5016 12.6542
44.6945 12.5529
44.8875 12.3491
45.0806 12.1303
45.2739 12.0057
45.4673 11.8375
45.6609 11.6237
45.8546 11.526
46.0484 11.3202
46.2424 11.1384
46.4365 11.0524
46.631 10.8696
46.8254 10.688
47.0199 10.5267
47.2146 10.384
47.4095 10.2162
47.6044 10.0612
47.7996 9.93104
47.9948 9.77153
48.1902 9.61877
48.3858 9.48422
48.5815 9.37358
48.7774 9.26946
48.9734 9.08515
49.1696 8.94746
49.3661 8.81233
49.5626 8.67992
49.7592 8.52409
49.956 8.42747
50.153 8.28727
50.3501 8.1715
50.5474 8.02707
50.7448 7.93337
50.9424 7.78769
51.1402 7.7096
51.3381 7.55944
51.5362 7.4514
51.7344 7.33464
51.9328 7.16881
52.1316 7.06884
52.3304 6.92087
52.5293 6.8602
52.7284 6.73451
52.9276 6.58651
53.1271 6.50479
53.3267 6.36556
53.5265 6.2627
53.7264 6.17257
53.9266 6.10246
54.1269 5.96119
54.3274 5.83656
54.528 5.67808
54.7289 5.56474
54.9301 5.34229
55.1314 5.24822
55.3328 5.09046
55.5344 4.93257
55.7361 4.74266