File: XRD/Ni3Fe_FD0792.xy
TT I
1.27165 7.95044
1.45013 6.18259
1.62863 5.39606
1.80712 4.83146
1.98562 4.64563
2.16411 5.507
2.34263 5.9008
2.52115 7.65159
2.69965 8.4843
2.87818 9.0541
3.05672 10.7947
3.23527 15.1094
3.4138 18.6285
3.59237 23.6635
3.77094 25.7129
3.9495 29.5003
4.12809 34.2898
4.30669 146.674
4.4853 58.3308
4.6639 55.1858
4.84253 67.4127
5.02118 86.149
5.19981 364.175
5.37848 177.969
5.55716 100.566
5.73586 91.2602
5.91455 93.7102
6.09328 4543.24
6.27201 80.265
6.45075 67.1625
6.62952 61.8872
6.8083 57.631
6.98711 55.261
7.16591 54.7776
7.34475 76.5442
7.5236 54.0292
7.70247 55.6719
7.88135 57.3002
8.06026 61.7821
8.23919 68.5509
8.41812 83.4467
8.59709 1213.66
8.77609 97.0009
8.9551 88.7097
9.13412 81.143
9.31318 82.4642
9.49226 83.9131
9.67134 94.7056
9.85047 99.1929
10.0296 342.734
10.2088 341.999
10.388 103.478
10.5672 538.822
10.7465 85.3146
10.9257 76.9964
11.105 71.093
11.2844 68.4201
11.4637 64.079
11.6431 62.8394
11.8225 61.8231
12.002 63.2741
12.1814 157.568
12.3609 67.3658
12.5405 63.7613
12.72 67.815
12.8996 70.185
13.0792 78.9463
13.2589 245.832
13.4386 116.885
13.6183 255.119
13.7981 92.7666
13.9779 75.1324
14.1577 71.1849
14.3376 70.2441
14.5175 68.1239
14.6974 69.6054
14.8774 111.055
15.0574 141.67
15.2374 69.0892
15.4175 65.5224
15.5976 65.2692
15.7778 94.386
15.958 147.165
16.1382 61.0363
16.3185 57.5118
16.4988 54.824
16.6792 53.8833
16.8596 54.3819
17.04 55.4621
17.2205 66.7227
17.401 69.0596
17.5815 58.411
17.7622 60.5978
17.9428 73.222
18.1237 141.557
18.3044 91.1532
18.4852 74.285
18.666 59.645
18.8469 57.1819
19.0278 56.012
19.2088 58.6349
19.3898 76.138
19.5709 53.5049
19.752 52.7894
19.9332 55.7729
20.1144 69.829
20.2957 64.0808
20.477 52.4818
20.6586 49.1533
20.84 48.4115
21.0215 47.9724
21.203 50.3864
21.3846 48.3829
21.5662 48.3802
21.7479 52.3489
21.9297 64.1736
22.1115 55.7795
22.2933 49.0789
22.4753 48.3841
22.6572 48.3458
22.8393 51.6288
23.0214 56.5317
23.2037 48.2795
23.3859 49.2048
23.5682 57.1259
23.7505 47.3433
23.9329 44.7801
24.1154 43.5706
24.2979 42.9146
24.4805 42.5118
24.6631 42.3259
24.8458 41.7186
25.0286 42.4578
25.2114 44.4824
25.3943 44.0909
25.5773 40.514
25.7605 40.0619
25.9436 40.5137
26.1268 41.4358
26.31 39.7518
26.4933 40.333
26.6767 41.7796
26.8601 39.9362
27.0437 38.4326
27.2272 38.0158
27.4109 38.1172
27.5946 38.073
27.7784 37.4738
27.9623 38.1423
28.1462 38.3851
28.3304 36.7861
28.5145 35.5828
28.6987 35.1836
28.8829 35.008
29.0673 34.2255
29.2517 33.9259
29.4361 33.7722
29.6207 32.8017
29.8053 32.5033
29.99 32.139
30.1748 32.1032
30.3597 31.8273
30.5447 31.7974
30.7297 31.8652
30.915 31.2261
31.1002 30.7977
31.2855 30.5692
31.4708 30.6136
31.6563 29.9407
31.8418 29.854
32.0275 29.5486
32.2132 29.0391
32.399 28.582
32.5848 28.2194
32.7708 27.8444
32.9569 27.7344
33.143 27.5418
33.3293 27.0168
33.5158 26.783
33.7022 26.3772
33.8887 25.9853
34.0753 25.745
34.262 25.3964
34.4488 24.9734
34.6357 24.7666
34.8227 24.4483
35.0098 24.2621
35.1969 23.9534
35.3842 23.7256
35.5716 23.5812
35.759 23.2493
35.9468 22.9096
36.1345 22.6471
36.3222 22.4285
36.5101 22.1504
36.6981 21.8878
36.8861 21.5212
37.0743 21.2892
37.2626 21.0983
37.451 20.8065
37.6395 20.5834
37.8281 20.3165
38.0168 19.9957
38.2056 19.7763
38.3945 19.523
38.5837 19.2887
38.7728 18.989
38.9621 18.7573
39.1514 18.5042
39.3409 18.3181
39.5304 18.0113
39.7201 17.9184
39.9099 17.6373
40.0999 17.3888
40.2899 17.159
40.48 16.9542
40.6703 16.8033
40.8607 16.5262
41.0512 16.2917
41.242 16.0757
41.4327 15.8537
41.6236 15.6992
41.8146 15.4816
42.0057 15.3017
42.1969 15.1394
42.3882 14.8566
42.5797 14.6796
42.7713 14.5161
42.963 14.2387
43.1549 14.0468
43.3468 13.8814
43.5389 13.698
43.7312 13.4717
43.9237 13.3146
44.1162 13.1546
44.3088 12.9485
44.5016 12.7621
44.6945 12.6314
44.8875 12.424
45.0806 12.2334
45.2739 12.07
45.4673 11.9239
45.6609 11.7312
45.8546 11.6258
46.0484 11.4173
46.2424 11.2292
46.4365 11.0876
46.631 10.8727
46.8254 10.7391
47.0199 10.5868
47.2146 10.4554
47.4095 10.2914
47.6044 10.1178
47.7996 9.98754
47.9948 9.81848
48.1902 9.67693
48.3858 9.56615
48.5815 9.45178
48.7774 9.28052
48.9734 9.15563
49.1696 9.03163
49.3661 8.85972
49.5626 8.73351
49.7592 8.61445
49.956 8.46728
50.153 8.34741
50.3501 8.22296
50.5474 8.07735
50.7448 7.93826
50.9424 7.83939
51.1402 7.71919
51.3381 7.62122
51.5362 7.46986
51.7344 7.34902
51.9328 7.21987
52.1316 7.08468
52.3304 7.01492
52.5293 6.86813
52.7284 6.77062
52.9276 6.65069
53.1271 6.57714
53.3267 6.44839
53.5265 6.29342
53.7264 6.24536
53.9266 6.11197
54.1269 5.95838
54.3274 5.86032
54.528 5.72985
54.7289 5.61653
54.9301 5.43202
55.1314 5.33995
55.3328 5.07917
55.5344 4.9261
55.7361 4.77872