File: XRD/Ni3Fe_FD0822.xy
TT I
1.27165 7.035
1.45013 5.875
1.62863 5.52389
1.80712 4.78798
1.98562 4.73066
2.16411 5.14948
2.34263 5.47209
2.52115 7.2273
2.69965 8.53619
2.87818 9.02729
3.05672 11.1802
3.23527 15.1556
3.4138 18.4915
3.59237 22.4058
3.77094 25.6104
3.9495 29.3436
4.12809 33.7582
4.30669 99.0162
4.4853 53.0027
4.6639 54.9348
4.84253 68.3158
5.02118 86.6603
5.19981 403.001
5.37848 193.32
5.55716 101.759
5.73586 92.4595
5.91455 94.7334
6.09328 4570.51
6.27201 79.5283
6.45075 69.6835
6.62952 62.5989
6.8083 59.0368
6.98711 55.1141
7.16591 56.2498
7.34475 65.6366
7.5236 53.6154
7.70247 56.7111
7.88135 57.2693
8.06026 62.3276
8.23919 68.8365
8.41812 82.9893
8.59709 1224.34
8.77609 96.8325
8.9551 89.0776
9.13412 82.7368
9.31318 84.8701
9.49226 84.2077
9.67134 94.9168
9.85047 100.929
10.0296 345.874
10.2088 349.319
10.388 104.589
10.5672 539.45
10.7465 85.4253
10.9257 77.3185
11.105 70.7234
11.2844 67.858
11.4637 64.0391
11.6431 62.7823
11.8225 62.1496
12.002 63.8914
12.1814 161.332
12.3609 66.3867
12.5405 64.5005
12.72 67.415
12.8996 70.8684
13.0792 80.1417
13.2589 249.458
13.4386 117.415
13.6183 259.179
13.7981 93.2944
13.9779 75.3042
14.1577 71.1834
14.3376 69.4767
14.5175 68.1249
14.6974 70.1561
14.8774 111.975
15.0574 139.616
15.2374 68.9318
15.4175 65.761
15.5976 65.4176
15.7778 95.2675
15.958 146.59
16.1382 60.6837
16.3185 57.2337
16.4988 54.6693
16.6792 53.725
16.8596 54.418
17.04 55.5669
17.2205 66.8246
17.401 68.3707
17.5815 58.7689
17.7622 60.9439
17.9428 73.1346
18.1237 141.958
18.3044 91.3718
18.4852 73.9698
18.666 59.7534
18.8469 57.5202
19.0278 56.1251
19.2088 58.7457
19.3898 75.6971
19.5709 53.4804
19.752 52.7596
19.9332 55.9133
20.1144 69.6318
20.2957 64.1216
20.477 52.397
20.6586 49.0523
20.84 48.4482
21.0215 48.0181
21.203 50.5157
21.3846 48.3383
21.5662 48.5627
21.7479 52.2616
21.9297 64.1413
22.1115 55.723
22.2933 48.9692
22.4753 48.1588
22.6572 48.6104
22.8393 51.6272
23.0214 56.3239
23.2037 48.375
23.3859 49.3048
23.5682 57.1349
23.7505 47.2952
23.9329 44.7306
24.1154 43.5947
24.2979 43.0485
24.4805 42.46
24.6631 42.3584
24.8458 41.7187
25.0286 42.4688
25.2114 44.262
25.3943 44.048
25.5773 40.3065
25.7605 39.9537
25.9436 40.4286
26.1268 41.2603
26.31 39.7782
26.4933 40.3188
26.6767 41.7536
26.8601 40.0128
27.0437 38.4836
27.2272 38.0571
27.4109 38.0456
27.5946 37.9292
27.7784 37.4361
27.9623 38.1229
28.1462 38.3525
28.3304 36.6412
28.5145 35.5745
28.6987 35.2701
28.8829 35.0389
29.0673 34.1507
29.2517 33.8831
29.4361 33.7962
29.6207 32.7517
29.8053 32.4582
29.99 32.2878
30.1748 32.1003
30.3597 31.8717
30.5447 31.9342
30.7297 31.8707
30.915 31.2368
31.1002 30.8034
31.2855 30.4811
31.4708 30.5009
31.6563 30.0163
31.8418 29.9011
32.0275 29.5295
32.2132 29.0383
32.399 28.5912
32.5848 28.1671
32.7708 27.8098
32.9569 27.7365
33.143 27.5089
33.3293 26.9839
33.5158 26.689
33.7022 26.2526
33.8887 26.0554
34.0753 25.774
34.262 25.3764
34.4488 25.0898
34.6357 24.6921
34.8227 24.4184
35.0098 24.2394
35.1969 23.9677
35.3842 23.66
35.5716 23.5861
35.759 23.2456
35.9468 22.8676
36.1345 22.6592
36.3222 22.3313
36.5101 22.204
36.6981 21.774
36.8861 21.5339
37.0743 21.2345
37.2626 21.0762
37.451 20.7878
37.6395 20.6484
37.8281 20.2274
38.0168 19.982
38.2056 19.7348
38.3945 19.428
38.5837 19.2516
38.7728 19.0489
38.9621 18.7198
39.1514 18.4502
39.3409 18.3019
39.5304 17.9867
39.7201 17.8618
39.9099 17.6621
40.0999 17.3641
40.2899 17.1818
40.48 16.9217
40.6703 16.6611
40.8607 16.5116
41.0512 16.3211
41.242 16.0641
41.4327 15.8791
41.6236 15.6757
41.8146 15.5045
42.0057 15.2677
42.1969 15.0376
42.3882 14.8904
42.5797 14.6509
42.7713 14.502
42.963 14.2538
43.1549 14.098
43.3468 13.859
43.5389 13.6942
43.7312 13.4516
43.9237 13.2982
44.1162 13.1185
44.3088 12.927
44.5016 12.7311
44.6945 12.5784
44.8875 12.4424
45.0806 12.2473
45.2739 12.0699
45.4673 11.8954
45.6609 11.7218
45.8546 11.5945
46.0484 11.3986
46.2424 11.2331
46.4365 11.0769
46.631 10.909
46.8254 10.7176
47.0199 10.5583
47.2146 10.4237
47.4095 10.2446
47.6044 10.084
47.7996 9.97841
47.9948 9.82892
48.1902 9.69059
48.3858 9.56323
48.5815 9.36035
48.7774 9.29381
48.9734 9.1707
49.1696 9.02696
49.3661 8.86003
49.5626 8.73926
49.7592 8.6075
49.956 8.46907
50.153 8.36111
50.3501 8.22087
50.5474 8.07138
50.7448 7.96685
50.9424 7.85038
51.1402 7.70662
51.3381 7.54936
51.5362 7.45293
51.7344 7.34854
51.9328 7.22596
52.1316 7.07317
52.3304 6.99532
52.5293 6.86554
52.7284 6.78068
52.9276 6.66802
53.1271 6.53963
53.3267 6.40222
53.5265 6.31189
53.7264 6.15443
53.9266 6.06861
54.1269 6.00044
54.3274 5.84375
54.528 5.73221
54.7289 5.58203
54.9301 5.44344
55.1314 5.33601
55.3328 5.09226
55.5344 4.91319
55.7361 4.73227