File: XRD/Ni3Fe_FD0917.xy
TT I
1.27165 7.13217
1.45013 6.19288
1.62863 5.27178
1.80712 4.43024
1.98562 4.94988
2.16411 4.8079
2.34263 5.39837
2.52115 7.52043
2.69965 8.94619
2.87818 9.1626
3.05672 11.202
3.23527 14.9924
3.4138 18.4294
3.59237 22.8872
3.77094 26.065
3.9495 29.2928
4.12809 34.0643
4.30669 116.492
4.4853 55.0363
4.6639 55.0033
4.84253 67.3099
5.02118 85.5945
5.19981 357.938
5.37848 186.644
5.55716 100.608
5.73586 91.3831
5.91455 93.0853
6.09328 4629.53
6.27201 79.0463
6.45075 68.5434
6.62952 62.434
6.8083 58.2506
6.98711 54.6326
7.16591 54.7972
7.34475 69.3904
7.5236 53.6893
7.70247 55.9736
7.88135 56.6071
8.06026 61.7934
8.23919 68.3151
8.41812 82.7187
8.59709 1201.99
8.77609 95.4128
8.9551 88.5368
9.13412 81.8057
9.31318 83.1326
9.49226 83.4411
9.67134 94.1526
9.85047 99.9766
10.0296 327.293
10.2088 326.223
10.388 102.881
10.5672 542.404
10.7465 84.7262
10.9257 76.7723
11.105 70.3533
11.2844 67.4152
11.4637 63.8737
11.6431 62.3159
11.8225 61.49
12.002 63.2165
12.1814 158.672
12.3609 66.1614
12.5405 63.5329
12.72 67.3018
12.8996 70.3154
13.0792 78.678
13.2589 243.839
13.4386 114.545
13.6183 257.438
13.7981 91.8341
13.9779 74.3488
14.1577 70.7408
14.3376 68.9425
14.5175 67.6327
14.6974 69.277
14.8774 109.791
15.0574 138.007
15.2374 68.3799
15.4175 65.3779
15.5976 64.7911
15.7778 93.4559
15.958 147.177
16.1382 60.5324
16.3185 56.9545
16.4988 54.4678
16.6792 53.3946
16.8596 53.7041
17.04 54.876
17.2205 65.8727
17.401 67.6657
17.5815 58.1897
17.7622 60.2666
17.9428 72.1639
18.1237 140.073
18.3044 90.6899
18.4852 73.1764
18.666 59.3829
18.8469 56.9531
19.0278 55.8707
19.2088 58.1968
19.3898 75.0154
19.5709 53.1252
19.752 52.2328
19.9332 55.0871
20.1144 69.4513
20.2957 64.0421
20.477 52.0239
20.6586 48.7388
20.84 47.9328
21.0215 47.7375
21.203 50.2017
21.3846 47.91
21.5662 48.0932
21.7479 51.883
21.9297 64.1417
22.1115 55.6189
22.2933 48.5828
22.4753 47.8711
22.6572 48.0607
22.8393 51.1543
23.0214 56.0425
23.2037 48.053
23.3859 48.9017
23.5682 56.987
23.7505 47.1855
23.9329 44.5179
24.1154 43.2923
24.2979 42.6761
24.4805 42.1571
24.6631 41.9767
24.8458 41.4723
25.0286 42.1033
25.2114 44.072
25.3943 43.8905
25.5773 40.1985
25.7605 39.7912
25.9436 40.2125
26.1268 41.0529
26.31 39.415
26.4933 40.1753
26.6767 41.4404
26.8601 39.7441
27.0437 38.2765
27.2272 37.9473
27.4109 37.6405
27.5946 37.7596
27.7784 37.24
27.9623 37.8557
28.1462 38.103
28.3304 36.5589
28.5145 35.3688
28.6987 35.0359
28.8829 34.8111
29.0673 33.9901
29.2517 33.7572
29.4361 33.6389
29.6207 32.5816
29.8053 32.2005
29.99 31.9868
30.1748 31.9537
30.3597 31.7214
30.5447 31.6106
30.7297 31.7131
30.915 30.98
31.1002 30.5158
31.2855 30.4063
31.4708 30.3196
31.6563 29.7773
31.8418 29.6993
32.0275 29.4225
32.2132 28.8927
32.399 28.4268
32.5848 28.0386
32.7708 27.6841
32.9569 27.5223
33.143 27.3359
33.3293 26.8597
33.5158 26.5818
33.7022 26.1735
33.8887 25.8806
34.0753 25.4521
34.262 25.1964
34.4488 24.8848
34.6357 24.5907
34.8227 24.3111
35.0098 24.1323
35.1969 23.8338
35.3842 23.568
35.5716 23.3793
35.759 23.0086
35.9468 22.7872
36.1345 22.5127
36.3222 22.269
36.5101 22.072
36.6981 21.7572
36.8861 21.4356
37.0743 21.1322
37.2626 20.9493
37.451 20.595
37.6395 20.515
37.8281 20.159
38.0168 19.8465
38.2056 19.5797
38.3945 19.3618
38.5837 19.1384
38.7728 18.8631
38.9621 18.6668
39.1514 18.3664
39.3409 18.2334
39.5304 17.9598
39.7201 17.7631
39.9099 17.5023
40.0999 17.3112
40.2899 17.1182
40.48 16.809
40.6703 16.6772
40.8607 16.4431
41.0512 16.2388
41.242 15.9816
41.4327 15.7641
41.6236 15.6166
41.8146 15.4513
42.0057 15.1111
42.1969 14.92
42.3882 14.7474
42.5797 14.5817
42.7713 14.3878
42.963 14.2044
43.1549 14.0429
43.3468 13.8063
43.5389 13.6111
43.7312 13.3877
43.9237 13.1814
44.1162 13.0553
44.3088 12.8523
44.5016 12.7029
44.6945 12.5221
44.8875 12.3332
45.0806 12.1268
45.2739 11.97
45.4673 11.8136
45.6609 11.6292
45.8546 11.5199
46.0484 11.3084
46.2424 11.1856
46.4365 11.0527
46.631 10.8221
46.8254 10.7105
47.0199 10.5112
47.2146 10.4172
47.4095 10.2547
47.6044 10.0546
47.7996 9.94611
47.9948 9.77743
48.1902 9.65641
48.3858 9.51931
48.5815 9.3571
48.7774 9.26317
48.9734 9.11265
49.1696 8.98664
49.3661 8.81808
49.5626 8.67106
49.7592 8.54749
49.956 8.40754
50.153 8.3273
50.3501 8.16429
50.5474 8.02635
50.7448 7.91392
50.9424 7.78575
51.1402 7.70341
51.3381 7.5686
51.5362 7.43702
51.7344 7.28941
51.9328 7.16323
52.1316 7.06424
52.3304 6.9769
52.5293 6.84711
52.7284 6.71724
52.9276 6.5751
53.1271 6.52768
53.3267 6.41412
53.5265 6.27614
53.7264 6.16069
53.9266 6.08314
54.1269 5.95121
54.3274 5.83822
54.528 5.73762
54.7289 5.55273
54.9301 5.44184
55.1314 5.28352
55.3328 5.0724
55.5344 4.88218
55.7361 4.70068