File: XRD/Ni3Fe_FD0564.xy
TT I
1.27165 7.57687
1.45013 6.23401
1.62863 5.3502
1.80712 5.07799
1.98562 4.43148
2.16411 4.89662
2.34263 5.29022
2.52115 7.09271
2.69965 7.60837
2.87818 8.99762
3.05672 10.7764
3.23527 15.1345
3.4138 18.4942
3.59237 23.4398
3.77094 25.8611
3.9495 29.5692
4.12809 34.6858
4.30669 147.686
4.4853 58.5683
4.6639 56.1182
4.84253 67.3527
5.02118 88.7499
5.19981 438.955
5.37848 197.146
5.55716 103.297
5.73586 93.137
5.91455 96.7629
6.09328 4431.72
6.27201 82.6851
6.45075 67.7328
6.62952 62.732
6.8083 58.6997
6.98711 55.7117
7.16591 55.6062
7.34475 78.574
7.5236 55.1955
7.70247 56.3848
7.88135 58.166
8.06026 62.5685
8.23919 70.1511
8.41812 85.3275
8.59709 1232.25
8.77609 99.9256
8.9551 90.1256
9.13412 82.5238
9.31318 83.3174
9.49226 85.1876
9.67134 96.2187
9.85047 100.955
10.0296 379.594
10.2088 397.258
10.388 105.899
10.5672 522.581
10.7465 87.4069
10.9257 78.2521
11.105 72.0836
11.2844 69.7365
11.4637 65.0121
11.6431 64.033
11.8225 62.532
12.002 64.6329
12.1814 155.152
12.3609 68.9449
12.5405 64.9105
12.72 69.2484
12.8996 71.6634
13.0792 80.2753
13.2589 249.564
13.4386 122.529
13.6183 253.635
13.7981 96.74
13.9779 76.12
14.1577 72.6233
14.3376 71.2799
14.5175 69.4119
14.6974 71.1167
14.8774 115.604
15.0574 144.412
15.2374 70.7504
15.4175 66.8674
15.5976 66.6071
15.7778 98.6564
15.958 153.603
16.1382 62.5413
16.3185 58.7058
16.4988 55.6871
16.6792 54.873
16.8596 55.3521
17.04 56.4111
17.2205 67.7888
17.401 70.946
17.5815 59.6686
17.7622 61.8777
17.9428 75.4661
18.1237 141.593
18.3044 92.0004
18.4852 77.2144
18.666 60.7276
18.8469 58.4897
19.0278 57.0934
19.2088 60.2251
19.3898 76.2608
19.5709 54.6026
19.752 53.6848
19.9332 56.9592
20.1144 70.3831
20.2957 64.2875
20.477 53.7067
20.6586 49.8554
20.84 49.0101
21.0215 48.8576
21.203 51.1529
21.3846 49.3789
21.5662 49.3155
21.7479 53.4042
21.9297 65.1279
22.1115 56.552
22.2933 50.2333
22.4753 49.0427
22.6572 49.4142
22.8393 52.5751
23.0214 57.484
23.2037 49.1707
23.3859 50.2635
23.5682 57.2976
23.7505 48.3748
23.9329 45.573
24.1154 44.4089
24.2979 43.6669
24.4805 43.2269
24.6631 43.0063
24.8458 42.5063
25.0286 43.227
25.2114 44.8867
25.3943 44.8374
25.5773 41.2195
25.7605 40.7332
25.9436 41.2431
26.1268 42.0503
26.31 40.4283
26.4933 41.0087
26.6767 42.4802
26.8601 40.6755
27.0437 39.0738
27.2272 38.7855
27.4109 38.7617
27.5946 38.6479
27.7784 38.1742
27.9623 38.7283
28.1462 39.1864
28.3304 37.4006
28.5145 36.1918
28.6987 35.8255
28.8829 35.577
29.0673 34.869
29.2517 34.5709
29.4361 34.4225
29.6207 33.326
29.8053 32.9939
29.99 32.7883
30.1748 32.6242
30.3597 32.3994
30.5447 32.3686
30.7297 32.383
30.915 31.7503
31.1002 31.3237
31.2855 31.0304
31.4708 30.9934
31.6563 30.5566
31.8418 30.39
32.0275 30.0079
32.2132 29.5325
32.399 29.0815
32.5848 28.5976
32.7708 28.3607
32.9569 28.2741
33.143 27.9345
33.3293 27.5716
33.5158 27.1586
33.7022 26.7546
33.8887 26.3965
34.0753 26.2116
34.262 25.8363
34.4488 25.4447
34.6357 25.1711
34.8227 24.7782
35.0098 24.6229
35.1969 24.3444
35.3842 24.1732
35.5716 23.9454
35.759 23.6573
35.9468 23.236
36.1345 22.9993
36.3222 22.8093
36.5101 22.5658
36.6981 22.3102
36.8861 21.9141
37.0743 21.616
37.2626 21.3622
37.451 21.1156
37.6395 20.9716
37.8281 20.5827
38.0168 20.3547
38.2056 20.0864
38.3945 19.8114
38.5837 19.5923
38.7728 19.335
38.9621 19.0502
39.1514 18.8315
39.3409 18.5699
39.5304 18.3758
39.7201 18.1742
39.9099 17.9811
40.0999 17.7197
40.2899 17.4573
40.48 17.1987
40.6703 17.059
40.8607 16.8215
41.0512 16.6378
41.242 16.3039
41.4327 16.2157
41.6236 15.9541
41.8146 15.757
42.0057 15.5139
42.1969 15.2895
42.3882 15.1079
42.5797 14.8892
42.7713 14.7226
42.963 14.5172
43.1549 14.3168
43.3468 14.0727
43.5389 13.9267
43.7312 13.7338
43.9237 13.5405
44.1162 13.3264
44.3088 13.1324
44.5016 12.9569
44.6945 12.7812
44.8875 12.597
45.0806 12.4539
45.2739 12.2874
45.4673 12.1417
45.6609 11.912
45.8546 11.7744
46.0484 11.577
46.2424 11.4262
46.4365 11.3068
46.631 11.077
46.8254 10.9284
47.0199 10.7424
47.2146 10.6285
47.4095 10.4273
47.6044 10.2964
47.7996 10.1697
47.9948 10.0238
48.1902 9.84235
48.3858 9.68989
48.5815 9.61616
48.7774 9.45472
48.9734 9.31041
49.1696 9.14845
49.3661 9.01888
49.5626 8.84764
49.7592 8.78396
49.956 8.59793
50.153 8.45355
50.3501 8.34922
50.5474 8.23978
50.7448 8.10163
50.9424 7.97683
51.1402 7.82756
51.3381 7.70075
51.5362 7.62369
51.7344 7.46098
51.9328 7.33823
52.1316 7.23577
52.3304 7.11611
52.5293 7.01585
52.7284 6.9012
52.9276 6.76869
53.1271 6.66171
53.3267 6.54183
53.5265 6.4367
53.7264 6.29313
53.9266 6.20197
54.1269 6.03294
54.3274 5.99163
54.528 5.91675
54.7289 5.65758
54.9301 5.51231
55.1314 5.4297
55.3328 5.19781
55.5344 4.99985
55.7361 4.84353