File: XRD/Ni3Fe_FD0567.xy
TT I
1.27165 7.28657
1.45013 6.31275
1.62863 5.55242
1.80712 5.13715
1.98562 4.763
2.16411 4.26473
2.34263 5.73887
2.52115 6.88106
2.69965 7.56008
2.87818 8.36764
3.05672 11.5627
3.23527 14.7717
3.4138 19.0629
3.59237 23.3209
3.77094 25.7554
3.9495 29.863
4.12809 34.8758
4.30669 140.222
4.4853 58.3482
4.6639 55.853
4.84253 68.2875
5.02118 89.1309
5.19981 447.943
5.37848 196.567
5.55716 103.42
5.73586 93.703
5.91455 97.0883
6.09328 4488.04
6.27201 82.4879
6.45075 68.175
6.62952 62.7165
6.8083 58.9247
6.98711 55.5537
7.16591 55.5448
7.34475 76.533
7.5236 54.9113
7.70247 56.8141
7.88135 58.2225
8.06026 62.8407
8.23919 70.0659
8.41812 85.8867
8.59709 1234.43
8.77609 100.204
8.9551 90.2277
9.13412 82.6907
9.31318 83.798
9.49226 85.6127
9.67134 96.5237
9.85047 101.605
10.0296 381.208
10.2088 378.112
10.388 106.26
10.5672 524.812
10.7465 86.9514
10.9257 78.3715
11.105 72.1392
11.2844 69.7943
11.4637 65.3932
11.6431 64.0556
11.8225 63.0112
12.002 64.4693
12.1814 156.292
12.3609 68.3691
12.5405 64.9077
12.72 69.4115
12.8996 71.7873
13.0792 80.8486
13.2589 250.649
13.4386 121.567
13.6183 257.456
13.7981 97.0053
13.9779 76.3775
14.1577 72.6392
14.3376 71.4014
14.5175 69.5256
14.6974 71.2634
14.8774 116.127
15.0574 143.831
15.2374 70.4951
15.4175 66.9403
15.5976 66.5289
15.7778 99.1279
15.958 150.846
16.1382 62.555
16.3185 58.7514
16.4988 55.8194
16.6792 54.9036
16.8596 55.6306
17.04 56.6254
17.2205 68.1427
17.401 70.761
17.5815 59.7306
17.7622 61.9584
17.9428 75.5568
18.1237 141.605
18.3044 92.2024
18.4852 76.8662
18.666 60.8904
18.8469 58.4575
19.0278 57.5003
19.2088 60.3196
19.3898 76.3508
19.5709 54.4498
19.752 53.8169
19.9332 57.006
20.1144 70.2367
20.2957 64.2965
20.477 53.7147
20.6586 50.1161
20.84 49.1537
21.0215 49.1242
21.203 51.1732
21.3846 49.2235
21.5662 49.314
21.7479 53.342
21.9297 64.9148
22.1115 56.3114
22.2933 49.9997
22.4753 49.1247
22.6572 49.4414
22.8393 52.5238
23.0214 57.3099
23.2037 49.102
23.3859 50.2954
23.5682 57.4187
23.7505 48.1839
23.9329 45.4892
24.1154 44.2606
24.2979 43.6145
24.4805 43.2646
24.6631 43.0178
24.8458 42.5541
25.0286 43.2656
25.2114 44.8693
25.3943 44.7832
25.5773 41.2786
25.7605 40.6014
25.9436 40.9853
26.1268 41.9422
26.31 40.3143
26.4933 41.051
26.6767 42.3679
26.8601 40.6428
27.0437 39.0643
27.2272 38.8082
27.4109 38.7873
27.5946 38.6423
27.7784 38.176
27.9623 38.629
28.1462 38.8663
28.3304 37.344
28.5145 36.205
28.6987 35.8707
28.8829 35.5972
29.0673 34.8764
29.2517 34.6623
29.4361 34.3249
29.6207 33.4519
29.8053 33.0765
29.99 32.7846
30.1748 32.6421
30.3597 32.4164
30.5447 32.4282
30.7297 32.43
30.915 31.7933
31.1002 31.4543
31.2855 31.0918
31.4708 30.9441
31.6563 30.4965
31.8418 30.4203
32.0275 30.1647
32.2132 29.6105
32.399 29.1031
32.5848 28.6908
32.7708 28.3453
32.9569 28.2203
33.143 27.9753
33.3293 27.5248
33.5158 27.2562
33.7022 26.7122
33.8887 26.4789
34.0753 26.0998
34.262 25.7848
34.4488 25.4823
34.6357 25.1199
34.8227 24.869
35.0098 24.6845
35.1969 24.3894
35.3842 24.1539
35.5716 23.8622
35.759 23.5953
35.9468 23.2549
36.1345 23.017
36.3222 22.7912
36.5101 22.5645
36.6981 22.3091
36.8861 21.9817
37.0743 21.6945
37.2626 21.3934
37.451 21.135
37.6395 20.907
37.8281 20.6678
38.0168 20.334
38.2056 20.1069
38.3945 19.7586
38.5837 19.6548
38.7728 19.3514
38.9621 19.1138
39.1514 18.8067
39.3409 18.5541
39.5304 18.3578
39.7201 18.207
39.9099 17.8764
40.0999 17.7304
40.2899 17.4843
40.48 17.2322
40.6703 17.0541
40.8607 16.8362
41.0512 16.6204
41.242 16.3649
41.4327 16.1761
41.6236 15.9578
41.8146 15.7396
42.0057 15.5574
42.1969 15.3202
42.3882 15.1466
42.5797 14.9632
42.7713 14.7057
42.963 14.5186
43.1549 14.2965
43.3468 14.0831
43.5389 13.8619
43.7312 13.7245
43.9237 13.5323
44.1162 13.3256
44.3088 13.1702
44.5016 12.9331
44.6945 12.8074
44.8875 12.6579
45.0806 12.4173
45.2739 12.2835
45.4673 12.1065
45.6609 11.9345
45.8546 11.779
46.0484 11.5943
46.2424 11.4242
46.4365 11.2627
46.631 11.0805
46.8254 10.9626
47.0199 10.7757
47.2146 10.6104
47.4095 10.4705
47.6044 10.2822
47.7996 10.1181
47.9948 9.97926
48.1902 9.81884
48.3858 9.70823
48.5815 9.60903
48.7774 9.47489
48.9734 9.28453
49.1696 9.16261
49.3661 9.00606
49.5626 8.86216
49.7592 8.74237
49.956 8.61737
50.153 8.45245
50.3501 8.32809
50.5474 8.26421
50.7448 8.09359
50.9424 7.9734
51.1402 7.85542
51.3381 7.74019
51.5362 7.60046
51.7344 7.46581
51.9328 7.3484
52.1316 7.22101
52.3304 7.13734
52.5293 7.0194
52.7284 6.88153
52.9276 6.73129
53.1271 6.66266
53.3267 6.56046
53.5265 6.3917
53.7264 6.3379
53.9266 6.22312
54.1269 6.1053
54.3274 5.93866
54.528 5.84662
54.7289 5.69092
54.9301 5.50815
55.1314 5.37185
55.3328 5.18436
55.5344 4.97987
55.7361 4.82833