File: XRD/Ni3Fe_FD0241.xy
TT I
1.27165 7.64287
1.45013 6.7891
1.62863 5.68087
1.80712 5.44526
1.98562 4.68546
2.16411 4.11399
2.34263 4.59135
2.52115 4.94716
2.69965 6.54027
2.87818 8.34434
3.05672 11.0686
3.23527 14.8732
3.4138 18.7842
3.59237 22.4675
3.77094 26.1603
3.9495 29.967
4.12809 34.7292
4.30669 40.847
4.4853 48.1879
4.6639 57.638
4.84253 71.8195
5.02118 96.3668
5.19981 891.202
5.37848 271.21
5.55716 111.666
5.73586 100.288
5.91455 110.224
6.09328 3685.54
6.27201 88.4579
6.45075 71.3083
6.62952 64.198
6.8083 60.0147
6.98711 57.2804
7.16591 56.7283
7.34475 55.7386
7.5236 55.8858
7.70247 58.1855
7.88135 60.1519
8.06026 65.2883
8.23919 73.0052
8.41812 90.3874
8.59709 1076.64
8.77609 110.197
8.9551 90.6852
9.13412 86.6659
9.31318 88.2691
9.49226 89.3549
9.67134 95.3877
9.85047 106.433
10.0296 512.018
10.2088 537.666
10.388 115.06
10.5672 447.467
10.7465 92.1549
10.9257 80.7437
11.105 74.7126
11.2844 70.3708
11.4637 67.7119
11.6431 66.4172
11.8225 65.2061
12.002 68.7067
12.1814 141.217
12.3609 69.7893
12.5405 67.1861
12.72 69.5742
12.8996 74.7144
13.0792 86.3746
13.2589 231.125
13.4386 148.945
13.6183 228.221
13.7981 110.25
13.9779 79.5771
14.1577 75.0074
14.3376 72.6793
14.5175 72.0689
14.6974 74.5826
14.8774 120.215
15.0574 169.448
15.2374 72.193
15.4175 69.7794
15.5976 69.7642
15.7778 103.168
15.958 174.123
16.1382 63.8024
16.3185 59.943
16.4988 57.7795
16.6792 56.8854
16.8596 57.3211
17.04 59.2276
17.2205 68.7184
17.401 77.0591
17.5815 62.2692
17.7622 64.4349
17.9428 82.5824
18.1237 139.312
18.3044 90.2132
18.4852 83.1509
18.666 63.2292
18.8469 60.6794
19.0278 59.6025
19.2088 62.9559
19.3898 76.5113
19.5709 56.8791
19.752 55.9971
19.9332 59.478
20.1144 72.6008
20.2957 64.5418
20.477 56.5958
20.6586 52.0141
20.84 50.9808
21.0215 51.251
21.203 52.5168
21.3846 51.4757
21.5662 51.8249
21.7479 55.446
21.9297 67.0285
22.1115 57.7375
22.2933 52.4599
22.4753 50.8627
22.6572 51.79
22.8393 54.1955
23.0214 59.8405
23.2037 51.4888
23.3859 52.5774
23.5682 57.8766
23.7505 51.1049
23.9329 47.274
24.1154 46.1157
24.2979 45.4601
24.4805 44.8679
24.6631 44.756
24.8458 44.2561
25.0286 44.9346
25.2114 46.4984
25.3943 46.4936
25.5773 42.8925
25.7605 42.3245
25.9436 42.5648
26.1268 43.5657
26.31 42.0715
26.4933 42.4783
26.6767 43.8896
26.8601 42.2903
27.0437 40.6965
27.2272 40.2945
27.4109 40.083
27.5946 40.2228
27.7784 39.7626
27.9623 39.9885
28.1462 40.5555
28.3304 38.8476
28.5145 37.6237
28.6987 37.1743
28.8829 36.865
29.0673 36.3505
29.2517 35.8115
29.4361 35.6105
29.6207 34.6298
29.8053 34.3357
29.99 34.0392
30.1748 33.8626
30.3597 33.7889
30.5447 33.6493
30.7297 33.6536
30.915 32.9881
31.1002 32.5312
31.2855 32.2576
31.4708 32.1008
31.6563 31.748
31.8418 31.506
32.0275 31.2605
32.2132 30.6326
32.399 30.263
32.5848 29.7442
32.7708 29.426
32.9569 29.3401
33.143 29.0412
33.3293 28.6808
33.5158 28.3193
33.7022 27.7177
33.8887 27.478
34.0753 27.1749
34.262 26.7646
34.4488 26.4117
34.6357 26.1306
34.8227 25.7891
35.0098 25.5185
35.1969 25.2628
35.3842 24.9821
35.5716 24.7845
35.759 24.4664
35.9468 24.1037
36.1345 23.8919
36.3222 23.6516
36.5101 23.3966
36.6981 23.0662
36.8861 22.8105
37.0743 22.4354
37.2626 22.175
37.451 21.9061
37.6395 21.7294
37.8281 21.3587
38.0168 21.1144
38.2056 20.8417
38.3945 20.5129
38.5837 20.303
38.7728 20.0321
38.9621 19.8297
39.1514 19.5823
39.3409 19.2995
39.5304 19.052
39.7201 18.8278
39.9099 18.6176
40.0999 18.3343
40.2899 18.0841
40.48 17.818
40.6703 17.6448
40.8607 17.4282
41.0512 17.2129
41.242 16.9192
41.4327 16.7807
41.6236 16.5236
41.8146 16.2757
42.0057 16.0507
42.1969 15.8611
42.3882 15.7106
42.5797 15.4861
42.7713 15.2787
42.963 15.0686
43.1549 14.7833
43.3468 14.5964
43.5389 14.4548
43.7312 14.1798
43.9237 14.0279
44.1162 13.8171
44.3088 13.6176
44.5016 13.3866
44.6945 13.2623
44.8875 13.0524
45.0806 12.8739
45.2739 12.7143
45.4673 12.5193
45.6609 12.3361
45.8546 12.1988
46.0484 11.9537
46.2424 11.8595
46.4365 11.6425
46.631 11.4787
46.8254 11.318
47.0199 11.1829
47.2146 10.963
47.4095 10.826
47.6044 10.6495
47.7996 10.5166
47.9948 10.334
48.1902 10.204
48.3858 10.0493
48.5815 9.93335
48.7774 9.74345
48.9734 9.62466
49.1696 9.48528
49.3661 9.33416
49.5626 9.13436
49.7592 9.03852
49.956 8.91785
50.153 8.76516
50.3501 8.65892
50.5474 8.50071
50.7448 8.368
50.9424 8.24814
51.1402 8.11585
51.3381 8.00305
51.5362 7.85671
51.7344 7.7359
51.9328 7.60724
52.1316 7.43741
52.3304 7.3458
52.5293 7.23731
52.7284 7.08861
52.9276 6.98849
53.1271 6.9122
53.3267 6.76483
53.5265 6.65139
53.7264 6.55962
53.9266 6.42535
54.1269 6.31607
54.3274 6.20572
54.528 5.96557
54.7289 5.81799
54.9301 5.71613
55.1314 5.58392
55.3328 5.31863
55.5344 5.10402
55.7361 4.97893