File: XRD/Ni3Fe_FD0771.xy
TT I
1.27165 7.35517
1.45013 5.50896
1.62863 5.76739
1.80712 4.7849
1.98562 4.68651
2.16411 5.04135
2.34263 5.44353
2.52115 7.19175
2.69965 8.31527
2.87818 8.43947
3.05672 11.2335
3.23527 14.9424
3.4138 19.0929
3.59237 24.3221
3.77094 26.182
3.9495 29.9058
4.12809 34.9619
4.30669 284.124
4.4853 71.4981
4.6639 54.7613
4.84253 66.3081
5.02118 85.1053
5.19981 300.171
5.37848 188.759
5.55716 100.802
5.73586 90.9069
5.91455 91.5528
6.09328 4176.99
6.27201 82.9459
6.45075 66.9831
6.62952 62.7713
6.8083 58.7932
6.98711 55.8711
7.16591 55.5662
7.34475 105.844
7.5236 54.9428
7.70247 55.9256
7.88135 57.5146
8.06026 61.8008
8.23919 68.8101
8.41812 84.4663
8.59709 1075.71
8.77609 98.5623
8.9551 93.0054
9.13412 81.2141
9.31318 81.6246
9.49226 83.1819
9.67134 100.733
9.85047 98.2762
10.0296 296.579
10.2088 413.084
10.388 104.307
10.5672 507.91
10.7465 86.0761
10.9257 78.3834
11.105 71.4146
11.2844 71.0119
11.4637 64.6493
11.6431 63.2951
11.8225 61.8477
12.002 62.7179
12.1814 146.301
12.3609 72.3134
12.5405 64.066
12.72 70.9712
12.8996 70.3232
13.0792 77.42
13.2589 222.155
13.4386 128.093
13.6183 232.385
13.7981 99.0633
13.9779 74.8901
14.1577 71.9829
14.3376 71.8039
14.5175 68.135
14.6974 69.7764
14.8774 104.607
15.0574 153.401
15.2374 71.3526
15.4175 65.8695
15.5976 64.9819
15.7778 90.1298
15.958 161.728
16.1382 63.09
16.3185 58.3733
16.4988 55.2985
16.6792 54.0968
16.8596 54.9991
17.04 55.2636
17.2205 65.3313
17.401 71.1931
17.5815 58.5136
17.7622 60.7871
17.9428 71.3281
18.1237 139.051
18.3044 88.4797
18.4852 78.884
18.666 60.1437
18.8469 57.7326
19.0278 56.4997
19.2088 58.9385
19.3898 76.8225
19.5709 53.857
19.752 52.962
19.9332 55.4346
20.1144 69.4141
20.2957 63.0328
20.477 53.6921
20.6586 49.3834
20.84 48.4695
21.0215 48.2232
21.203 50.6131
21.3846 48.6223
21.5662 48.279
21.7479 51.5913
21.9297 64.2723
22.1115 55.6443
22.2933 49.5175
22.4753 48.675
22.6572 48.4414
22.8393 51.1585
23.0214 57.4739
23.2037 48.4714
23.3859 49.1073
23.5682 56.5279
23.7505 48.2179
23.9329 44.9956
24.1154 43.8248
24.2979 43.2616
24.4805 42.5753
24.6631 42.4492
24.8458 41.9594
25.0286 42.4327
25.2114 44.1977
25.3943 44.624
25.5773 40.6778
25.7605 40.1363
25.9436 40.5386
26.1268 41.3473
26.31 39.8303
26.4933 40.4063
26.6767 41.9022
26.8601 40.2357
27.0437 38.5445
27.2272 38.2387
27.4109 38.1181
27.5946 38.1172
27.7784 37.6592
27.9623 38.1663
28.1462 38.6409
28.3304 36.9552
28.5145 35.7781
28.6987 35.5542
28.8829 35.2664
29.0673 34.4602
29.2517 34.1567
29.4361 34.0506
29.6207 33.0141
29.8053 32.6646
29.99 32.397
30.1748 32.2848
30.3597 32.0699
30.5447 31.9578
30.7297 31.9187
30.915 31.4215
31.1002 30.9513
31.2855 30.7171
31.4708 30.6068
31.6563 30.144
31.8418 29.9841
32.0275 29.7968
32.2132 29.2159
32.399 28.7428
32.5848 28.3211
32.7708 27.9411
32.9569 27.9262
33.143 27.5506
33.3293 27.2479
33.5158 26.8509
33.7022 26.3887
33.8887 26.1527
34.0753 25.7275
34.262 25.529
34.4488 25.1798
34.6357 24.8751
34.8227 24.5583
35.0098 24.3183
35.1969 24.0838
35.3842 23.8624
35.5716 23.661
35.759 23.4064
35.9468 22.9457
36.1345 22.7695
36.3222 22.603
36.5101 22.3486
36.6981 22.0083
36.8861 21.7057
37.0743 21.3857
37.2626 21.1262
37.451 20.9573
37.6395 20.7253
37.8281 20.3619
38.0168 20.121
38.2056 19.7881
38.3945 19.5969
38.5837 19.4169
38.7728 19.0934
38.9621 18.8454
39.1514 18.6148
39.3409 18.3871
39.5304 18.1544
39.7201 17.97
39.9099 17.741
40.0999 17.5156
40.2899 17.2218
40.48 17.0415
40.6703 16.8249
40.8607 16.6915
41.0512 16.4292
41.242 16.1907
41.4327 16.0334
41.6236 15.8505
41.8146 15.5898
42.0057 15.3242
42.1969 15.1217
42.3882 14.9452
42.5797 14.8067
42.7713 14.5292
42.963 14.3381
43.1549 14.1289
43.3468 13.9834
43.5389 13.7646
43.7312 13.6066
43.9237 13.4093
44.1162 13.2098
44.3088 13.0238
44.5016 12.8251
44.6945 12.6908
44.8875 12.5092
45.0806 12.3338
45.2739 12.1555
45.4673 11.9772
45.6609 11.7876
45.8546 11.6674
46.0484 11.4831
46.2424 11.3288
46.4365 11.1798
46.631 10.9819
46.8254 10.8531
47.0199 10.6532
47.2146 10.4812
47.4095 10.3696
47.6044 10.2248
47.7996 10.0288
47.9948 9.89314
48.1902 9.77626
48.3858 9.65838
48.5815 9.49168
48.7774 9.37867
48.9734 9.21703
49.1696 9.02622
49.3661 8.91661
49.5626 8.77397
49.7592 8.6483
49.956 8.54341
50.153 8.43205
50.3501 8.25504
50.5474 8.14249
50.7448 8.02219
50.9424 7.87505
51.1402 7.76988
51.3381 7.64232
51.5362 7.53423
51.7344 7.41624
51.9328 7.29569
52.1316 7.13836
52.3304 7.03732
52.5293 6.94328
52.7284 6.79313
52.9276 6.70371
53.1271 6.61969
53.3267 6.5086
53.5265 6.33749
53.7264 6.26032
53.9266 6.11129
54.1269 6.06432
54.3274 5.92918
54.528 5.75498
54.7289 5.6684
54.9301 5.44397
55.1314 5.33154
55.3328 5.08271
55.5344 4.98475
55.7361 4.79961