File: XRD/Ni3Fe_FD0239.xy
TT I
1.27165 7.69921
1.45013 6.9235
1.62863 5.8127
1.80712 5.46886
1.98562 4.65334
2.16411 5.04242
2.34263 5.03989
2.52115 5.16631
2.69965 6.69848
2.87818 8.22046
3.05672 11.3532
3.23527 15.1858
3.4138 18.892
3.59237 22.1538
3.77094 25.705
3.9495 29.8413
4.12809 35.0312
4.30669 40.6412
4.4853 48.6138
4.6639 58.1989
4.84253 72.0764
5.02118 96.4809
5.19981 890.534
5.37848 270.296
5.55716 112.03
5.73586 101.391
5.91455 110.215
6.09328 3672.24
6.27201 89.1451
6.45075 71.0906
6.62952 64.2372
6.8083 60.288
6.98711 57.2789
7.16591 56.8026
7.34475 55.7365
7.5236 55.9195
7.70247 57.7367
7.88135 60.1148
8.06026 65.34
8.23919 72.8917
8.41812 90.2988
8.59709 1079.55
8.77609 110.208
8.9551 90.546
9.13412 86.9664
9.31318 88.1384
9.49226 89.4835
9.67134 95.6978
9.85047 106.986
10.0296 513.548
10.2088 537.634
10.388 115.387
10.5672 453.191
10.7465 91.8791
10.9257 80.8629
11.105 74.7841
11.2844 70.5827
11.4637 67.711
11.6431 66.3034
11.8225 65.256
12.002 68.6999
12.1814 141.542
12.3609 69.7351
12.5405 67.2868
12.72 69.5334
12.8996 74.5458
13.0792 86.5804
13.2589 231.355
13.4386 149.358
13.6183 228.253
13.7981 110.285
13.9779 79.8624
14.1577 75.1244
14.3376 72.9437
14.5175 72.4185
14.6974 74.518
14.8774 119.801
15.0574 169.98
15.2374 72.1241
15.4175 69.7263
15.5976 69.6181
15.7778 103.999
15.958 173.444
16.1382 63.5882
16.3185 60.0712
16.4988 58.0089
16.6792 56.7901
16.8596 57.3206
17.04 59.2274
17.2205 68.9794
17.401 76.7553
17.5815 62.1569
17.7622 64.3986
17.9428 82.329
18.1237 138.952
18.3044 90.3157
18.4852 83.1815
18.666 63.3659
18.8469 60.8508
19.0278 59.4958
19.2088 62.8398
19.3898 76.4318
19.5709 57.0194
19.752 56.0138
19.9332 59.398
20.1144 72.6133
20.2957 64.4315
20.477 56.6026
20.6586 52.0876
20.84 51.1677
21.0215 51.2453
21.203 52.5857
21.3846 51.5061
21.5662 51.829
21.7479 55.5672
21.9297 66.7191
22.1115 57.6816
22.2933 52.4573
22.4753 50.9288
22.6572 51.9489
22.8393 54.2219
23.0214 59.9897
23.2037 51.2775
23.3859 52.5894
23.5682 57.7161
23.7505 51.2393
23.9329 47.4694
24.1154 46.168
24.2979 45.4856
24.4805 44.7356
24.6631 44.8141
24.8458 44.3291
25.0286 45.0055
25.2114 46.4571
25.3943 46.7617
25.5773 42.9585
25.7605 42.312
25.9436 42.6412
26.1268 43.5627
26.31 42.1878
26.4933 42.5288
26.6767 43.9181
26.8601 42.3073
27.0437 40.7566
27.2272 40.2817
27.4109 40.0814
27.5946 40.1586
27.7784 39.7789
27.9623 39.968
28.1462 40.5882
28.3304 38.9571
28.5145 37.6161
28.6987 37.29
28.8829 36.9142
29.0673 36.39
29.2517 35.8187
29.4361 35.6423
29.6207 34.7899
29.8053 34.4177
29.99 34.0582
30.1748 33.8885
30.3597 33.7237
30.5447 33.6335
30.7297 33.6069
30.915 33.0067
31.1002 32.59
31.2855 32.2054
31.4708 32.2083
31.6563 31.819
31.8418 31.4567
32.0275 31.2264
32.2132 30.7413
32.399 30.2763
32.5848 29.8595
32.7708 29.446
32.9569 29.2975
33.143 29.0488
33.3293 28.6386
33.5158 28.2554
33.7022 27.7568
33.8887 27.5005
34.0753 27.2376
34.262 26.7816
34.4488 26.4315
34.6357 26.1346
34.8227 25.8076
35.0098 25.5466
35.1969 25.2585
35.3842 24.9941
35.5716 24.8941
35.759 24.5146
35.9468 24.1861
36.1345 23.9269
36.3222 23.6173
36.5101 23.4087
36.6981 23.0488
36.8861 22.778
37.0743 22.449
37.2626 22.185
37.451 21.8874
37.6395 21.7789
37.8281 21.413
38.0168 21.1102
38.2056 20.8164
38.3945 20.5448
38.5837 20.2931
38.7728 20.0723
38.9621 19.8484
39.1514 19.6307
39.3409 19.2994
39.5304 19.0565
39.7201 18.862
39.9099 18.6471
40.0999 18.3362
40.2899 18.1941
40.48 17.8641
40.6703 17.6583
40.8607 17.5107
41.0512 17.2301
41.242 16.9646
41.4327 16.7275
41.6236 16.4643
41.8146 16.3246
42.0057 16.091
42.1969 15.8661
42.3882 15.7415
42.5797 15.4453
42.7713 15.2403
42.963 15.0656
43.1549 14.8123
43.3468 14.5777
43.5389 14.4168
43.7312 14.1997
43.9237 14.0179
44.1162 13.8437
44.3088 13.6416
44.5016 13.4422
44.6945 13.2383
44.8875 13.0739
45.0806 12.8638
45.2739 12.7506
45.4673 12.5702
45.6609 12.3337
45.8546 12.1888
46.0484 12.0044
46.2424 11.7855
46.4365 11.7013
46.631 11.4939
46.8254 11.2907
47.0199 11.1468
47.2146 11.008
47.4095 10.8105
47.6044 10.6832
47.7996 10.4958
47.9948 10.3349
48.1902 10.205
48.3858 10.0567
48.5815 9.93968
48.7774 9.75668
48.9734 9.59861
49.1696 9.44946
49.3661 9.31062
49.5626 9.17482
49.7592 9.06948
49.956 8.92675
50.153 8.77151
50.3501 8.64363
50.5474 8.52891
50.7448 8.36955
50.9424 8.26015
51.1402 8.10167
51.3381 7.98715
51.5362 7.88283
51.7344 7.74549
51.9328 7.5767
52.1316 7.47455
52.3304 7.36403
52.5293 7.2149
52.7284 7.15949
52.9276 6.99177
53.1271 6.90478
53.3267 6.74884
53.5265 6.64101
53.7264 6.52742
53.9266 6.41567
54.1269 6.3153
54.3274 6.14968
54.528 5.98375
54.7289 5.83984
54.9301 5.67876
55.1314 5.50837
55.3328 5.30186
55.5344 5.12598
55.7361 5.00147