File: XRD/Ni3Fe_FD0406.xy
TT I
1.27165 7.13663
1.45013 5.99911
1.62863 5.8049
1.80712 5.01289
1.98562 4.76465
2.16411 5.08122
2.34263 5.11005
2.52115 6.47107
2.69965 7.92256
2.87818 8.40886
3.05672 11.2637
3.23527 15.0596
3.4138 19.2393
3.59237 24.6605
3.77094 26.4336
3.9495 30.4007
4.12809 35.325
4.30669 264.789
4.4853 71.3424
4.6639 56.7462
4.84253 68.2956
5.02118 88.8686
5.19981 428.008
5.37848 224.774
5.55716 104.992
5.73586 94.7317
5.91455 97.4337
6.09328 3934.68
6.27201 86.9831
6.45075 68.9761
6.62952 64.4307
6.8083 60.393
6.98711 57.3296
7.16591 56.9636
7.34475 103.241
7.5236 56.3469
7.70247 57.5801
7.88135 59.1607
8.06026 63.264
8.23919 70.8313
8.41812 87.9811
8.59709 1090.93
8.77609 104.876
8.9551 95.1512
9.13412 83.8439
9.31318 84.9811
9.49226 85.9125
9.67134 102.637
9.85047 102.642
10.0296 363.393
10.2088 511.947
10.388 108.12
10.5672 476.852
10.7465 89.22
10.9257 80.5674
11.105 73.5881
11.2844 72.9642
11.4637 66.4501
11.6431 65.2101
11.8225 63.9449
12.002 65.1754
12.1814 144.117
12.3609 74.2963
12.5405 66.2204
12.72 72.7214
12.8996 72.3584
13.0792 80.6348
13.2589 225.772
13.4386 138.759
13.6183 230.196
13.7981 106.67
13.9779 77.4265
14.1577 74.4887
14.3376 73.6985
14.5175 70.4186
14.6974 72.3022
14.8774 110.653
15.0574 166.61
15.2374 73.2983
15.4175 68.0127
15.5976 67.1555
15.7778 96.0243
15.958 171.427
16.1382 65.0429
16.3185 60.2912
16.4988 56.7737
16.6792 55.6019
16.8596 56.7258
17.04 57.1238
17.2205 67.0693
17.401 74.3341
17.5815 60.5209
17.7622 62.5979
17.9428 75.5958
18.1237 137.169
18.3044 89.7621
18.4852 82.894
18.666 61.7803
18.8469 59.3228
19.0278 58.4104
19.2088 61.1409
19.3898 77.5379
19.5709 55.7228
19.752 54.4491
19.9332 57.6145
20.1144 70.5602
20.2957 63.9341
20.477 55.8354
20.6586 50.8717
20.84 49.9638
21.0215 49.7894
21.203 51.8233
21.3846 50.5302
21.5662 49.8705
21.7479 53.5776
21.9297 65.4154
22.1115 57.1351
22.2933 51.4778
22.4753 50.1717
22.6572 50.1802
22.8393 52.8865
23.0214 59.2057
23.2037 50.145
23.3859 50.8598
23.5682 57.3954
23.7505 50.0219
23.9329 46.3729
24.1154 45.4404
24.2979 44.5712
24.4805 43.8981
24.6631 43.7643
24.8458 43.3603
25.0286 43.8213
25.2114 45.7609
25.3943 45.8763
25.5773 42.0272
25.7605 41.449
25.9436 41.6875
26.1268 42.7218
26.31 41.0889
26.4933 41.675
26.6767 43.1025
26.8601 41.4004
27.0437 39.9148
27.2272 39.4067
27.4109 39.2526
27.5946 39.3036
27.7784 38.8273
27.9623 39.2055
28.1462 39.8398
28.3304 38.1493
28.5145 36.7796
28.6987 36.4757
28.8829 36.3718
29.0673 35.5377
29.2517 35.2606
29.4361 34.9597
29.6207 34.1032
29.8053 33.7458
29.99 33.4619
30.1748 33.1815
30.3597 33.0513
30.5447 32.9185
30.7297 32.9402
30.915 32.3594
31.1002 31.8121
31.2855 31.6155
31.4708 31.5013
31.6563 31.2448
31.8418 30.9205
32.0275 30.726
32.2132 30.0754
32.399 29.6049
32.5848 29.1896
32.7708 28.8434
32.9569 28.6906
33.143 28.4341
33.3293 28.1385
33.5158 27.7536
33.7022 27.2186
33.8887 26.9883
34.0753 26.7146
34.262 26.2652
34.4488 25.9797
34.6357 25.6839
34.8227 25.3493
35.0098 25.0791
35.1969 24.7126
35.3842 24.4993
35.5716 24.32
35.759 24.0353
35.9468 23.7043
36.1345 23.4194
36.3222 23.178
36.5101 22.9401
36.6981 22.6377
36.8861 22.4035
37.0743 22.0121
37.2626 21.752
37.451 21.4354
37.6395 21.2759
37.8281 21.0186
38.0168 20.647
38.2056 20.4626
38.3945 20.1689
38.5837 19.8704
38.7728 19.6763
38.9621 19.3999
39.1514 19.165
39.3409 18.8941
39.5304 18.624
39.7201 18.472
39.9099 18.2153
40.0999 17.9724
40.2899 17.7959
40.48 17.4553
40.6703 17.2849
40.8607 17.1683
41.0512 16.9055
41.242 16.6389
41.4327 16.496
41.6236 16.1877
41.8146 16.0497
42.0057 15.8047
42.1969 15.5344
42.3882 15.3858
42.5797 15.1659
42.7713 15.0113
42.963 14.753
43.1549 14.5617
43.3468 14.3258
43.5389 14.1806
43.7312 13.9705
43.9237 13.8013
44.1162 13.6057
44.3088 13.4205
44.5016 13.212
44.6945 13.0035
44.8875 12.8455
45.0806 12.6504
45.2739 12.5241
45.4673 12.3321
45.6609 12.116
45.8546 11.957
46.0484 11.804
46.2424 11.6115
46.4365 11.4654
46.631 11.2938
46.8254 11.1068
47.0199 10.9413
47.2146 10.81
47.4095 10.6025
47.6044 10.4876
47.7996 10.3517
47.9948 10.198
48.1902 10.0323
48.3858 9.91097
48.5815 9.78865
48.7774 9.61214
48.9734 9.49786
49.1696 9.3374
49.3661 9.17175
49.5626 9.03873
49.7592 8.90636
49.956 8.77939
50.153 8.63698
50.3501 8.47401
50.5474 8.37853
50.7448 8.25126
50.9424 8.12514
51.1402 8.00263
51.3381 7.88061
51.5362 7.74987
51.7344 7.60815
51.9328 7.49569
52.1316 7.33464
52.3304 7.21518
52.5293 7.13393
52.7284 6.99112
52.9276 6.90942
53.1271 6.79557
53.3267 6.65252
53.5265 6.50355
53.7264 6.45088
53.9266 6.29987
54.1269 6.16307
54.3274 6.06047
54.528 5.91623
54.7289 5.73413
54.9301 5.62311
55.1314 5.4784
55.3328 5.24726
55.5344 5.0761
55.7361 4.91844