File: XRD/Ni3Fe_FD1028.xy
TT I
1.27165 6.84769
1.45013 5.43711
1.62863 4.93772
1.80712 4.18036
1.98562 3.78594
2.16411 3.88505
2.34263 5.45839
2.52115 7.72997
2.69965 8.72458
2.87818 8.84305
3.05672 11.6124
3.23527 14.6703
3.4138 18.3631
3.59237 21.2493
3.77094 24.6206
3.9495 28.144
4.12809 32.3745
4.30669 57.3608
4.4853 46.0405
4.6639 52.49
4.84253 63.6978
5.02118 82.2802
5.19981 227.625
5.37848 224.435
5.55716 97.0426
5.73586 87.1034
5.91455 88.1461
6.09328 4453.38
6.27201 75.3351
6.45075 63.0611
6.62952 57.7256
6.8083 54.1515
6.98711 52.2962
7.16591 51.2821
7.34475 56.1493
7.5236 60.9632
7.70247 52.492
7.88135 54.6121
8.06026 58.4595
8.23919 65.3809
8.41812 77.281
8.59709 1061.66
8.77609 94.5275
8.9551 82.153
9.13412 78.3814
9.31318 92.1423
9.49226 80.2847
9.67134 85.6444
9.85047 93.6841
10.0296 335.262
10.2088 452.472
10.388 96.866
10.5672 500.393
10.7465 86.8647
10.9257 73.033
11.105 67.8585
11.2844 64.3129
11.4637 61.3668
11.6431 60.0258
11.8225 59.2548
12.002 67.7558
12.1814 144.679
12.3609 63.9004
12.5405 60.683
12.72 63.585
12.8996 67.3197
13.0792 76.0741
13.2589 222.582
13.4386 127.341
13.6183 232.341
13.7981 100.278
13.9779 73.052
14.1577 76.6204
14.3376 66.7958
14.5175 65.9371
14.6974 66.9754
14.8774 107.081
15.0574 160.467
15.2374 66.218
15.4175 63.768
15.5976 62.7978
15.7778 92.3647
15.958 167.53
16.1382 59.7602
16.3185 55.2085
16.4988 53.0752
16.6792 52.1969
16.8596 52.3692
17.04 53.4708
17.2205 63.9956
17.401 71.3167
17.5815 56.8665
17.7622 59.6264
17.9428 72.1466
18.1237 141.319
18.3044 87.9754
18.4852 79.0326
18.666 58.5897
18.8469 55.9951
19.0278 54.6188
19.2088 57.4752
19.3898 75.7259
19.5709 52.5706
19.752 51.4495
19.9332 54.5193
20.1144 69.9238
20.2957 62.974
20.477 52.5817
20.6586 47.9357
20.84 47.6673
21.0215 47.09
21.203 49.1639
21.3846 47.6239
21.5662 47.2284
21.7479 51.0935
21.9297 64.8652
22.1115 55.6579
22.2933 48.8009
22.4753 47.3159
22.6572 47.2491
22.8393 50.7944
23.0214 57.2681
23.2037 47.4278
23.3859 48.9222
23.5682 56.7108
23.7505 47.9296
23.9329 44.0743
24.1154 42.9758
24.2979 42.1417
24.4805 41.7009
24.6631 41.8202
24.8458 41.0658
25.0286 41.6897
25.2114 43.9354
25.3943 44.0134
25.5773 39.9974
25.7605 39.4124
25.9436 39.6902
26.1268 41.1183
26.31 39.2699
26.4933 39.6622
26.6767 41.7349
26.8601 39.9397
27.0437 38.0849
27.2272 37.7222
27.4109 37.4843
27.5946 37.5955
27.7784 37.1434
27.9623 37.6611
28.1462 38.4039
28.3304 36.5681
28.5145 35.1744
28.6987 34.9286
28.8829 34.6873
29.0673 33.8746
29.2517 33.5433
29.4361 33.4324
29.6207 32.2755
29.8053 31.9847
29.99 31.6786
30.1748 31.6495
30.3597 31.5127
30.5447 31.529
30.7297 31.5849
30.915 31.0014
31.1002 30.4697
31.2855 30.1542
31.4708 30.2822
31.6563 29.7469
31.8418 29.5089
32.0275 29.4214
32.2132 28.7216
32.399 28.3011
32.5848 27.8768
32.7708 27.449
32.9569 27.4384
33.143 27.2165
33.3293 26.8554
33.5158 26.5205
33.7022 25.9357
33.8887 25.7519
34.0753 25.3984
34.262 25.0848
34.4488 24.7148
34.6357 24.3712
34.8227 24.0992
35.0098 23.9241
35.1969 23.6376
35.3842 23.4441
35.5716 23.3169
35.759 22.9909
35.9468 22.5804
36.1345 22.4123
36.3222 22.1818
36.5101 22.02
36.6981 21.728
36.8861 21.3755
37.0743 21.0706
37.2626 20.7845
37.451 20.6075
37.6395 20.3756
37.8281 20.075
38.0168 19.7561
38.2056 19.4957
38.3945 19.2267
38.5837 19.031
38.7728 18.7897
38.9621 18.5364
39.1514 18.2759
39.3409 18.0772
39.5304 17.8349
39.7201 17.6341
39.9099 17.442
40.0999 17.2303
40.2899 16.9924
40.48 16.7891
40.6703 16.6238
40.8607 16.4328
41.0512 16.1554
41.242 15.8794
41.4327 15.77
41.6236 15.5063
41.8146 15.3078
42.0057 15.1154
42.1969 14.9279
42.3882 14.729
42.5797 14.5264
42.7713 14.3053
42.963 14.1007
43.1549 13.8969
43.3468 13.7249
43.5389 13.541
43.7312 13.3432
43.9237 13.1965
44.1162 12.9939
44.3088 12.8168
44.5016 12.6316
44.6945 12.4354
44.8875 12.268
45.0806 12.1021
45.2739 11.9211
45.4673 11.8281
45.6609 11.5661
45.8546 11.4604
46.0484 11.2699
46.2424 11.1314
46.4365 10.9481
46.631 10.7958
46.8254 10.6397
47.0199 10.4505
47.2146 10.3368
47.4095 10.1964
47.6044 10.0142
47.7996 9.86589
47.9948 9.73105
48.1902 9.55459
48.3858 9.46301
48.5815 9.30234
48.7774 9.199
48.9734 9.08639
49.1696 8.937
49.3661 8.76602
49.5626 8.63445
49.7592 8.50297
49.956 8.36817
50.153 8.27772
50.3501 8.13666
50.5474 7.99207
50.7448 7.89285
50.9424 7.74619
51.1402 7.64357
51.3381 7.47621
51.5362 7.44011
51.7344 7.26853
51.9328 7.16133
52.1316 7.00124
52.3304 6.93691
52.5293 6.79312
52.7284 6.70504
52.9276 6.60515
53.1271 6.48679
53.3267 6.3712
53.5265 6.23973
53.7264 6.10861
53.9266 6.04214
54.1269 5.91061
54.3274 5.82612
54.528 5.65838
54.7289 5.52632
54.9301 5.36888
55.1314 5.26384
55.3328 5.07359
55.5344 4.8832
55.7361 4.71568