File: XRD/Ni3Fe_FD0526.xy
TT I
1.27165 7.51783
1.45013 6.58415
1.62863 5.40806
1.80712 5.69686
1.98562 5.65295
2.16411 5.27531
2.34263 4.56335
2.52115 6.83852
2.69965 7.53725
2.87818 8.46338
3.05672 11.3553
3.23527 15.285
3.4138 19.1036
3.59237 24.2952
3.77094 26.4679
3.9495 30.348
4.12809 35.5655
4.30669 265.807
4.4853 70.6991
4.6639 55.6812
4.84253 67.2435
5.02118 87.7124
5.19981 373.746
5.37848 206.011
5.55716 103.637
5.73586 93.2172
5.91455 94.9814
6.09328 4103.83
6.27201 85.0858
6.45075 68.2066
6.62952 64.02
6.8083 59.5378
6.98711 56.6092
7.16591 56.4859
7.34475 103.462
7.5236 55.1355
7.70247 56.8463
7.88135 58.3096
8.06026 62.6017
8.23919 70.005
8.41812 85.8934
8.59709 1096.28
8.77609 101.897
8.9551 93.8183
9.13412 82.1919
9.31318 82.966
9.49226 84.8966
9.67134 101.392
9.85047 100.842
10.0296 337.066
10.2088 465.476
10.388 106.058
10.5672 493.46
10.7465 87.7049
10.9257 79.5973
11.105 72.4217
11.2844 71.8063
11.4637 65.6002
11.6431 64.1696
11.8225 63.198
12.002 64.1252
12.1814 147.274
12.3609 73.4609
12.5405 65.1428
12.72 71.5571
12.8996 71.684
13.0792 79.2747
13.2589 226.023
13.4386 132.613
13.6183 235.359
13.7981 103.692
13.9779 76.447
14.1577 73.4737
14.3376 72.8354
14.5175 69.3874
14.6974 71.0152
14.8774 108.778
15.0574 159.046
15.2374 72.5125
15.4175 67.0266
15.5976 66.3725
15.7778 94.0234
15.958 165.123
16.1382 64.0505
16.3185 59.5672
16.4988 56.1952
16.6792 55.0251
16.8596 55.9507
17.04 56.0996
17.2205 66.6088
17.401 73.1402
17.5815 59.8287
17.7622 61.9387
17.9428 73.9668
18.1237 137.362
18.3044 89.6421
18.4852 80.9737
18.666 61.1686
18.8469 58.7166
19.0278 57.5156
19.2088 60.052
19.3898 76.7255
19.5709 54.9061
19.752 53.7352
19.9332 56.727
20.1144 70.1391
20.2957 63.8026
20.477 54.9003
20.6586 50.2829
20.84 49.4413
21.0215 49.1833
21.203 51.1403
21.3846 49.8847
21.5662 49.3732
21.7479 52.8871
21.9297 65.1296
22.1115 56.5063
22.2933 50.5465
22.4753 49.4901
22.6572 49.2999
22.8393 52.2616
23.0214 58.377
23.2037 49.3877
23.3859 50.1437
23.5682 57.0707
23.7505 49.2892
23.9329 45.6724
24.1154 44.7621
24.2979 43.9507
24.4805 43.303
24.6631 43.2305
24.8458 42.6688
25.0286 43.3787
25.2114 45.1587
25.3943 45.298
25.5773 41.4273
25.7605 40.8899
25.9436 41.2704
26.1268 42.1362
26.31 40.591
26.4933 41.1074
26.6767 42.6003
26.8601 40.9185
27.0437 39.4048
27.2272 39.0613
27.4109 38.848
27.5946 38.8712
27.7784 38.3455
27.9623 38.9022
28.1462 39.2263
28.3304 37.7982
28.5145 36.4471
28.6987 35.9819
28.8829 35.8036
29.0673 35.0208
29.2517 34.7281
29.4361 34.5407
29.6207 33.5518
29.8053 33.229
29.99 33.0544
30.1748 32.8442
30.3597 32.6933
30.5447 32.5746
30.7297 32.5601
30.915 32.1068
31.1002 31.4766
31.2855 31.2514
31.4708 31.1252
31.6563 30.7027
31.8418 30.5026
32.0275 30.3393
32.2132 29.7371
32.399 29.2248
32.5848 28.8204
32.7708 28.464
32.9569 28.3016
33.143 28.1986
33.3293 27.741
33.5158 27.3384
33.7022 26.9119
33.8887 26.6089
34.0753 26.3099
34.262 25.9882
34.4488 25.6013
34.6357 25.3137
34.8227 24.9224
35.0098 24.7486
35.1969 24.5133
35.3842 24.3503
35.5716 24.0729
35.759 23.7582
35.9468 23.3555
36.1345 23.1216
36.3222 22.9635
36.5101 22.6015
36.6981 22.4175
36.8861 22.047
37.0743 21.7548
37.2626 21.5078
37.451 21.2166
37.6395 21.0242
37.8281 20.6847
38.0168 20.4549
38.2056 20.2321
38.3945 19.952
38.5837 19.6937
38.7728 19.435
38.9621 19.2815
39.1514 18.9305
39.3409 18.7298
39.5304 18.4745
39.7201 18.2607
39.9099 18.0643
40.0999 17.837
40.2899 17.5851
40.48 17.3664
40.6703 17.1828
40.8607 16.9324
41.0512 16.7338
41.242 16.4671
41.4327 16.2652
41.6236 16.0324
41.8146 15.855
42.0057 15.6304
42.1969 15.4232
42.3882 15.2316
42.5797 15.0072
42.7713 14.7868
42.963 14.5887
43.1549 14.3991
43.3468 14.2082
43.5389 13.9774
43.7312 13.7943
43.9237 13.6314
44.1162 13.4469
44.3088 13.2271
44.5016 13.0258
44.6945 12.8731
44.8875 12.6995
45.0806 12.5226
45.2739 12.3313
45.4673 12.1872
45.6609 11.9777
45.8546 11.8557
46.0484 11.651
46.2424 11.516
46.4365 11.3446
46.631 11.1336
46.8254 11.0119
47.0199 10.8184
47.2146 10.6726
47.4095 10.4931
47.6044 10.3693
47.7996 10.247
47.9948 10.0885
48.1902 9.89591
48.3858 9.81631
48.5815 9.66111
48.7774 9.52066
48.9734 9.38391
49.1696 9.22769
49.3661 9.04217
49.5626 8.91409
49.7592 8.7764
49.956 8.66216
50.153 8.54718
50.3501 8.40155
50.5474 8.29509
50.7448 8.14337
50.9424 8.03411
51.1402 7.8996
51.3381 7.74674
51.5362 7.6319
51.7344 7.52516
51.9328 7.38262
52.1316 7.26974
52.3304 7.17325
52.5293 7.06214
52.7284 6.92399
52.9276 6.83701
53.1271 6.7133
53.3267 6.5906
53.5265 6.44493
53.7264 6.3232
53.9266 6.23091
54.1269 6.15127
54.3274 5.98993
54.528 5.86823
54.7289 5.70926
54.9301 5.55176
55.1314 5.42155
55.3328 5.24725
55.5344 5.02774
55.7361 4.9084