File: XRD/Ni3Fe_FD0397.xy
TT I
1.27165 7.68513
1.45013 6.37188
1.62863 5.40831
1.80712 5.36865
1.98562 4.68508
2.16411 5.4073
2.34263 5.06225
2.52115 6.11866
2.69965 7.00953
2.87818 8.94159
3.05672 11.3085
3.23527 14.6286
3.4138 19.3862
3.59237 24.9219
3.77094 27.1251
3.9495 30.427
4.12809 36.0948
4.30669 240.914
4.4853 68.9314
4.6639 56.3203
4.84253 68.6554
5.02118 89.4676
5.19981 441.958
5.37848 224.882
5.55716 105.303
5.73586 95.1023
5.91455 98.0347
6.09328 3978.88
6.27201 87.0675
6.45075 69.3561
6.62952 64.5848
6.8083 60.2116
6.98711 57.4831
7.16591 57.113
7.34475 97.9308
7.5236 56.2272
7.70247 57.5975
7.88135 59.0617
8.06026 63.8594
8.23919 71.2252
8.41812 87.5793
8.59709 1104.77
8.77609 104.534
8.9551 94.7831
9.13412 83.5892
9.31318 84.8324
9.49226 86.6068
9.67134 102.174
9.85047 102.535
10.0296 372.455
10.2088 505.647
10.388 107.941
10.5672 477.521
10.7465 89.3799
10.9257 80.651
11.105 73.7523
11.2844 72.5583
11.4637 66.4792
11.6431 65.3293
11.8225 63.8548
12.002 65.2337
12.1814 147.067
12.3609 73.8549
12.5405 66.1647
12.72 72.2717
12.8996 72.6116
13.0792 80.742
13.2589 231.928
13.4386 138.655
13.6183 234.525
13.7981 106.735
13.9779 77.7459
14.1577 74.4683
14.3376 73.9667
14.5175 70.6873
14.6974 72.2864
14.8774 111.833
15.0574 165.601
15.2374 73.4074
15.4175 68.2447
15.5976 67.4295
15.7778 96.8954
15.958 170.267
16.1382 64.786
16.3185 60.3891
16.4988 56.817
16.6792 56.0152
16.8596 56.7541
17.04 57.3538
17.2205 67.6725
17.401 74.8909
17.5815 60.633
17.7622 62.9311
17.9428 76.3184
18.1237 137.863
18.3044 90.4326
18.4852 82.1515
18.666 62.0161
18.8469 59.7273
19.0278 58.3945
19.2088 61.1646
19.3898 77.3202
19.5709 55.7716
19.752 54.4186
19.9332 57.7924
20.1144 70.6701
20.2957 64.3125
20.477 55.9715
20.6586 50.7353
20.84 49.9593
21.0215 50.0598
21.203 51.8281
21.3846 50.4954
21.5662 50.0855
21.7479 53.7492
21.9297 65.6038
22.1115 57.2932
22.2933 51.6189
22.4753 50.2219
22.6572 50.2355
22.8393 52.9068
23.0214 58.9799
23.2037 50.1549
23.3859 51.0787
23.5682 57.4518
23.7505 50.049
23.9329 46.3886
24.1154 45.347
24.2979 44.545
24.4805 43.9736
24.6631 43.8543
24.8458 43.2792
25.0286 43.9074
25.2114 45.6697
25.3943 45.806
25.5773 42.0816
25.7605 41.4975
25.9436 41.7607
26.1268 42.768
26.31 41.3108
26.4933 41.6064
26.6767 43.061
26.8601 41.4581
27.0437 39.9343
27.2272 39.5001
27.4109 39.2813
27.5946 39.4944
27.7784 38.8592
27.9623 39.2052
28.1462 39.7801
28.3304 38.1533
28.5145 36.8307
28.6987 36.5133
28.8829 36.4089
29.0673 35.5854
29.2517 35.1693
29.4361 34.957
29.6207 33.9941
29.8053 33.6623
29.99 33.4199
30.1748 33.1499
30.3597 33.0968
30.5447 32.9327
30.7297 33.0533
30.915 32.4656
31.1002 31.9032
31.2855 31.6621
31.4708 31.5785
31.6563 31.0868
31.8418 30.893
32.0275 30.6492
32.2132 30.2158
32.399 29.5566
32.5848 29.1957
32.7708 28.8342
32.9569 28.6677
33.143 28.5069
33.3293 28.0656
33.5158 27.6423
33.7022 27.2363
33.8887 27.0278
34.0753 26.6694
34.262 26.2092
34.4488 25.9569
34.6357 25.6661
34.8227 25.3999
35.0098 25.1573
35.1969 24.7866
35.3842 24.5896
35.5716 24.3297
35.759 24.0439
35.9468 23.6861
36.1345 23.5339
36.3222 23.2107
36.5101 22.9832
36.6981 22.6994
36.8861 22.3986
37.0743 21.9672
37.2626 21.7534
37.451 21.5357
37.6395 21.3
37.8281 20.9815
38.0168 20.6802
38.2056 20.4704
38.3945 20.1882
38.5837 19.9452
38.7728 19.7324
38.9621 19.4075
39.1514 19.1429
39.3409 18.8644
39.5304 18.6996
39.7201 18.478
39.9099 18.2967
40.0999 18.0641
40.2899 17.8421
40.48 17.5484
40.6703 17.3336
40.8607 17.1891
41.0512 16.8765
41.242 16.6521
41.4327 16.5105
41.6236 16.2532
41.8146 16.0309
42.0057 15.7976
42.1969 15.6234
42.3882 15.3871
42.5797 15.1867
42.7713 15.0351
42.963 14.7881
43.1549 14.6123
43.3468 14.3922
43.5389 14.1865
43.7312 13.9361
43.9237 13.7894
44.1162 13.6461
44.3088 13.3856
44.5016 13.1978
44.6945 13.0293
44.8875 12.8344
45.0806 12.6451
45.2739 12.4608
45.4673 12.3389
45.6609 12.16
45.8546 11.9933
46.0484 11.816
46.2424 11.6219
46.4365 11.4974
46.631 11.2949
46.8254 11.1022
47.0199 10.9971
47.2146 10.8275
47.4095 10.6304
47.6044 10.5006
47.7996 10.3187
47.9948 10.1814
48.1902 10.0451
48.3858 9.9075
48.5815 9.78509
48.7774 9.66752
48.9734 9.45759
49.1696 9.30625
49.3661 9.2188
49.5626 9.05266
49.7592 8.93018
49.956 8.78652
50.153 8.65378
50.3501 8.47676
50.5474 8.3942
50.7448 8.28206
50.9424 8.11215
51.1402 7.99431
51.3381 7.87596
51.5362 7.75097
51.7344 7.57648
51.9328 7.48874
52.1316 7.34443
52.3304 7.28539
52.5293 7.14096
52.7284 7.00624
52.9276 6.89522
53.1271 6.7932
53.3267 6.64379
53.5265 6.55434
53.7264 6.4254
53.9266 6.32687
54.1269 6.18825
54.3274 6.09947
54.528 5.94228
54.7289 5.76686
54.9301 5.62861
55.1314 5.50192
55.3328 5.27541
55.5344 5.10602
55.7361 4.96108