File: XRD/Ni3Fe_FD0456.xy
TT I
1.27165 8.20961
1.45013 6.26366
1.62863 5.31613
1.80712 4.44714
1.98562 5.14561
2.16411 4.76846
2.34263 5.23949
2.52115 6.26881
2.69965 7.14049
2.87818 7.75253
3.05672 11.0479
3.23527 14.7413
3.4138 18.7899
3.59237 23.4191
3.77094 25.9459
3.9495 29.9136
4.12809 34.8677
4.30669 139.018
4.4853 57.5333
4.6639 56.1717
4.84253 68.2754
5.02118 89.6893
5.19981 511.676
5.37848 204.56
5.55716 104.312
5.73586 94.6807
5.91455 98.9451
6.09328 4216.68
6.27201 83.8932
6.45075 68.5812
6.62952 62.5864
6.8083 58.6789
6.98711 55.9588
7.16591 55.8212
7.34475 76.375
7.5236 55.2634
7.70247 56.7167
7.88135 58.3654
8.06026 63.1993
8.23919 70.6325
8.41812 86.5402
8.59709 1226.24
8.77609 101.607
8.9551 90.5203
9.13412 83.5717
9.31318 84.5173
9.49226 85.9944
9.67134 97.0086
9.85047 101.817
10.0296 408.303
10.2088 416.006
10.388 108.056
10.5672 491.38
10.7465 88.2586
10.9257 78.6415
11.105 72.6391
11.2844 70.277
11.4637 65.7882
11.6431 64.6114
11.8225 63.4888
12.002 65.4069
12.1814 154.838
12.3609 69.3921
12.5405 65.2688
12.72 69.6112
12.8996 72.4973
13.0792 81.5421
13.2589 249.539
13.4386 125.729
13.6183 252.291
13.7981 98.1963
13.9779 77.008
14.1577 73.337
14.3376 72.0311
14.5175 70.0353
14.6974 71.8805
14.8774 117.702
15.0574 148.972
15.2374 71.2195
15.4175 67.5436
15.5976 67.1689
15.7778 101.094
15.958 156.645
16.1382 62.7939
16.3185 59.029
16.4988 56.531
16.6792 55.6004
16.8596 55.9405
17.04 57.1948
17.2205 68.5368
17.401 71.8979
17.5815 60.1576
17.7622 62.4315
17.9428 77.2137
18.1237 139.405
18.3044 91.9289
18.4852 78.2317
18.666 61.5275
18.8469 58.853
19.0278 57.7256
19.2088 60.769
19.3898 76.7532
19.5709 54.8555
19.752 54.1905
19.9332 57.6437
20.1144 70.7939
20.2957 64.473
20.477 54.3686
20.6586 50.4924
20.84 49.5252
21.0215 49.3821
21.203 51.5219
21.3846 49.7458
21.5662 49.8552
21.7479 53.8509
21.9297 65.3889
22.1115 56.544
22.2933 50.6983
22.4753 49.4409
22.6572 49.9274
22.8393 52.9496
23.0214 58.0956
23.2037 49.6399
23.3859 50.8563
23.5682 57.3556
23.7505 48.9933
23.9329 45.9336
24.1154 44.792
24.2979 44.1705
24.4805 43.5094
24.6631 43.4489
24.8458 42.8369
25.0286 43.749
25.2114 45.2267
25.3943 45.35
25.5773 41.5259
25.7605 41.1055
25.9436 41.5117
26.1268 42.3921
26.31 40.8003
26.4933 41.4908
26.6767 42.8233
26.8601 41.094
27.0437 39.6313
27.2272 39.1405
27.4109 39.0259
27.5946 39.0299
27.7784 38.6529
27.9623 39.007
28.1462 39.41
28.3304 37.7089
28.5145 36.64
28.6987 36.2186
28.8829 35.9514
29.0673 35.2089
29.2517 34.9235
29.4361 34.7037
29.6207 33.6833
29.8053 33.4731
29.99 33.1093
30.1748 33.0429
30.3597 32.788
30.5447 32.6897
30.7297 32.6574
30.915 32.0602
31.1002 31.6116
31.2855 31.3337
31.4708 31.3753
31.6563 30.8793
31.8418 30.6587
32.0275 30.4065
32.2132 29.9188
32.399 29.379
32.5848 29.0276
32.7708 28.5456
32.9569 28.4877
33.143 28.2774
33.3293 27.8045
33.5158 27.4367
33.7022 27.034
33.8887 26.7561
34.0753 26.3941
34.262 26.0519
34.4488 25.6425
34.6357 25.3941
34.8227 25.0652
35.0098 24.9104
35.1969 24.6082
35.3842 24.3328
35.5716 24.0973
35.759 23.8552
35.9468 23.5018
36.1345 23.2575
36.3222 22.9461
36.5101 22.8162
36.6981 22.4123
36.8861 22.1842
37.0743 21.8624
37.2626 21.545
37.451 21.3303
37.6395 21.1152
37.8281 20.7125
38.0168 20.5435
38.2056 20.2023
38.3945 19.9623
38.5837 19.7572
38.7728 19.5507
38.9621 19.2742
39.1514 18.9468
39.3409 18.7841
39.5304 18.5276
39.7201 18.2844
39.9099 18.0981
40.0999 17.883
40.2899 17.6255
40.48 17.4291
40.6703 17.2039
40.8607 16.9895
41.0512 16.7765
41.242 16.4728
41.4327 16.2978
41.6236 16.0554
41.8146 15.9379
42.0057 15.6676
42.1969 15.4594
42.3882 15.2563
42.5797 15.0344
42.7713 14.8476
42.963 14.6604
43.1549 14.4463
43.3468 14.2216
43.5389 14.0125
43.7312 13.8019
43.9237 13.6318
44.1162 13.4096
44.3088 13.273
44.5016 13.1128
44.6945 12.9662
44.8875 12.752
45.0806 12.58
45.2739 12.4026
45.4673 12.1969
45.6609 12.0189
45.8546 11.8539
46.0484 11.6715
46.2424 11.4913
46.4365 11.3865
46.631 11.2048
46.8254 11.0153
47.0199 10.866
47.2146 10.7236
47.4095 10.5574
47.6044 10.404
47.7996 10.2137
47.9948 10.0784
48.1902 9.92212
48.3858 9.82353
48.5815 9.65316
48.7774 9.54222
48.9734 9.3926
49.1696 9.23333
49.3661 9.0809
49.5626 8.95627
49.7592 8.8293
49.956 8.68569
50.153 8.54529
50.3501 8.40076
50.5474 8.28717
50.7448 8.16786
50.9424 8.05707
51.1402 7.91438
51.3381 7.77317
51.5362 7.66348
51.7344 7.55711
51.9328 7.3734
52.1316 7.21757
52.3304 7.18066
52.5293 7.02991
52.7284 6.92435
52.9276 6.80643
53.1271 6.70208
53.3267 6.60371
53.5265 6.45974
53.7264 6.37273
53.9266 6.26733
54.1269 6.15564
54.3274 6.0338
54.528 5.87935
54.7289 5.76834
54.9301 5.53578
55.1314 5.40922
55.3328 5.18836
55.5344 5.04686
55.7361 4.88645