File: XRD/Ni3Fe_FD0280.xy
TT I
1.27165 7.36611
1.45013 6.22953
1.62863 6.27977
1.80712 4.99852
1.98562 5.51151
2.16411 5.01263
2.34263 4.6641
2.52115 6.13263
2.69965 6.86675
2.87818 8.19007
3.05672 11.0732
3.23527 15.2763
3.4138 18.9943
3.59237 24.4234
3.77094 26.5649
3.9495 30.8046
4.12809 36.0504
4.30669 237.118
4.4853 68.8236
4.6639 57.2224
4.84253 69.8568
5.02118 91.7979
5.19981 518.508
5.37848 265.125
5.55716 108.787
5.73586 97.5601
5.91455 102.053
6.09328 3678.3
6.27201 90.1679
6.45075 70.5181
6.62952 65.5293
6.8083 61.3862
6.98711 58.2402
7.16591 57.9438
7.34475 98.4825
7.5236 56.8034
7.70247 59.0328
7.88135 60.0868
8.06026 64.3444
8.23919 72.2977
8.41812 89.7518
8.59709 1056.35
8.77609 109.202
8.9551 96.5009
9.13412 85.5287
9.31318 86.4757
9.49226 88.076
9.67134 103.515
9.85047 104.643
10.0296 408.164
10.2088 591.134
10.388 111.032
10.5672 454.521
10.7465 91.5338
10.9257 82.0206
11.105 74.8555
11.2844 73.4198
11.4637 67.3086
11.6431 66.1552
11.8225 65.2333
12.002 66.4341
12.1814 140.338
12.3609 76.2114
12.5405 67.2863
12.72 73.1652
12.8996 74.1975
13.0792 82.3594
13.2589 220.449
13.4386 150.625
13.6183 222.386
13.7981 113.6
13.9779 78.9478
14.1577 75.7233
14.3376 74.7642
14.5175 71.7392
14.6974 73.2461
14.8774 112.97
15.0574 174.729
15.2374 74.3857
15.4175 69.3387
15.5976 68.5028
15.7778 97.8961
15.958 177.312
16.1382 65.6734
16.3185 61.065
16.4988 57.9067
16.6792 56.7124
16.8596 57.5887
17.04 58.2426
17.2205 67.7066
17.401 77.6941
17.5815 61.7426
17.7622 63.8171
17.9428 78.5412
18.1237 136.868
18.3044 90.1445
18.4852 86.1651
18.666 63.2062
18.8469 60.6331
19.0278 59.1557
19.2088 62.2701
19.3898 77.9906
19.5709 56.8632
19.752 55.5935
19.9332 58.5211
20.1144 71.4246
20.2957 64.6467
20.477 57.1283
20.6586 51.9613
20.84 50.952
21.0215 50.62
21.203 52.5015
21.3846 51.3129
21.5662 50.946
21.7479 54.4822
21.9297 66.5593
22.1115 57.8498
22.2933 52.3695
22.4753 51.0912
22.6572 50.8218
22.8393 53.4786
23.0214 59.9632
23.2037 51.1064
23.3859 51.8721
23.5682 57.8453
23.7505 51.3468
23.9329 47.2778
24.1154 46.0356
24.2979 45.2435
24.4805 44.6231
24.6631 44.6691
24.8458 44.0776
25.0286 44.4169
25.2114 46.2922
25.3943 46.7178
25.5773 42.76
25.7605 42.1098
25.9436 42.3879
26.1268 43.2851
26.31 41.7973
26.4933 42.348
26.6767 43.6947
26.8601 42.1206
27.0437 40.5366
27.2272 40.0899
27.4109 39.934
27.5946 40.0052
27.7784 39.3948
27.9623 39.6973
28.1462 40.5046
28.3304 38.8957
28.5145 37.384
28.6987 36.9773
28.8829 36.884
29.0673 36.2018
29.2517 35.7332
29.4361 35.4948
29.6207 34.5771
29.8053 34.3119
29.99 33.9793
30.1748 33.7324
30.3597 33.5743
30.5447 33.433
30.7297 33.4716
30.915 32.9358
31.1002 32.4275
31.2855 32.0373
31.4708 31.9728
31.6563 31.6346
31.8418 31.3385
32.0275 31.1332
32.2132 30.5197
32.399 30.132
32.5848 29.6023
32.7708 29.3578
32.9569 29.2075
33.143 28.8336
33.3293 28.5342
33.5158 28.1038
33.7022 27.6886
33.8887 27.4437
34.0753 26.991
34.262 26.6996
34.4488 26.4228
34.6357 26.0147
34.8227 25.6996
35.0098 25.5171
35.1969 25.1849
35.3842 24.9571
35.5716 24.7936
35.759 24.3649
35.9468 24.0298
36.1345 23.8368
36.3222 23.5863
36.5101 23.3551
36.6981 23.0541
36.8861 22.682
37.0743 22.3903
37.2626 22.0586
37.451 21.9073
37.6395 21.6923
37.8281 21.3953
38.0168 20.9888
38.2056 20.7613
38.3945 20.4723
38.5837 20.2911
38.7728 20.0743
38.9621 19.798
39.1514 19.502
39.3409 19.2054
39.5304 19.0119
39.7201 18.8615
39.9099 18.5653
40.0999 18.3091
40.2899 18.1369
40.48 17.8167
40.6703 17.642
40.8607 17.4051
41.0512 17.1501
41.242 16.9085
41.4327 16.7666
41.6236 16.4967
41.8146 16.3235
42.0057 16.0824
42.1969 15.8871
42.3882 15.6348
42.5797 15.4148
42.7713 15.2649
42.963 15.0282
43.1549 14.7815
43.3468 14.5915
43.5389 14.3484
43.7312 14.1963
43.9237 14.0301
44.1162 13.7629
44.3088 13.6081
44.5016 13.3607
44.6945 13.235
44.8875 13.05
45.0806 12.8552
45.2739 12.6853
45.4673 12.5061
45.6609 12.3071
45.8546 12.1825
46.0484 11.9888
46.2424 11.8108
46.4365 11.6584
46.631 11.4468
46.8254 11.2681
47.0199 11.1432
47.2146 10.9679
47.4095 10.7971
47.6044 10.6521
47.7996 10.512
47.9948 10.3351
48.1902 10.1557
48.3858 10.0395
48.5815 9.92209
48.7774 9.77015
48.9734 9.61201
49.1696 9.47326
49.3661 9.31636
49.5626 9.1749
49.7592 9.05864
49.956 8.94129
50.153 8.77801
50.3501 8.59486
50.5474 8.50404
50.7448 8.41837
50.9424 8.26613
51.1402 8.14088
51.3381 8.011
51.5362 7.85496
51.7344 7.6925
51.9328 7.58237
52.1316 7.44785
52.3304 7.36187
52.5293 7.20296
52.7284 7.10157
52.9276 6.9962
53.1271 6.92469
53.3267 6.73152
53.5265 6.62978
53.7264 6.52432
53.9266 6.43899
54.1269 6.31026
54.3274 6.18109
54.528 6.05214
54.7289 5.86984
54.9301 5.67568
55.1314 5.47354
55.3328 5.35043
55.5344 5.1274
55.7361 5.03819