File: XRD/Ni3Fe_FD0444.xy
TT I
1.27165 7.46657
1.45013 6.30349
1.62863 5.46087
1.80712 5.28084
1.98562 5.2019
2.16411 4.48056
2.34263 4.59515
2.52115 7.09475
2.69965 7.1296
2.87818 9.02682
3.05672 10.8541
3.23527 15.0075
3.4138 19.0251
3.59237 23.6831
3.77094 26.0857
3.9495 30.068
4.12809 34.8033
4.30669 162.243
4.4853 60.8237
4.6639 56.5222
4.84253 68.581
5.02118 89.5875
5.19981 484.041
5.37848 204.181
5.55716 104.905
5.73586 94.3431
5.91455 98.202
6.09328 4346.15
6.27201 84.3727
6.45075 68.1638
6.62952 63.0366
6.8083 58.9092
6.98711 56.5177
7.16591 55.8009
7.34475 81.7994
7.5236 55.4462
7.70247 56.7473
7.88135 58.467
8.06026 63.7168
8.23919 70.6492
8.41812 86.94
8.59709 1235.08
8.77609 101.913
8.9551 90.9989
9.13412 83.0807
9.31318 84.2436
9.49226 86.1771
9.67134 98.12
9.85047 101.793
10.0296 399.481
10.2088 423.827
10.388 107.07
10.5672 502.542
10.7465 88.1699
10.9257 79.2913
11.105 72.6558
11.2844 70.6601
11.4637 66.0977
11.6431 64.5077
11.8225 63.4057
12.002 65.1806
12.1814 154.137
12.3609 70.3047
12.5405 65.3945
12.72 70.1489
12.8996 72.278
13.0792 81.1251
13.2589 247.415
13.4386 126.369
13.6183 250.241
13.7981 98.7224
13.9779 76.8956
14.1577 73.5347
14.3376 72.4164
14.5175 70.1749
14.6974 71.788
14.8774 117.081
15.0574 151.671
15.2374 71.61
15.4175 67.645
15.5976 67.299
15.7778 100.098
15.958 157.309
16.1382 63.3348
16.3185 59.3785
16.4988 56.3368
16.6792 55.4554
16.8596 56.1116
17.04 56.9633
17.2205 68.4162
17.401 72.3632
17.5815 60.2825
17.7622 62.5298
17.9428 77.1244
18.1237 138.763
18.3044 91.7873
18.4852 78.5298
18.666 61.2629
18.8469 58.9554
19.0278 58.0097
19.2088 61.0886
19.3898 77.1533
19.5709 55.1307
19.752 54.1788
19.9332 57.5422
20.1144 70.9234
20.2957 64.4901
20.477 54.3408
20.6586 50.4701
20.84 49.7157
21.0215 49.4883
21.203 51.6203
21.3846 49.7523
21.5662 49.8231
21.7479 53.9399
21.9297 65.4004
22.1115 56.6668
22.2933 50.7646
22.4753 49.5852
22.6572 49.8381
22.8393 53.1504
23.0214 58.0288
23.2037 49.5926
23.3859 50.8507
23.5682 57.3527
23.7505 49.1818
23.9329 45.9386
24.1154 45.0138
24.2979 44.0799
24.4805 43.5748
24.6631 43.4819
24.8458 42.9302
25.0286 43.6676
25.2114 45.4727
25.3943 45.3389
25.5773 41.5297
25.7605 41.0821
25.9436 41.5931
26.1268 42.5088
26.31 40.7459
26.4933 41.5018
26.6767 42.9698
26.8601 41.1344
27.0437 39.5215
27.2272 39.2136
27.4109 39.0195
27.5946 39.0924
27.7784 38.5009
27.9623 39.0846
28.1462 39.4746
28.3304 37.8824
28.5145 36.5573
28.6987 36.2566
28.8829 35.9009
29.0673 35.3963
29.2517 34.8737
29.4361 34.589
29.6207 33.6325
29.8053 33.4463
29.99 33.1441
30.1748 32.9623
30.3597 32.8374
30.5447 32.6668
30.7297 32.6696
30.915 32.1353
31.1002 31.6856
31.2855 31.4356
31.4708 31.25
31.6563 30.8732
31.8418 30.6503
32.0275 30.4507
32.2132 29.9012
32.399 29.4111
32.5848 28.9502
32.7708 28.6239
32.9569 28.5086
33.143 28.2318
33.3293 27.7853
33.5158 27.4837
33.7022 27.0164
33.8887 26.7113
34.0753 26.4283
34.262 26.0773
34.4488 25.7735
34.6357 25.3727
34.8227 25.0702
35.0098 25.0019
35.1969 24.5992
35.3842 24.3664
35.5716 24.2039
35.759 23.8561
35.9468 23.4776
36.1345 23.3004
36.3222 23.0735
36.5101 22.8109
36.6981 22.4926
36.8861 22.1777
37.0743 21.7962
37.2626 21.6049
37.451 21.3518
37.6395 21.1824
37.8281 20.8389
38.0168 20.5511
38.2056 20.2992
38.3945 20.0159
38.5837 19.7691
38.7728 19.495
38.9621 19.2695
39.1514 18.9448
39.3409 18.77
39.5304 18.5748
39.7201 18.3385
39.9099 18.071
40.0999 17.896
40.2899 17.6419
40.48 17.4542
40.6703 17.2082
40.8607 17.0394
41.0512 16.7538
41.242 16.5123
41.4327 16.2974
41.6236 16.0812
41.8146 15.933
42.0057 15.7001
42.1969 15.4698
42.3882 15.3313
42.5797 15.054
42.7713 14.9107
42.963 14.6316
43.1549 14.3936
43.3468 14.2685
43.5389 14.0283
43.7312 13.8343
43.9237 13.6737
44.1162 13.4769
44.3088 13.2904
44.5016 13.1033
44.6945 12.9345
44.8875 12.7597
45.0806 12.5704
45.2739 12.4024
45.4673 12.221
45.6609 12.0885
45.8546 11.8437
46.0484 11.7218
46.2424 11.553
46.4365 11.3722
46.631 11.1979
46.8254 11.0097
47.0199 10.8511
47.2146 10.74
47.4095 10.5428
47.6044 10.3731
47.7996 10.2517
47.9948 10.1061
48.1902 9.96244
48.3858 9.8346
48.5815 9.70901
48.7774 9.54678
48.9734 9.41619
49.1696 9.25213
49.3661 9.10224
49.5626 8.95942
49.7592 8.83729
49.956 8.74031
50.153 8.56464
50.3501 8.41873
50.5474 8.32573
50.7448 8.22724
50.9424 8.06021
51.1402 7.9412
51.3381 7.821
51.5362 7.68693
51.7344 7.56687
51.9328 7.42387
52.1316 7.30368
52.3304 7.20091
52.5293 7.03811
52.7284 6.95488
52.9276 6.85141
53.1271 6.69056
53.3267 6.5673
53.5265 6.50975
53.7264 6.38384
53.9266 6.25521
54.1269 6.15192
54.3274 6.0524
54.528 5.89534
54.7289 5.72765
54.9301 5.56629
55.1314 5.41896
55.3328 5.20844
55.5344 5.05784
55.7361 4.83852