File: XRD/Ni3Fe_FD0291.xy
TT I
1.27165 7.60275
1.45013 6.46654
1.62863 5.68205
1.80712 4.93076
1.98562 5.45866
2.16411 4.77036
2.34263 4.76165
2.52115 5.48417
2.69965 6.89833
2.87818 8.46147
3.05672 11.1057
3.23527 15.3223
3.4138 19.5058
3.59237 25.3175
3.77094 27.0747
3.9495 30.5424
4.12809 35.9383
4.30669 278.083
4.4853 73.2436
4.6639 57.4502
4.84253 69.4789
5.02118 91.6702
5.19981 503.626
5.37848 258.176
5.55716 107.794
5.73586 97.1779
5.91455 101.074
6.09328 3691.25
6.27201 90.2868
6.45075 70.2817
6.62952 65.6526
6.8083 61.403
6.98711 58.1717
7.16591 57.9575
7.34475 106.832
7.5236 56.6526
7.70247 58.7776
7.88135 59.663
8.06026 64.6831
8.23919 72.0572
8.41812 89.2172
8.59709 1014.81
8.77609 108.567
8.9551 97.3116
9.13412 85.1066
9.31318 85.6941
9.49226 87.5026
9.67134 105.186
9.85047 104.168
10.0296 388.859
10.2088 610.063
10.388 110.482
10.5672 450.588
10.7465 91.2563
10.9257 82.0524
11.105 74.8807
11.2844 74.1699
11.4637 67.4527
11.6431 66.0203
11.8225 65.0188
12.002 66.2994
12.1814 138.19
12.3609 76.8928
12.5405 67.385
12.72 73.8169
12.8996 73.6058
13.0792 81.9276
13.2589 213.784
13.4386 149.987
13.6183 216.332
13.7981 113.624
13.9779 78.6475
14.1577 75.561
14.3376 74.8589
14.5175 71.2929
14.6974 73.4688
14.8774 110.195
15.0574 175.396
15.2374 74.6361
15.4175 68.9676
15.5976 68.3259
15.7778 96.5486
15.958 177.947
16.1382 65.9684
16.3185 61.0925
16.4988 57.684
16.6792 56.5875
16.8596 57.3883
17.04 58.1381
17.2205 67.3078
17.401 77.6335
17.5815 61.3831
17.7622 63.5114
17.9428 77.4582
18.1237 137.659
18.3044 89.2357
18.4852 85.5693
18.666 62.8763
18.8469 60.1677
19.0278 59.2862
19.2088 62.0855
19.3898 78.1236
19.5709 56.7533
19.752 55.3895
19.9332 58.3667
20.1144 71.4859
20.2957 64.29
20.477 57.1915
20.6586 51.6032
20.84 50.6269
21.0215 50.5651
21.203 52.415
21.3846 51.257
21.5662 50.6564
21.7479 54.2838
21.9297 66.4772
22.1115 57.6032
22.2933 52.2443
22.4753 50.9058
22.6572 50.8058
22.8393 53.2818
23.0214 60.095
23.2037 50.8811
23.3859 51.7092
23.5682 57.4402
23.7505 51.0309
23.9329 47.0889
24.1154 45.9983
24.2979 45.1758
24.4805 44.4057
24.6631 44.4239
24.8458 43.8828
25.0286 44.3071
25.2114 46.1472
25.3943 46.4566
25.5773 42.5305
25.7605 42.086
25.9436 42.2612
26.1268 43.2998
26.31 41.7639
26.4933 42.0654
26.6767 43.6755
26.8601 42.0389
27.0437 40.3761
27.2272 40.005
27.4109 39.6974
27.5946 40.0018
27.7784 39.4804
27.9623 39.6782
28.1462 40.2468
28.3304 38.7252
28.5145 37.4201
28.6987 36.844
28.8829 36.7294
29.0673 36.1003
29.2517 35.6206
29.4361 35.4228
29.6207 34.3812
29.8053 34.1908
29.99 33.8147
30.1748 33.5788
30.3597 33.5802
30.5447 33.3475
30.7297 33.4033
30.915 32.8072
31.1002 32.2956
31.2855 31.9527
31.4708 31.9238
31.6563 31.6004
31.8418 31.3082
32.0275 31.0629
32.2132 30.6236
32.399 29.9873
32.5848 29.5861
32.7708 29.2231
32.9569 29.1068
33.143 28.746
33.3293 28.4343
33.5158 28.1035
33.7022 27.5783
33.8887 27.2913
34.0753 27.0071
34.262 26.6329
34.4488 26.2322
34.6357 26.0127
34.8227 25.6157
35.0098 25.4083
35.1969 25.0987
35.3842 24.8452
35.5716 24.6587
35.759 24.4657
35.9468 23.9978
36.1345 23.7529
36.3222 23.5272
36.5101 23.264
36.6981 22.9519
36.8861 22.6566
37.0743 22.3466
37.2626 22.084
37.451 21.7941
37.6395 21.6601
37.8281 21.3199
38.0168 20.9026
38.2056 20.7235
38.3945 20.4394
38.5837 20.2148
38.7728 19.9604
38.9621 19.7158
39.1514 19.3838
39.3409 19.1995
39.5304 18.9774
39.7201 18.7655
39.9099 18.4894
40.0999 18.2492
40.2899 18.0427
40.48 17.8264
40.6703 17.5542
40.8607 17.4303
41.0512 17.1199
41.242 16.9076
41.4327 16.6507
41.6236 16.4372
41.8146 16.2883
42.0057 15.9864
42.1969 15.8082
42.3882 15.66
42.5797 15.4416
42.7713 15.1575
42.963 15.0327
43.1549 14.7505
43.3468 14.5566
43.5389 14.3972
43.7312 14.1642
43.9237 13.9566
44.1162 13.7852
44.3088 13.5746
44.5016 13.389
44.6945 13.2034
44.8875 13.0494
45.0806 12.8286
45.2739 12.6798
45.4673 12.517
45.6609 12.3219
45.8546 12.1449
46.0484 11.9522
46.2424 11.8222
46.4365 11.6253
46.631 11.4548
46.8254 11.2968
47.0199 11.1087
47.2146 10.99
47.4095 10.7685
47.6044 10.6133
47.7996 10.48
47.9948 10.2979
48.1902 10.1788
48.3858 10.0384
48.5815 9.90956
48.7774 9.77126
48.9734 9.612
49.1696 9.46207
49.3661 9.31209
49.5626 9.1561
49.7592 9.00566
49.956 8.90047
50.153 8.76053
50.3501 8.60727
50.5474 8.49329
50.7448 8.31608
50.9424 8.21688
51.1402 8.10784
51.3381 7.97854
51.5362 7.85044
51.7344 7.72231
51.9328 7.57692
52.1316 7.45195
52.3304 7.31359
52.5293 7.21475
52.7284 7.10399
52.9276 6.98186
53.1271 6.8944
53.3267 6.74404
53.5265 6.62525
53.7264 6.51027
53.9266 6.41032
54.1269 6.25082
54.3274 6.15911
54.528 6.01726
54.7289 5.84991
54.9301 5.6893
55.1314 5.56002
55.3328 5.30668
55.5344 5.11382
55.7361 4.95836