File: XRD/Ni3Fe_FD0818.xy
TT I
1.27165 7.19355
1.45013 5.71426
1.62863 5.69042
1.80712 4.50571
1.98562 4.56939
2.16411 5.1889
2.34263 5.32936
2.52115 6.89246
2.69965 8.29115
2.87818 9.18202
3.05672 11.1582
3.23527 14.982
3.4138 18.5164
3.59237 23.079
3.77094 25.6691
3.9495 29.4494
4.12809 34.3096
4.30669 102.894
4.4853 53.3758
4.6639 55.008
4.84253 68.5756
5.02118 86.9101
5.19981 401.416
5.37848 192.516
5.55716 101.632
5.73586 92.4032
5.91455 95.0252
6.09328 4587.16
6.27201 79.8679
6.45075 69.4369
6.62952 62.5362
6.8083 59.2992
6.98711 55.5744
7.16591 55.6037
7.34475 66.467
7.5236 53.7932
7.70247 56.4875
7.88135 57.1012
8.06026 62.1444
8.23919 69.0193
8.41812 83.5891
8.59709 1226.44
8.77609 97.072
8.9551 88.9749
9.13412 82.8403
9.31318 84.7137
9.49226 84.6316
9.67134 95.1288
9.85047 100.74
10.0296 345.575
10.2088 346.108
10.388 104.973
10.5672 542.085
10.7465 85.8429
10.9257 77.4373
11.105 70.9137
11.2844 67.8759
11.4637 64.2062
11.6431 63.0342
11.8225 62.4083
12.002 63.8226
12.1814 161.357
12.3609 66.3079
12.5405 64.5318
12.72 67.563
12.8996 71.0306
13.0792 79.8818
13.2589 250.564
13.4386 117.244
13.6183 260.399
13.7981 92.9951
13.9779 74.9625
14.1577 71.4829
14.3376 69.9072
14.5175 68.355
14.6974 69.8572
14.8774 112.031
15.0574 139.113
15.2374 68.9087
15.4175 65.9621
15.5976 65.4872
15.7778 95.5835
15.958 145.808
16.1382 60.8051
16.3185 57.5054
16.4988 55.0798
16.6792 53.9576
16.8596 54.4221
17.04 55.344
17.2205 66.875
17.401 68.3053
17.5815 58.579
17.7622 60.8
17.9428 73.2785
18.1237 142.033
18.3044 91.4799
18.4852 73.881
18.666 59.7723
18.8469 57.4044
19.0278 56.4339
19.2088 58.7129
19.3898 75.3577
19.5709 53.5905
19.752 52.9004
19.9332 55.7974
20.1144 69.7588
20.2957 64.1599
20.477 52.414
20.6586 49.1455
20.84 48.3525
21.0215 48.0914
21.203 50.4775
21.3846 48.2811
21.5662 48.7806
21.7479 52.1937
21.9297 64.129
22.1115 55.8538
22.2933 49.1213
22.4753 48.2498
22.6572 48.4633
22.8393 51.7307
23.0214 56.6222
23.2037 48.3193
23.3859 49.4143
23.5682 57.274
23.7505 47.4675
23.9329 44.6655
24.1154 43.6026
24.2979 42.8943
24.4805 42.5399
24.6631 42.4168
24.8458 41.862
25.0286 42.5297
25.2114 44.2558
25.3943 44.0854
25.5773 40.544
25.7605 40.0652
25.9436 40.5909
26.1268 41.2979
26.31 39.6697
26.4933 40.3888
26.6767 41.7085
26.8601 40.0863
27.0437 38.4796
27.2272 38.1574
27.4109 38.048
27.5946 37.9514
27.7784 37.5266
27.9623 38.0994
28.1462 38.3377
28.3304 36.7225
28.5145 35.5611
28.6987 35.2985
28.8829 35.0954
29.0673 34.3064
29.2517 33.9708
29.4361 33.8271
29.6207 32.7796
29.8053 32.5797
29.99 32.2278
30.1748 32.1144
30.3597 32.0605
30.5447 31.9353
30.7297 31.9217
30.915 31.2597
31.1002 30.8462
31.2855 30.5249
31.4708 30.5123
31.6563 29.9643
31.8418 29.8954
32.0275 29.6862
32.2132 29.0515
32.399 28.6011
32.5848 28.2134
32.7708 27.924
32.9569 27.7615
33.143 27.5866
33.3293 27.1604
33.5158 26.705
33.7022 26.2574
33.8887 26.0611
34.0753 25.6643
34.262 25.3981
34.4488 24.9932
34.6357 24.7094
34.8227 24.4244
35.0098 24.2408
35.1969 23.9561
35.3842 23.82
35.5716 23.5489
35.759 23.2611
35.9468 22.9527
36.1345 22.6999
36.3222 22.4499
36.5101 22.2176
36.6981 21.916
36.8861 21.5889
37.0743 21.3408
37.2626 21.0494
37.451 20.7576
37.6395 20.6486
37.8281 20.2032
38.0168 19.9858
38.2056 19.8225
38.3945 19.4676
38.5837 19.2015
38.7728 18.9907
38.9621 18.8122
39.1514 18.5271
39.3409 18.2866
39.5304 18.013
39.7201 17.8232
39.9099 17.6833
40.0999 17.4353
40.2899 17.1359
40.48 16.9414
40.6703 16.8303
40.8607 16.534
41.0512 16.3818
41.242 16.0587
41.4327 15.8707
41.6236 15.66
41.8146 15.4821
42.0057 15.2647
42.1969 15.0459
42.3882 14.8809
42.5797 14.6602
42.7713 14.4776
42.963 14.2751
43.1549 14.0542
43.3468 13.8791
43.5389 13.7095
43.7312 13.5196
43.9237 13.3302
44.1162 13.0957
44.3088 12.9914
44.5016 12.7687
44.6945 12.5758
44.8875 12.4498
45.0806 12.2177
45.2739 12.0676
45.4673 11.9028
45.6609 11.7223
45.8546 11.5812
46.0484 11.3836
46.2424 11.2546
46.4365 11.1138
46.631 10.9063
46.8254 10.7082
47.0199 10.5864
47.2146 10.4687
47.4095 10.2863
47.6044 10.1589
47.7996 9.97145
47.9948 9.82862
48.1902 9.72502
48.3858 9.58048
48.5815 9.39101
48.7774 9.28856
48.9734 9.16127
49.1696 9.02745
49.3661 8.82791
49.5626 8.74258
49.7592 8.60902
49.956 8.47314
50.153 8.33639
50.3501 8.19439
50.5474 8.0874
50.7448 7.97376
50.9424 7.85609
51.1402 7.7201
51.3381 7.59618
51.5362 7.50999
51.7344 7.33297
51.9328 7.24743
52.1316 7.13422
52.3304 7.03222
52.5293 6.87478
52.7284 6.77198
52.9276 6.64688
53.1271 6.57738
53.3267 6.40534
53.5265 6.30594
53.7264 6.19289
53.9266 6.08839
54.1269 5.99219
54.3274 5.87935
54.528 5.7692
54.7289 5.56734
54.9301 5.43994
55.1314 5.28302
55.3328 5.13368
55.5344 4.94221
55.7361 4.78851