File: XRD/Ni3Fe_FD0012.xy
TT I
1.27165 36.6948
1.45013 32.1128
1.62863 28.7215
1.80712 26.775
1.98562 25.0172
2.16411 26.5698
2.34263 26.496
2.52115 26.0279
2.69965 29.3621
2.87818 39.8278
3.05672 65.9031
3.23527 79.7717
3.4138 45.1301
3.59237 39.719
3.77094 41.8542
3.9495 43.7642
4.12809 54.4872
4.30669 77.6311
4.4853 68.6545
4.6639 54.9105
4.84253 60.0778
5.02118 91.7501
5.19981 255.489
5.37848 4043.31
5.55716 162.923
5.73586 100.465
5.91455 107.672
6.09328 411.643
6.27201 357.915
6.45075 73.676
6.62952 54.8679
6.8083 52.3076
6.98711 48.4903
7.16591 51.829
7.34475 69.7096
7.5236 64.0034
7.70247 51.7266
7.88135 39.7613
8.06026 40.5255
8.23919 44.5975
8.41812 55.518
8.59709 143.742
8.77609 745.555
8.9551 80.9737
9.13412 59.0524
9.31318 243.992
9.49226 52.2642
9.67134 50.2848
9.85047 56.1192
10.0296 89.1053
10.2088 389.414
10.388 151.24
10.5672 89.1472
10.7465 296.808
10.9257 49.2628
11.105 41.7726
11.2844 40.2401
11.4637 38.5552
11.6431 37.6109
11.8225 37.1185
12.002 65.9843
12.1814 46.0083
12.3609 87.2668
12.5405 46.3165
12.72 39.5826
12.8996 39.5868
13.0792 41.4352
13.2589 61.8005
13.4386 122.977
13.6183 101.065
13.7981 131.797
13.9779 69.4336
14.1577 45.2677
14.3376 52.1444
14.5175 36.4996
14.6974 36.403
14.8774 40.8877
15.0574 55.4728
15.2374 111.841
15.4175 41.271
15.5976 37.3629
15.7778 39.5355
15.958 50.983
16.1382 133.099
16.3185 40.869
16.4988 32.9586
16.6792 31.152
16.8596 30.7985
17.04 38.6807
17.2205 32.5355
17.401 34.7556
17.5815 51.5316
17.7622 34.3112
17.9428 41.146
18.1237 42.1763
18.3044 79.1025
18.4852 59.8624
18.666 74.2628
18.8469 36.1664
19.0278 32.8331
19.2088 32.6457
19.3898 37.5776
19.5709 45.664
19.752 37.8252
19.9332 31.0965
20.1144 31.8834
20.2957 39.6434
20.477 40.0365
20.6586 42.7113
20.84 31.0449
21.0215 29.9982
21.203 27.9458
21.3846 28.2033
21.5662 32.5453
21.7479 28.9
21.9297 30.3917
22.1115 38.2354
22.2933 46.7218
22.4753 37.9549
22.6572 29.6617
22.8393 29.5339
23.0214 31.1637
23.2037 36.6214
23.3859 36.2716
23.5682 34.5136
23.7505 33.1609
23.9329 46.2281
24.1154 29.5095
24.2979 27.2101
24.4805 25.9038
24.6631 25.7768
24.8458 27.7697
25.0286 25.745
25.2114 25.7886
25.3943 28.0709
25.5773 30.5074
25.7605 30.9451
25.9436 26.5204
26.1268 25.2896
26.31 25.9236
26.4933 28.8204
26.6767 25.7151
26.8601 26.6836
27.0437 32.0734
27.2272 28.0684
27.4109 24.4913
27.5946 24.138
27.7784 24.4726
27.9623 25.6298
28.1462 25.4442
28.3304 26.5472
28.5145 28.5973
28.6987 25.9558
28.8829 23.0275
29.0673 22.3167
29.2517 23.2624
29.4361 22.158
29.6207 21.7429
29.8053 22.8725
29.99 21.2115
30.1748 21.1061
30.3597 21.0658
30.5447 21.2058
30.7297 21.2659
30.915 21.0064
31.1002 23.2032
31.2855 22.511
31.4708 20.5852
31.6563 20.5106
31.8418 21.3289
32.0275 20.9556
32.2132 20.5477
32.399 21.4024
32.5848 20.0091
32.7708 18.9552
32.9569 18.6753
33.143 18.9287
33.3293 18.3744
33.5158 18.7169
33.7022 19.3808
33.8887 18.2895
34.0753 17.7346
34.262 17.5912
34.4488 17.3965
34.6357 16.9912
34.8227 17.0169
35.0098 16.6325
35.1969 16.3172
35.3842 16.3143
35.5716 16.1942
35.759 16.4786
35.9468 17.1386
36.1345 16.391
36.3222 15.709
36.5101 15.6423
36.6981 15.7272
36.8861 15.316
37.0743 15.3562
37.2626 14.9891
37.451 14.5636
37.6395 14.4636
37.8281 14.2459
38.0168 14.0644
38.2056 14.0739
38.3945 13.7343
38.5837 13.5206
38.7728 13.5177
38.9621 13.3007
39.1514 13.1808
39.3409 12.9751
39.5304 12.714
39.7201 12.6301
39.9099 12.5199
40.0999 12.3199
40.2899 12.3705
40.48 12.1731
40.6703 12.0088
40.8607 11.9002
41.0512 11.6902
41.242 11.7041
41.4327 11.4689
41.6236 11.2241
41.8146 11.1635
42.0057 10.9937
42.1969 10.9468
42.3882 10.8416
42.5797 10.5728
42.7713 10.4487
42.963 10.2827
43.1549 10.1463
43.3468 9.97996
43.5389 9.82523
43.7312 9.72892
43.9237 9.62378
44.1162 9.5136
44.3088 9.45906
44.5016 9.23149
44.6945 9.15114
44.8875 9.03872
45.0806 8.94473
45.2739 8.85322
45.4673 8.66816
45.6609 8.54482
45.8546 8.46624
46.0484 8.35269
46.2424 8.2194
46.4365 8.10044
46.631 8.0261
46.8254 7.852
47.0199 7.80883
47.2146 7.65266
47.4095 7.55984
47.6044 7.45964
47.7996 7.32923
47.9948 7.23598
48.1902 7.12016
48.3858 7.0177
48.5815 6.90663
48.7774 6.81906
48.9734 6.75269
49.1696 6.61478
49.3661 6.50778
49.5626 6.43017
49.7592 6.37881
49.956 6.29606
50.153 6.20821
50.3501 6.06351
50.5474 6.04047
50.7448 5.92186
50.9424 5.83789
51.1402 5.75974
51.3381 5.66204
51.5362 5.58777
51.7344 5.51133
51.9328 5.37152
52.1316 5.28391
52.3304 5.24282
52.5293 5.14137
52.7284 5.05028
52.9276 4.99732
53.1271 4.92025
53.3267 4.79554
53.5265 4.716
53.7264 4.6586
53.9266 4.56667
54.1269 4.50745
54.3274 4.35448
54.528 4.26588
54.7289 4.09463
54.9301 4.0002
55.1314 3.92492
55.3328 3.72047
55.5344 3.62794
55.7361 3.54472