File: XRD/Ni3Fe_FD0030.xy
TT I
1.27165 32.8734
1.45013 28.7341
1.62863 25.2809
1.80712 22.9597
1.98562 22.9301
2.16411 24.2816
2.34263 24.859
2.52115 24.3672
2.69965 28.2477
2.87818 37.0918
3.05672 64.6273
3.23527 73.3156
3.4138 39.3001
3.59237 37.889
3.77094 37.8758
3.9495 34.3977
4.12809 46.8649
4.30669 91.0831
4.4853 59.398
4.6639 45.3701
4.84253 52.3574
5.02118 88.8331
5.19981 290.722
5.37848 3576.47
5.55716 153.791
5.73586 100.357
5.91455 113.035
6.09328 483.978
6.27201 290.254
6.45075 71.1446
6.62952 56.1268
6.8083 55.0537
6.98711 43.9268
7.16591 47.3476
7.34475 77.2172
7.5236 54.6556
7.70247 44.3026
7.88135 37.4301
8.06026 39.267
8.23919 45.1661
8.41812 58.1918
8.59709 168.911
8.77609 592.823
8.9551 77.4744
9.13412 59.9541
9.31318 250.949
9.49226 53.9353
9.67134 54.3196
9.85047 62.4638
10.0296 105.578
10.2088 543.219
10.388 123.819
10.5672 93.0325
10.7465 247.043
10.9257 49.4055
11.105 43.9407
11.2844 43.1129
11.4637 38.8428
11.6431 38.6156
11.8225 37.3913
12.002 75.9775
12.1814 47.9773
12.3609 96.0542
12.5405 44.5511
12.72 42.5517
12.8996 40.3153
13.0792 43.4344
13.2589 65.3729
13.4386 162.284
13.6183 89.2802
13.7981 171.252
13.9779 58.9654
14.1577 49.4653
14.3376 46.6487
14.5175 39.1583
14.6974 39.3204
14.8774 44.3647
15.0574 63.8931
15.2374 81.8364
15.4175 41.5987
15.5976 39.1002
15.7778 42.4873
15.958 56.0391
16.1382 105.284
16.3185 39.4944
16.4988 34.3439
16.6792 32.2963
16.8596 32.4295
17.04 40.0158
17.2205 34.3193
17.401 37.2398
17.5815 45.3273
17.7622 35.8563
17.9428 40.1996
18.1237 43.6851
18.3044 92.6377
18.4852 55.2402
18.666 59.2002
18.8469 36.3714
19.0278 34.0351
19.2088 34.4452
19.3898 41.0357
19.5709 47.1292
19.752 35.0949
19.9332 32.3613
20.1144 33.0597
20.2957 43.511
20.477 38.8649
20.6586 36.9189
20.84 32.369
21.0215 29.7438
21.203 29.067
21.3846 29.6656
21.5662 31.8037
21.7479 30.0722
21.9297 31.471
22.1115 41.7858
22.2933 40.7604
22.4753 34.3015
22.6572 30.3414
22.8393 30.876
23.0214 31.373
23.2037 39.5774
23.3859 33.0211
23.5682 33.9593
23.7505 34.7017
23.9329 38.2335
24.1154 29.2892
24.2979 27.59
24.4805 26.8369
24.6631 26.7611
24.8458 27.7413
25.0286 26.4104
25.2114 26.603
25.3943 28.9717
25.5773 30.1303
25.7605 27.8556
25.9436 26.7973
26.1268 25.7835
26.31 26.9782
26.4933 27.3496
26.6767 25.8863
26.8601 27.5257
27.0437 29.2723
27.2272 26.2636
27.4109 24.7878
27.5946 24.7531
27.7784 25.0821
27.9623 24.9556
28.1462 25.5483
28.3304 27.1022
28.5145 26.5256
28.6987 24.536
28.8829 23.1107
29.0673 22.6674
29.2517 23.2616
29.4361 22.1198
29.6207 22.1432
29.8053 22.3443
29.99 21.416
30.1748 21.4449
30.3597 21.1569
30.5447 21.4881
30.7297 21.0944
30.915 21.2601
31.1002 22.3853
31.2855 21.34
31.4708 20.5251
31.6563 20.5679
31.8418 21.0926
32.0275 20.287
32.2132 20.3997
32.399 20.5058
32.5848 19.5518
32.7708 19.0305
32.9569 18.7861
33.143 18.7944
33.3293 18.481
33.5158 18.7717
33.7022 18.639
33.8887 17.9305
34.0753 17.6487
34.262 17.6231
34.4488 17.1809
34.6357 17.0575
34.8227 16.8831
35.0098 16.5666
35.1969 16.348
35.3842 16.3285
35.5716 16.2301
35.759 16.4074
35.9468 16.3179
36.1345 15.8831
36.3222 15.6058
36.5101 15.6009
36.6981 15.3454
36.8861 15.0614
37.0743 15.0271
37.2626 14.6752
37.451 14.5631
37.6395 14.4273
37.8281 14.1132
38.0168 14.0236
38.2056 13.878
38.3945 13.6469
38.5837 13.4929
38.7728 13.3616
38.9621 13.1295
39.1514 13.0358
39.3409 12.7875
39.5304 12.6383
39.7201 12.5175
39.9099 12.3995
40.0999 12.2635
40.2899 12.1958
40.48 11.9602
40.6703 11.8444
40.8607 11.738
41.0512 11.6404
41.242 11.4677
41.4327 11.3117
41.6236 11.1658
41.8146 11.0206
42.0057 10.8905
42.1969 10.7913
42.3882 10.6113
42.5797 10.4621
42.7713 10.2939
42.963 10.1872
43.1549 10.0565
43.3468 9.93541
43.5389 9.76217
43.7312 9.61584
43.9237 9.54434
44.1162 9.40236
44.3088 9.26533
44.5016 9.14159
44.6945 9.0204
44.8875 8.93778
45.0806 8.81501
45.2739 8.68304
45.4673 8.57249
45.6609 8.44398
45.8546 8.30566
46.0484 8.22258
46.2424 8.0984
46.4365 8.02564
46.631 7.91295
46.8254 7.76033
47.0199 7.67138
47.2146 7.57735
47.4095 7.45676
47.6044 7.32663
47.7996 7.22875
47.9948 7.11525
48.1902 7.04556
48.3858 6.94558
48.5815 6.83461
48.7774 6.77663
48.9734 6.62913
49.1696 6.55735
49.3661 6.46227
49.5626 6.36795
49.7592 6.25359
49.956 6.2174
50.153 6.08709
50.3501 6.01173
50.5474 5.93014
50.7448 5.85521
50.9424 5.75708
51.1402 5.70778
51.3381 5.60047
51.5362 5.49663
51.7344 5.41553
51.9328 5.34422
52.1316 5.24192
52.3304 5.1694
52.5293 5.06671
52.7284 4.9993
52.9276 4.93024
53.1271 4.86484
53.3267 4.77646
53.5265 4.69462
53.7264 4.61539
53.9266 4.50613
54.1269 4.42212
54.3274 4.35962
54.528 4.20341
54.7289 4.09996
54.9301 3.94486
55.1314 3.87446
55.3328 3.68835
55.5344 3.55283
55.7361 3.49554