File: XRD/Ni3Fe_FD0083.xy
TT I
1.27165 10.2569
1.45013 7.60628
1.62863 7.1715
1.80712 6.30971
1.98562 6.1363
2.16411 5.79954
2.34263 5.29488
2.52115 4.85152
2.69965 5.36548
2.87818 7.50423
3.05672 11.4695
3.23527 15.026
3.4138 18.8248
3.59237 21.415
3.77094 24.5256
3.9495 28.3146
4.12809 31.8689
4.30669 37.1453
4.4853 44.3565
4.6639 53.1608
4.84253 66.282
5.02118 98.4178
5.19981 758.001
5.37848 1170.71
5.55716 119.982
5.73586 102.037
5.91455 121.285
6.09328 1581.35
6.27201 108.709
6.45075 67.2618
6.62952 59.0312
6.8083 54.4415
6.98711 52.1722
7.16591 51.4007
7.34475 50.8478
7.5236 68.2654
7.70247 53.2368
7.88135 54.8163
8.06026 59.1462
8.23919 66.3609
8.41812 85.141
8.59709 609.966
8.77609 155.227
8.9551 85.4675
9.13412 81.6976
9.31318 127.984
9.49226 82.4315
9.67134 86.578
9.85047 97.8975
10.0296 589.726
10.2088 1444.48
10.388 107.014
10.5672 192.535
10.7465 108.79
10.9257 74.3498
11.105 68.0211
11.2844 64.1691
11.4637 61.5175
11.6431 60.2169
11.8225 59.5332
12.002 83.5096
12.1814 90.3564
12.3609 92.6882
12.5405 61.2861
12.72 62.8938
12.8996 67.2569
13.0792 79.1014
13.2589 161.76
13.4386 310.972
13.6183 143.18
13.7981 228.889
13.9779 74.7157
14.1577 86.3557
14.3376 67.342
14.5175 66.2212
14.6974 67.6809
14.8774 115.39
15.0574 202.913
15.2374 68.4131
15.4175 64.055
15.5976 63.76
15.7778 105.051
15.958 157.463
16.1382 64.8352
16.3185 55.8137
16.4988 53.2842
16.6792 52.3054
16.8596 52.5278
17.04 54.3639
17.2205 60.7009
17.401 79.5277
17.5815 57.135
17.7622 60.4548
17.9428 84.2304
18.1237 84.3158
18.3044 89.9043
18.4852 103.482
18.666 59.9976
18.8469 56.3761
19.0278 54.951
19.2088 60.5162
19.3898 61.786
19.5709 58.8671
19.752 51.6655
19.9332 56.5681
20.1144 59.07
20.2957 58.6033
20.477 62.8571
20.6586 48.4874
20.84 48.265
21.0215 47.4958
21.203 47.1063
21.3846 49.8981
21.5662 47.3807
21.7479 52.1736
21.9297 54.2733
22.1115 56.3749
22.2933 53.5943
22.4753 47.3069
22.6572 47.5595
22.8393 49.7691
23.0214 51.3326
23.2037 49.8692
23.3859 50.891
23.5682 48.4219
23.7505 56.2411
23.9329 44.4474
24.1154 43.1115
24.2979 42.3979
24.4805 41.6819
24.6631 41.956
24.8458 41.2805
25.0286 41.3813
25.2114 41.9708
25.3943 42.3899
25.5773 41.4706
25.7605 39.516
25.9436 39.5328
26.1268 39.4657
26.31 40.2978
26.4933 39.3503
26.6767 39.5593
26.8601 40.495
27.0437 38.719
27.2272 37.7896
27.4109 37.2597
27.5946 37.2528
27.7784 37.5184
27.9623 36.8461
28.1462 37.4548
28.3304 37.0291
28.5145 35.2823
28.6987 34.7574
28.8829 34.2073
29.0673 34.1369
29.2517 33.2812
29.4361 32.8624
29.6207 32.7287
29.8053 31.9444
29.99 31.5887
30.1748 31.3752
30.3597 31.4253
30.5447 31.2167
30.7297 30.9323
30.915 31.086
31.1002 30.5035
31.2855 29.9369
31.4708 29.8131
31.6563 29.9247
31.8418 29.2628
32.0275 28.9855
32.2132 28.774
32.399 28.1701
32.5848 27.807
32.7708 27.3539
32.9569 27.1986
33.143 26.8448
33.3293 26.5995
33.5158 26.5025
33.7022 25.7989
33.8887 25.4721
34.0753 25.3584
34.262 24.8534
34.4488 24.5913
34.6357 24.2371
34.8227 23.9629
35.0098 23.6901
35.1969 23.5358
35.3842 23.2613
35.5716 23.0577
35.759 22.7967
35.9468 22.4437
36.1345 22.2192
36.3222 22.0169
36.5101 21.6596
36.6981 21.4591
36.8861 21.2412
37.0743 20.9156
37.2626 20.6748
37.451 20.4152
37.6395 20.1723
37.8281 19.8949
38.0168 19.6308
38.2056 19.373
38.3945 19.0988
38.5837 18.9158
38.7728 18.6777
38.9621 18.4399
39.1514 18.2548
39.3409 17.9204
39.5304 17.6627
39.7201 17.5253
39.9099 17.3832
40.0999 17.18
40.2899 16.8198
40.48 16.6214
40.6703 16.4529
40.8607 16.2938
41.0512 16.091
41.242 15.7946
41.4327 15.628
41.6236 15.393
41.8146 15.2047
42.0057 15.0277
42.1969 14.7776
42.3882 14.62
42.5797 14.4233
42.7713 14.2334
42.963 14.0235
43.1549 13.8732
43.3468 13.6722
43.5389 13.4566
43.7312 13.2905
43.9237 13.0799
44.1162 12.934
44.3088 12.7052
44.5016 12.5602
44.6945 12.3782
44.8875 12.2277
45.0806 12.0185
45.2739 11.8513
45.4673 11.7045
45.6609 11.5369
45.8546 11.4115
46.0484 11.1898
46.2424 11.0581
46.4365 10.9093
46.631 10.7316
46.8254 10.5825
47.0199 10.3965
47.2146 10.2868
47.4095 10.1175
47.6044 9.93313
47.7996 9.85228
47.9948 9.65206
48.1902 9.54957
48.3858 9.43142
48.5815 9.27675
48.7774 9.15883
48.9734 9.02561
49.1696 8.85911
49.3661 8.71896
49.5626 8.5832
49.7592 8.5095
49.956 8.36868
50.153 8.25341
50.3501 8.09853
50.5474 7.96434
50.7448 7.85985
50.9424 7.77073
51.1402 7.63716
51.3381 7.51329
51.5362 7.37241
51.7344 7.25203
51.9328 7.13748
52.1316 7.03113
52.3304 6.922
52.5293 6.80903
52.7284 6.67274
52.9276 6.5801
53.1271 6.47562
53.3267 6.32235
53.5265 6.24523
53.7264 6.12735
53.9266 5.95567
54.1269 5.88976
54.3274 5.75492
54.528 5.55746
54.7289 5.39725
54.9301 5.21083
55.1314 5.08031
55.3328 4.89566
55.5344 4.7083
55.7361 4.62598