File: XRD/Ni3Fe_FD0017.xy
TT I
1.27165 35.4303
1.45013 31.1528
1.62863 27.3337
1.80712 25.1436
1.98562 24.7936
2.16411 25.6399
2.34263 26.0843
2.52115 26.2659
2.69965 29.9436
2.87818 39.1054
3.05672 65.9074
3.23527 78.6684
3.4138 43.2488
3.59237 38.8439
3.77094 40.9759
3.9495 41.5452
4.12809 52.8555
4.30669 80.1454
4.4853 64.6668
4.6639 51.2273
4.84253 56.3815
5.02118 88.8701
5.19981 259.687
5.37848 3953.2
5.55716 159.692
5.73586 100.297
5.91455 109.178
6.09328 430.267
6.27201 337.168
6.45075 72.7125
6.62952 55.2557
6.8083 52.4459
6.98711 46.8805
7.16591 49.7792
7.34475 68.976
7.5236 61.6315
7.70247 49.2668
7.88135 38.9337
8.06026 39.9106
8.23919 44.2497
8.41812 55.6023
8.59709 149.579
8.77609 711.96
8.9551 79.0929
9.13412 58.7733
9.31318 250.102
9.49226 52.5791
9.67134 51.4686
9.85047 57.701
10.0296 92.7481
10.2088 429.967
10.388 141.463
10.5672 90.084
10.7465 287.372
10.9257 49.0544
11.105 42.1431
11.2844 40.3804
11.4637 38.4494
11.6431 37.4698
11.8225 36.9011
12.002 69.6113
12.1814 46.373
12.3609 91.0782
12.5405 45.393
12.72 39.8962
12.8996 39.4046
13.0792 41.9341
13.2589 62.3732
13.4386 133.557
13.6183 96.5123
13.7981 143.054
13.9779 65.4758
14.1577 46.5606
14.3376 49.6098
14.5175 37.42
14.6974 37.1358
14.8774 41.7082
15.0574 57.2541
15.2374 102.591
15.4175 41.1869
15.5976 37.672
15.7778 40.2849
15.958 52.1727
16.1382 127.158
16.3185 40.0742
16.4988 33.2032
16.6792 31.3618
16.8596 31.2976
17.04 39.1204
17.2205 32.7999
17.401 35.4074
17.5815 49.947
17.7622 34.6798
17.9428 40.4321
18.1237 42.5454
18.3044 84.3585
18.4852 57.751
18.666 70.2511
18.8469 36.0855
19.0278 33.063
19.2088 32.7801
19.3898 38.6194
19.5709 46.0536
19.752 36.4567
19.9332 31.4312
20.1144 32.0337
20.2957 40.922
20.477 39.3119
20.6586 40.7224
20.84 31.3801
21.0215 29.6842
21.203 28.28
21.3846 28.5326
21.5662 32.4037
21.7479 29.2416
21.9297 30.6255
22.1115 39.2177
22.2933 44.5173
22.4753 36.872
22.6572 29.7177
22.8393 29.9135
23.0214 31.121
23.2037 37.6856
23.3859 34.8686
23.5682 34.3509
23.7505 33.5284
23.9329 44.1895
24.1154 29.298
24.2979 27.2613
24.4805 26.0649
24.6631 26.0997
24.8458 27.9528
25.0286 25.957
25.2114 25.8952
25.3943 28.2924
25.5773 30.2808
25.7605 29.7554
25.9436 26.5805
26.1268 25.3326
26.31 26.1132
26.4933 28.3721
26.6767 25.5308
26.8601 26.8624
27.0437 31.2105
27.2272 27.4712
27.4109 24.5816
27.5946 24.3051
27.7784 24.6733
27.9623 25.2666
28.1462 25.4963
28.3304 26.6659
28.5145 27.8583
28.6987 25.3783
28.8829 22.9434
29.0673 22.4443
29.2517 23.2705
29.4361 22.0962
29.6207 21.8868
29.8053 22.8299
29.99 21.2327
30.1748 21.1783
30.3597 21.0069
30.5447 21.2344
30.7297 21.0881
30.915 21.1049
31.1002 23.0177
31.2855 21.9791
31.4708 20.5241
31.6563 20.4739
31.8418 21.2996
32.0275 20.6231
32.2132 20.4317
32.399 21.0936
32.5848 19.8467
32.7708 18.8919
32.9569 18.6886
33.143 18.8414
33.3293 18.3837
33.5158 18.7765
33.7022 19.0562
33.8887 18.0978
34.0753 17.6427
34.262 17.5947
34.4488 17.312
34.6357 17.0354
34.8227 17.0176
35.0098 16.5328
35.1969 16.2681
35.3842 16.3097
35.5716 16.1974
35.759 16.4858
35.9468 16.8724
36.1345 16.1448
36.3222 15.706
36.5101 15.6836
36.6981 15.5923
36.8861 15.2176
37.0743 15.3605
37.2626 14.8836
37.451 14.5896
37.6395 14.4883
37.8281 14.1805
38.0168 14.0952
38.2056 14.0152
38.3945 13.6651
38.5837 13.5258
38.7728 13.4868
38.9621 13.2658
39.1514 13.196
39.3409 12.8822
39.5304 12.745
39.7201 12.6155
39.9099 12.4791
40.0999 12.3013
40.2899 12.3081
40.48 12.0831
40.6703 11.9483
40.8607 11.9024
41.0512 11.6896
41.242 11.603
41.4327 11.4249
41.6236 11.1941
41.8146 11.0885
42.0057 10.9754
42.1969 10.8978
42.3882 10.7834
42.5797 10.5087
42.7713 10.353
42.963 10.2636
43.1549 10.1
43.3468 9.91858
43.5389 9.77625
43.7312 9.66114
43.9237 9.52387
44.1162 9.44788
44.3088 9.31388
44.5016 9.25467
44.6945 9.11733
44.8875 8.98326
45.0806 8.86883
45.2739 8.77552
45.4673 8.64338
45.6609 8.48584
45.8546 8.41036
46.0484 8.3427
46.2424 8.21776
46.4365 8.07147
46.631 7.99162
46.8254 7.81995
47.0199 7.74021
47.2146 7.63541
47.4095 7.49459
47.6044 7.39238
47.7996 7.27829
47.9948 7.17432
48.1902 7.11189
48.3858 6.98831
48.5815 6.88985
48.7774 6.81294
48.9734 6.68766
49.1696 6.58936
49.3661 6.47745
49.5626 6.46451
49.7592 6.36797
49.956 6.27924
50.153 6.14737
50.3501 6.05248
50.5474 6.00019
50.7448 5.90566
50.9424 5.82569
51.1402 5.70371
51.3381 5.62901
51.5362 5.52972
51.7344 5.45304
51.9328 5.40993
52.1316 5.25411
52.3304 5.19734
52.5293 5.12063
52.7284 5.04401
52.9276 4.94954
53.1271 4.86026
53.3267 4.80174
53.5265 4.7075
53.7264 4.64555
53.9266 4.57284
54.1269 4.46617
54.3274 4.38055
54.528 4.25296
54.7289 4.14732
54.9301 4.02541
55.1314 3.88901
55.3328 3.71127
55.5344 3.59905
55.7361 3.52806