File: XRD/Ni3Fe_FD0691.xy
TT I
1.27165 6.87908
1.45013 6.23965
1.62863 5.20724
1.80712 4.74333
1.98562 4.98623
2.16411 4.5746
2.34263 4.98403
2.52115 7.02035
2.69965 8.3492
2.87818 8.9197
3.05672 11.0483
3.23527 15.1733
3.4138 18.8361
3.59237 23.0364
3.77094 25.809
3.9495 29.7397
4.12809 34.2714
4.30669 125.049
4.4853 55.6506
4.6639 55.7618
4.84253 68.5014
5.02118 87.5876
5.19981 425.513
5.37848 192.177
5.55716 102.072
5.73586 92.7673
5.91455 95.474
6.09328 4596.0
6.27201 80.4191
6.45075 68.6898
6.62952 62.3871
6.8083 58.897
6.98711 55.707
7.16591 55.9311
7.34475 72.1106
7.5236 54.3921
7.70247 56.4026
7.88135 57.5897
8.06026 62.7197
8.23919 69.5423
8.41812 84.312
8.59709 1238.13
8.77609 98.1671
8.9551 89.6102
9.13412 82.4125
9.31318 83.8664
9.49226 84.8291
9.67134 95.5027
9.85047 101.008
10.0296 366.556
10.2088 359.749
10.388 105.2
10.5672 514.653
10.7465 86.4576
10.9257 77.9572
11.105 71.4532
11.2844 68.9411
11.4637 64.6613
11.6431 63.339
11.8225 62.634
12.002 64.5164
12.1814 154.127
12.3609 67.6466
12.5405 64.4282
12.72 68.3004
12.8996 71.2338
13.0792 80.3314
13.2589 250.063
13.4386 120.2
13.6183 255.88
13.7981 93.6083
13.9779 76.0566
14.1577 72.0235
14.3376 70.3429
14.5175 68.7671
14.6974 70.5308
14.8774 113.786
15.0574 140.548
15.2374 69.9219
15.4175 66.3684
15.5976 66.2442
15.7778 97.0061
15.958 150.15
16.1382 61.6547
16.3185 58.0414
16.4988 55.372
16.6792 54.4445
16.8596 54.9235
17.04 56.1514
17.2205 67.5748
17.401 69.8897
17.5815 59.2111
17.7622 61.2451
17.9428 74.4779
18.1237 142.505
18.3044 91.3874
18.4852 75.3509
18.666 60.1415
18.8469 57.987
19.0278 56.6858
19.2088 59.3939
19.3898 76.0722
19.5709 54.0909
19.752 53.2382
19.9332 56.4283
20.1144 69.9405
20.2957 64.1956
20.477 52.9856
20.6586 49.5861
20.84 48.7115
21.0215 48.5725
21.203 50.8323
21.3846 48.7422
21.5662 49.1234
21.7479 52.8847
21.9297 64.883
22.1115 56.05
22.2933 49.6033
22.4753 48.6555
22.6572 48.9847
22.8393 52.0544
23.0214 57.135
23.2037 48.8004
23.3859 49.6594
23.5682 57.4494
23.7505 47.8652
23.9329 45.1596
24.1154 43.9964
24.2979 43.4173
24.4805 42.7822
24.6631 42.7339
24.8458 42.1902
25.0286 43.0308
25.2114 44.6224
25.3943 44.5488
25.5773 40.8333
25.7605 40.3548
25.9436 40.7926
26.1268 41.5962
26.31 40.0563
26.4933 40.6985
26.6767 42.1765
26.8601 40.2917
27.0437 38.9447
27.2272 38.5831
27.4109 38.2965
27.5946 38.2841
27.7784 37.906
27.9623 38.548
28.1462 38.8392
28.3304 37.0329
28.5145 35.9676
28.6987 35.6516
28.8829 35.3729
29.0673 34.5863
29.2517 34.3972
29.4361 34.08
29.6207 33.1057
29.8053 32.7906
29.99 32.6057
30.1748 32.4691
30.3597 32.1618
30.5447 32.2403
30.7297 32.1347
30.915 31.5763
31.1002 31.0865
31.2855 30.8444
31.4708 30.8668
31.6563 30.3436
31.8418 30.1387
32.0275 29.8337
32.2132 29.3748
32.399 28.819
32.5848 28.401
32.7708 28.1067
32.9569 27.9642
33.143 27.7469
33.3293 27.4409
33.5158 27.0405
33.7022 26.5097
33.8887 26.2912
34.0753 25.9372
34.262 25.5959
34.4488 25.2162
34.6357 24.9774
34.8227 24.6139
35.0098 24.5182
35.1969 24.1151
35.3842 23.9693
35.5716 23.7014
35.759 23.3687
35.9468 23.0889
36.1345 22.9891
36.3222 22.5757
36.5101 22.358
36.6981 22.1133
36.8861 21.7913
37.0743 21.5397
37.2626 21.2615
37.451 20.9466
37.6395 20.8159
37.8281 20.4454
38.0168 20.1583
38.2056 19.9384
38.3945 19.6282
38.5837 19.4539
38.7728 19.1578
38.9621 18.9228
39.1514 18.7302
39.3409 18.4504
39.5304 18.2391
39.7201 18.0912
39.9099 17.8193
40.0999 17.5563
40.2899 17.3154
40.48 17.0484
40.6703 16.8877
40.8607 16.7266
41.0512 16.5195
41.242 16.2624
41.4327 16.0639
41.6236 15.8137
41.8146 15.6657
42.0057 15.3794
42.1969 15.1965
42.3882 14.9912
42.5797 14.7883
42.7713 14.6107
42.963 14.4079
43.1549 14.1903
43.3468 14.0494
43.5389 13.8311
43.7312 13.6144
43.9237 13.4385
44.1162 13.2643
44.3088 13.0301
44.5016 12.8225
44.6945 12.6892
44.8875 12.5716
45.0806 12.3814
45.2739 12.1947
45.4673 12.0601
45.6609 11.8633
45.8546 11.6674
46.0484 11.4874
46.2424 11.3624
46.4365 11.1637
46.631 11.0096
46.8254 10.8484
47.0199 10.7219
47.2146 10.5185
47.4095 10.3528
47.6044 10.2007
47.7996 10.0692
47.9948 9.90728
48.1902 9.78369
48.3858 9.66896
48.5815 9.52838
48.7774 9.36429
48.9734 9.25582
49.1696 9.09596
49.3661 8.95479
49.5626 8.8039
49.7592 8.73544
49.956 8.52644
50.153 8.42087
50.3501 8.24645
50.5474 8.18362
50.7448 8.04785
50.9424 7.92041
51.1402 7.78124
51.3381 7.65114
51.5362 7.53423
51.7344 7.44724
51.9328 7.29073
52.1316 7.17013
52.3304 7.0345
52.5293 6.9518
52.7284 6.83414
52.9276 6.67401
53.1271 6.62036
53.3267 6.45799
53.5265 6.37545
53.7264 6.29237
53.9266 6.15175
54.1269 6.01812
54.3274 5.92388
54.528 5.80685
54.7289 5.54229
54.9301 5.44395
55.1314 5.36072
55.3328 5.15992
55.5344 4.95748
55.7361 4.8003