File: XRD/Ni3Fe_FD0360.xy
TT I
1.27165 8.01358
1.45013 6.68695
1.62863 4.84172
1.80712 4.91273
1.98562 4.99471
2.16411 4.88688
2.34263 4.4583
2.52115 6.14576
2.69965 7.20135
2.87818 8.69069
3.05672 10.9462
3.23527 14.397
3.4138 18.8756
3.59237 23.4273
3.77094 25.5815
3.9495 30.2947
4.12809 35.3119
4.30669 116.928
4.4853 55.5576
4.6639 56.8953
4.84253 69.9735
5.02118 91.8287
5.19981 617.454
5.37848 219.963
5.55716 106.958
5.73586 96.5678
5.91455 102.262
6.09328 4014.99
6.27201 85.2174
6.45075 69.5847
6.62952 63.9036
6.8083 59.5632
6.98711 57.0099
7.16591 56.6389
7.34475 71.9611
7.5236 55.5244
7.70247 57.321
7.88135 59.1581
8.06026 63.8694
8.23919 71.4788
8.41812 87.921
8.59709 1191.01
8.77609 104.286
8.9551 91.3731
9.13412 84.8935
9.31318 86.2022
9.49226 87.6057
9.67134 96.9089
9.85047 104.067
10.0296 445.268
10.2088 451.888
10.388 110.511
10.5672 488.377
10.7465 89.4093
10.9257 79.7782
11.105 73.5539
11.2844 70.5855
11.4637 66.4905
11.6431 65.1289
11.8225 64.2611
12.002 66.464
12.1814 151.345
12.3609 69.6834
12.5405 66.2307
12.72 70.1006
12.8996 73.2307
13.0792 83.5886
13.2589 247.444
13.4386 132.9
13.6183 245.197
13.7981 101.628
13.9779 78.2258
14.1577 74.06
14.3376 72.5334
14.5175 70.9343
14.6974 72.9305
14.8774 120.465
15.0574 151.937
15.2374 71.8743
15.4175 68.3122
15.5976 68.0818
15.7778 103.455
15.958 161.398
16.1382 63.4087
16.3185 59.5653
16.4988 57.0542
16.6792 55.991
16.8596 56.5241
17.04 58.044
17.2205 69.3032
17.401 73.041
17.5815 60.9178
17.7622 63.1663
17.9428 79.2244
18.1237 139.622
18.3044 91.8327
18.4852 79.0961
18.666 62.1571
18.8469 59.7111
19.0278 58.5325
19.2088 61.7736
19.3898 76.7892
19.5709 55.7759
19.752 54.9689
19.9332 58.6202
20.1144 71.4183
20.2957 64.4458
20.477 55.0748
20.6586 51.1371
20.84 50.2348
21.0215 50.1773
21.203 51.9177
21.3846 50.6148
21.5662 50.6332
21.7479 54.7796
21.9297 66.2762
22.1115 57.1367
22.2933 51.3389
22.4753 50.0985
22.6572 50.5692
22.8393 53.5338
23.0214 58.809
23.2037 50.2799
23.3859 51.5631
23.5682 57.6156
23.7505 49.7434
23.9329 46.5489
24.1154 45.5275
24.2979 44.6353
24.4805 44.0659
24.6631 43.9517
24.8458 43.5206
25.0286 44.244
25.2114 45.8669
25.3943 45.8344
25.5773 42.1549
25.7605 41.6083
25.9436 41.9235
26.1268 42.8384
26.31 41.2933
26.4933 41.814
26.6767 43.2314
26.8601 41.6281
27.0437 40.0124
27.2272 39.6511
27.4109 39.4386
27.5946 39.524
27.7784 38.9881
27.9623 39.4442
28.1462 39.8901
28.3304 38.1425
28.5145 36.9407
28.6987 36.5312
28.8829 36.4652
29.0673 35.4918
29.2517 35.2905
29.4361 35.076
29.6207 33.9967
29.8053 33.5897
29.99 33.5619
30.1748 33.2837
30.3597 33.207
30.5447 33.1085
30.7297 33.083
30.915 32.4368
31.1002 31.9427
31.2855 31.7026
31.4708 31.6879
31.6563 31.1914
31.8418 30.8957
32.0275 30.7034
32.2132 30.1921
32.399 29.7743
32.5848 29.2759
32.7708 29.002
32.9569 28.8214
33.143 28.5267
33.3293 28.0428
33.5158 27.8055
33.7022 27.3323
33.8887 26.9199
34.0753 26.7218
34.262 26.2869
34.4488 25.9644
34.6357 25.6712
34.8227 25.396
35.0098 25.07
35.1969 24.9091
35.3842 24.5812
35.5716 24.3541
35.759 24.1052
35.9468 23.6598
36.1345 23.4875
36.3222 23.2598
36.5101 23.0756
36.6981 22.7163
36.8861 22.3729
37.0743 22.1164
37.2626 21.8283
37.451 21.5274
37.6395 21.4667
37.8281 21.0782
38.0168 20.7031
38.2056 20.4642
38.3945 20.2664
38.5837 19.9511
38.7728 19.7049
38.9621 19.4595
39.1514 19.2222
39.3409 18.9808
39.5304 18.7476
39.7201 18.5073
39.9099 18.3033
40.0999 18.0771
40.2899 17.8867
40.48 17.6196
40.6703 17.4013
40.8607 17.1834
41.0512 16.9211
41.242 16.6947
41.4327 16.473
41.6236 16.2378
41.8146 16.0578
42.0057 15.8349
42.1969 15.6145
42.3882 15.4748
42.5797 15.2072
42.7713 14.975
42.963 14.8005
43.1549 14.6097
43.3468 14.3503
43.5389 14.2229
43.7312 14.0081
43.9237 13.8127
44.1162 13.617
44.3088 13.3957
44.5016 13.1878
44.6945 12.9864
44.8875 12.8828
45.0806 12.7437
45.2739 12.4648
45.4673 12.3609
45.6609 12.1885
45.8546 12.0312
46.0484 11.8691
46.2424 11.6292
46.4365 11.4514
46.631 11.306
46.8254 11.1346
47.0199 10.9847
47.2146 10.8537
47.4095 10.6292
47.6044 10.4967
47.7996 10.3243
47.9948 10.1788
48.1902 10.0701
48.3858 9.92808
48.5815 9.76356
48.7774 9.60741
48.9734 9.49387
49.1696 9.33395
49.3661 9.18653
49.5626 9.01278
49.7592 8.89808
49.956 8.80213
50.153 8.62439
50.3501 8.52168
50.5474 8.41842
50.7448 8.26588
50.9424 8.08919
51.1402 7.97837
51.3381 7.83521
51.5362 7.74157
51.7344 7.60951
51.9328 7.49876
52.1316 7.33863
52.3304 7.23078
52.5293 7.09599
52.7284 6.99728
52.9276 6.91257
53.1271 6.7951
53.3267 6.64458
53.5265 6.5009
53.7264 6.42497
53.9266 6.34308
54.1269 6.19017
54.3274 6.09312
54.528 5.92612
54.7289 5.81052
54.9301 5.64398
55.1314 5.52238
55.3328 5.31012
55.5344 5.08573
55.7361 4.92709