File: XRD/Ni3Fe_FD0182.xy
TT I
1.27165 8.29413
1.45013 6.46103
1.62863 5.51847
1.80712 4.44476
1.98562 4.32761
2.16411 4.8759
2.34263 3.99057
2.52115 4.59233
2.69965 6.37467
2.87818 8.21762
3.05672 11.2718
3.23527 15.0007
3.4138 18.5603
3.59237 21.8993
3.77094 25.0604
3.9495 28.6625
4.12809 32.971
4.30669 37.5006
4.4853 45.1751
4.6639 54.0239
4.84253 66.5345
5.02118 91.4437
5.19981 519.248
5.37848 407.57
5.55716 107.672
5.73586 95.7303
5.91455 104.439
6.09328 2889.78
6.27201 88.4263
6.45075 67.0624
6.62952 60.3421
6.8083 55.9499
6.98711 54.0806
7.16591 52.8987
7.34475 52.5384
7.5236 55.7778
7.70247 54.5036
7.88135 56.54
8.06026 60.8572
8.23919 68.0445
8.41812 84.0669
8.59709 925.294
8.77609 114.63
8.9551 85.6112
9.13412 81.8217
9.31318 86.1704
9.49226 84.0828
9.67134 89.4886
9.85047 99.4507
10.0296 532.929
10.2088 930.453
10.388 104.833
10.5672 345.914
10.7465 90.7184
10.9257 75.9555
11.105 70.6646
11.2844 66.5633
11.4637 64.0546
11.6431 62.5971
11.8225 61.5475
12.002 65.1109
12.1814 122.269
12.3609 73.8543
12.5405 63.5302
12.72 65.6
12.8996 70.1893
13.0792 79.9763
13.2589 210.787
13.4386 200.318
13.6183 199.794
13.7981 149.47
13.9779 76.7629
14.1577 74.1921
14.3376 69.4796
14.5175 68.9647
14.6974 70.1464
14.8774 121.638
15.0574 204.377
15.2374 69.6768
15.4175 66.5709
15.5976 66.1906
15.7778 107.656
15.958 187.523
16.1382 62.0917
16.3185 57.8184
16.4988 55.3715
16.6792 54.2819
16.8596 54.7601
17.04 55.782
17.2205 65.89
17.401 81.4771
17.5815 59.4659
17.7622 61.6758
17.9428 83.8056
18.1237 118.816
18.3044 89.4881
18.4852 94.6008
18.666 61.3597
18.8469 58.7569
19.0278 57.1421
19.2088 62.1357
19.3898 70.2069
19.5709 56.6212
19.752 53.7908
19.9332 58.6024
20.1144 68.1322
20.2957 61.8789
20.477 58.9875
20.6586 50.2047
20.84 49.4006
21.0215 49.4089
21.203 50.3518
21.3846 50.8926
21.5662 49.3879
21.7479 54.5025
21.9297 63.2771
22.1115 56.9552
22.2933 52.6286
22.4753 49.2141
22.6572 49.3932
22.8393 52.8091
23.0214 58.2847
23.2037 50.2396
23.3859 52.1773
23.5682 54.4993
23.7505 53.3317
23.9329 46.2063
24.1154 44.9231
24.2979 44.0051
24.4805 43.4375
24.6631 43.4963
24.8458 42.8831
25.0286 43.4193
25.2114 45.1796
25.3943 45.4221
25.5773 42.1238
25.7605 41.0613
25.9436 41.4001
26.1268 42.1744
26.31 41.2595
26.4933 41.435
26.6767 42.5764
26.8601 41.7928
27.0437 39.9435
27.2272 39.3225
27.4109 39.0173
27.5946 39.0946
27.7784 38.8549
27.9623 38.9625
28.1462 39.9105
28.3304 38.3415
28.5145 36.7558
28.6987 36.1964
28.8829 35.8448
29.0673 35.4256
29.2517 34.8086
29.4361 34.5616
29.6207 33.9381
29.8053 33.523
29.99 33.0975
30.1748 32.9265
30.3597 32.9737
30.5447 32.8021
30.7297 32.6469
30.915 32.3662
31.1002 31.7854
31.2855 31.4216
31.4708 31.2782
31.6563 31.106
31.8418 30.6918
32.0275 30.5975
32.2132 30.0994
32.399 29.4388
32.5848 29.03
32.7708 28.6968
32.9569 28.5797
33.143 28.3165
33.3293 28.0483
33.5158 27.6367
33.7022 27.0669
33.8887 26.7373
34.0753 26.4947
34.262 26.0289
34.4488 25.7359
34.6357 25.4383
34.8227 25.1064
35.0098 24.9121
35.1969 24.6773
35.3842 24.337
35.5716 24.3164
35.759 23.9934
35.9468 23.5538
36.1345 23.3049
36.3222 23.0762
36.5101 22.7479
36.6981 22.5397
36.8861 22.2375
37.0743 21.9375
37.2626 21.5862
37.451 21.3414
37.6395 21.2127
37.8281 20.8074
38.0168 20.5298
38.2056 20.3163
38.3945 20.0886
38.5837 19.779
38.7728 19.4775
38.9621 19.3706
39.1514 19.0732
39.3409 18.7667
39.5304 18.5975
39.7201 18.3768
39.9099 18.2246
40.0999 17.9425
40.2899 17.6423
40.48 17.418
40.6703 17.1683
40.8607 17.0446
41.0512 16.7712
41.242 16.5454
41.4327 16.3392
41.6236 16.0751
41.8146 15.9433
42.0057 15.7116
42.1969 15.5092
42.3882 15.3459
42.5797 15.0868
42.7713 14.8844
42.963 14.661
43.1549 14.4861
43.3468 14.2726
43.5389 14.0161
43.7312 13.8456
43.9237 13.6519
44.1162 13.4331
44.3088 13.3497
44.5016 13.1482
44.6945 12.9228
44.8875 12.7103
45.0806 12.5688
45.2739 12.4041
45.4673 12.2433
45.6609 12.0982
45.8546 11.866
46.0484 11.6976
46.2424 11.5344
46.4365 11.372
46.631 11.1967
46.8254 11.0323
47.0199 10.8647
47.2146 10.768
47.4095 10.5451
47.6044 10.4421
47.7996 10.2482
47.9948 10.0702
48.1902 9.92624
48.3858 9.87116
48.5815 9.67565
48.7774 9.52777
48.9734 9.41983
49.1696 9.29811
49.3661 9.14298
49.5626 8.95355
49.7592 8.84179
49.956 8.71066
50.153 8.60726
50.3501 8.45866
50.5474 8.34323
50.7448 8.17782
50.9424 8.05261
51.1402 7.96033
51.3381 7.81242
51.5362 7.70069
51.7344 7.54092
51.9328 7.42284
52.1316 7.30709
52.3304 7.20012
52.5293 7.10392
52.7284 6.91365
52.9276 6.85696
53.1271 6.78267
53.3267 6.56996
53.5265 6.52164
53.7264 6.3655
53.9266 6.22631
54.1269 6.11078
54.3274 5.98515
54.528 5.89191
54.7289 5.73605
54.9301 5.50371
55.1314 5.3462
55.3328 5.14973
55.5344 4.99635
55.7361 4.88794