File: XRD/Ni3Fe_FD0125.xy
TT I
1.27165 8.22992
1.45013 6.01676
1.62863 5.4558
1.80712 5.07096
1.98562 5.22075
2.16411 4.60462
2.34263 4.34482
2.52115 4.4867
2.69965 5.57612
2.87818 6.94028
3.05672 10.8912
3.23527 14.5609
3.4138 18.4167
3.59237 21.1534
3.77094 24.5385
3.9495 28.5032
4.12809 32.7451
4.30669 37.3162
4.4853 44.9988
4.6639 53.6338
4.84253 65.3532
5.02118 91.0124
5.19981 583.224
5.37848 519.477
5.55716 108.02
5.73586 95.5615
5.91455 106.721
6.09328 2522.28
6.27201 90.9585
6.45075 66.101
6.62952 59.2232
6.8083 55.1358
6.98711 52.8057
7.16591 51.8652
7.34475 51.6901
7.5236 56.4479
7.70247 53.4039
7.88135 55.648
8.06026 59.8827
8.23919 67.4935
8.41812 83.3374
8.59709 839.446
8.77609 118.89
8.9551 85.1137
9.13412 81.0567
9.31318 88.0801
9.49226 82.5038
9.67134 87.8415
9.85047 97.9654
10.0296 558.003
10.2088 1055.64
10.388 104.494
10.5672 307.326
10.7465 91.4596
10.9257 74.9257
11.105 69.6267
11.2844 65.2629
11.4637 62.9866
11.6431 61.593
11.8225 60.2357
12.002 65.7839
12.1814 112.641
12.3609 76.4375
12.5405 62.5516
12.72 64.8187
12.8996 68.8856
13.0792 78.9019
13.2589 196.954
13.4386 223.199
13.6183 183.197
13.7981 164.296
13.9779 75.4283
14.1577 74.4741
14.3376 68.38
14.5175 67.7277
14.6974 69.1935
14.8774 120.287
15.0574 206.13
15.2374 68.6613
15.4175 65.5437
15.5976 65.1783
15.7778 106.963
15.958 183.415
16.1382 61.8338
16.3185 56.7962
16.4988 54.4928
16.6792 53.5048
16.8596 53.7711
17.04 54.7599
17.2205 64.2529
17.401 80.8209
17.5815 58.3555
17.7622 61.0237
17.9428 83.8393
18.1237 109.652
18.3044 87.5014
18.4852 96.5699
18.666 60.4808
18.8469 57.6776
19.0278 56.2928
19.2088 61.4287
19.3898 67.3297
19.5709 56.2794
19.752 52.8295
19.9332 57.7639
20.1144 65.6467
20.2957 60.4093
20.477 59.5984
20.6586 49.3587
20.84 48.6395
21.0215 48.6197
21.203 49.078
21.3846 50.2508
21.5662 48.5315
21.7479 53.6591
21.9297 60.8354
22.1115 56.0404
22.2933 52.6389
22.4753 48.5615
22.6572 48.6
22.8393 51.5616
23.0214 56.0257
23.2037 49.5865
23.3859 51.4684
23.5682 52.5296
23.7505 53.6572
23.9329 45.3639
24.1154 43.9028
24.2979 43.339
24.4805 42.6299
24.6631 42.8261
24.8458 42.1607
25.0286 42.7373
25.2114 44.0515
25.3943 44.3966
25.5773 41.6453
25.7605 40.3928
25.9436 40.7329
26.1268 41.1069
26.31 40.7953
26.4933 40.555
26.6767 41.6598
26.8601 41.0643
27.0437 39.3097
27.2272 38.6472
27.4109 38.3259
27.5946 38.447
27.7784 38.3058
27.9623 38.1039
28.1462 38.9088
28.3304 37.848
28.5145 35.9561
28.6987 35.6455
28.8829 35.2188
29.0673 34.946
29.2517 34.3007
29.4361 33.9254
29.6207 33.3856
29.8053 32.7928
29.99 32.4775
30.1748 32.2973
30.3597 32.4183
30.5447 32.0792
30.7297 32.0007
30.915 31.7451
31.1002 31.3119
31.2855 30.9476
31.4708 30.7545
31.6563 30.7008
31.8418 30.0979
32.0275 30.0779
32.2132 29.4578
32.399 28.9393
32.5848 28.4539
32.7708 28.1436
32.9569 28.0221
33.143 27.6991
33.3293 27.4058
33.5158 27.092
33.7022 26.5857
33.8887 26.2922
34.0753 26.0373
34.262 25.5909
34.4488 25.31
34.6357 24.9747
34.8227 24.6247
35.0098 24.4954
35.1969 24.1454
35.3842 23.8947
35.5716 23.7442
35.759 23.4557
35.9468 23.0615
36.1345 22.9006
36.3222 22.6278
36.5101 22.3673
36.6981 22.1308
36.8861 21.7471
37.0743 21.5152
37.2626 21.2115
37.451 20.9561
37.6395 20.7865
37.8281 20.498
38.0168 20.2255
38.2056 19.8827
38.3945 19.6489
38.5837 19.4244
38.7728 19.2302
38.9621 18.9341
39.1514 18.6829
39.3409 18.5012
39.5304 18.1923
39.7201 18.097
39.9099 17.8053
40.0999 17.5709
40.2899 17.3274
40.48 17.107
40.6703 16.9272
40.8607 16.707
41.0512 16.5231
41.242 16.2441
41.4327 16.0233
41.6236 15.7962
41.8146 15.6328
42.0057 15.4349
42.1969 15.2505
42.3882 15.0307
42.5797 14.817
42.7713 14.6514
42.963 14.3735
43.1549 14.2035
43.3468 14.0708
43.5389 13.8146
43.7312 13.6159
43.9237 13.4536
44.1162 13.2421
44.3088 13.0773
44.5016 12.8682
44.6945 12.7193
44.8875 12.5037
45.0806 12.3447
45.2739 12.1986
45.4673 12.0232
45.6609 11.82
45.8546 11.6694
46.0484 11.5302
46.2424 11.3623
46.4365 11.173
46.631 10.9952
46.8254 10.8612
47.0199 10.6708
47.2146 10.5322
47.4095 10.3382
47.6044 10.2503
47.7996 10.0624
47.9948 9.93879
48.1902 9.81043
48.3858 9.64152
48.5815 9.51506
48.7774 9.39612
48.9734 9.23768
49.1696 9.12287
49.3661 8.99065
49.5626 8.78782
49.7592 8.69879
49.956 8.57083
50.153 8.45507
50.3501 8.27995
50.5474 8.19404
50.7448 8.04808
50.9424 7.93372
51.1402 7.8191
51.3381 7.68806
51.5362 7.54095
51.7344 7.43274
51.9328 7.28622
52.1316 7.16171
52.3304 7.06484
52.5293 6.96723
52.7284 6.8537
52.9276 6.74863
53.1271 6.66167
53.3267 6.49735
53.5265 6.35793
53.7264 6.29977
53.9266 6.17057
54.1269 6.08227
54.3274 5.88658
54.528 5.78994
54.7289 5.55348
54.9301 5.37151
55.1314 5.2349
55.3328 5.00314
55.5344 4.81897
55.7361 4.72472