File: XRD/Ni3Fe_FD0665.xy
TT I
1.27165 7.87674
1.45013 5.95642
1.62863 5.26733
1.80712 5.06347
1.98562 4.04148
2.16411 5.22093
2.34263 5.42634
2.52115 7.11721
2.69965 7.81233
2.87818 8.84944
3.05672 10.8871
3.23527 14.9998
3.4138 19.1748
3.59237 23.8156
3.77094 26.2899
3.9495 29.79
4.12809 34.7355
4.30669 187.481
4.4853 62.2804
4.6639 55.6183
4.84253 67.7576
5.02118 87.2488
5.19981 355.178
5.37848 181.771
5.55716 101.989
5.73586 92.4891
5.91455 94.2657
6.09328 4513.6
6.27201 82.2274
6.45075 67.3531
6.62952 62.2189
6.8083 58.5803
6.98711 55.9089
7.16591 55.1461
7.34475 85.4426
7.5236 54.623
7.70247 56.1991
7.88135 57.9162
8.06026 62.1966
8.23919 69.5601
8.41812 85.2743
8.59709 1205.46
8.77609 98.5978
8.9551 90.5781
9.13412 82.1601
9.31318 82.6966
9.49226 84.412
9.67134 96.9651
9.85047 99.9156
10.0296 351.367
10.2088 370.851
10.388 104.313
10.5672 514.163
10.7465 86.1489
10.9257 78.1042
11.105 71.9176
11.2844 69.8703
11.4637 64.9912
11.6431 63.6843
11.8225 62.3811
12.002 63.6523
12.1814 153.852
12.3609 69.4841
12.5405 64.4442
12.72 69.299
12.8996 71.0295
13.0792 79.1897
13.2589 243.829
13.4386 120.791
13.6183 253.139
13.7981 94.6182
13.9779 75.7566
14.1577 72.1783
14.3376 71.2141
14.5175 68.9172
14.6974 70.2807
14.8774 111.234
15.0574 142.441
15.2374 70.6488
15.4175 66.5482
15.5976 65.7841
15.7778 95.431
15.958 153.075
16.1382 62.3493
16.3185 58.4209
16.4988 55.3252
16.6792 54.4556
16.8596 55.0707
17.04 55.8672
17.2205 67.164
17.401 70.0498
17.5815 59.1377
17.7622 61.2439
17.9428 73.9394
18.1237 142.824
18.3044 90.9592
18.4852 75.8869
18.666 60.3374
18.8469 57.8858
19.0278 56.8538
19.2088 59.484
19.3898 77.0686
19.5709 54.043
19.752 53.089
19.9332 56.2434
20.1144 69.7086
20.2957 64.0402
20.477 53.2879
20.6586 49.5492
20.84 48.58
21.0215 48.4916
21.203 50.8571
21.3846 48.7478
21.5662 48.8571
21.7479 52.6262
21.9297 64.8419
22.1115 56.1464
22.2933 49.7187
22.4753 48.7867
22.6572 49.0041
22.8393 52.0639
23.0214 57.1823
23.2037 48.6953
23.3859 49.7909
23.5682 57.2211
23.7505 47.8079
23.9329 45.0482
24.1154 44.0062
24.2979 43.4109
24.4805 42.881
24.6631 42.6422
24.8458 42.3059
25.0286 42.7609
25.2114 44.6001
25.3943 44.4858
25.5773 40.7914
25.7605 40.4247
25.9436 40.8733
26.1268 41.6803
26.31 39.965
26.4933 40.6561
26.6767 42.0919
26.8601 40.4052
27.0437 38.8875
27.2272 38.5514
27.4109 38.4639
27.5946 38.2673
27.7784 37.7826
27.9623 38.4001
28.1462 38.7842
28.3304 37.1841
28.5145 36.0396
28.6987 35.5807
28.8829 35.4062
29.0673 34.5362
29.2517 34.2375
29.4361 34.0455
29.6207 33.1589
29.8053 32.8353
29.99 32.6633
30.1748 32.4378
30.3597 32.2448
30.5447 32.1816
30.7297 32.1469
30.915 31.5788
31.1002 31.1596
31.2855 30.9829
31.4708 30.7223
31.6563 30.3765
31.8418 30.101
32.0275 29.8321
32.2132 29.3236
32.399 28.9744
32.5848 28.454
32.7708 28.1268
32.9569 27.9836
33.143 27.8545
33.3293 27.4414
33.5158 27.0364
33.7022 26.5777
33.8887 26.3856
34.0753 25.9364
34.262 25.6499
34.4488 25.2899
34.6357 24.983
34.8227 24.7137
35.0098 24.4455
35.1969 24.2344
35.3842 23.9981
35.5716 23.7211
35.759 23.5298
35.9468 23.0275
36.1345 22.8177
36.3222 22.6468
36.5101 22.4032
36.6981 22.0643
36.8861 21.7674
37.0743 21.4978
37.2626 21.2215
37.451 20.9738
37.6395 20.7905
37.8281 20.4054
38.0168 20.1989
38.2056 19.954
38.3945 19.7203
38.5837 19.4397
38.7728 19.1973
38.9621 18.9012
39.1514 18.6744
39.3409 18.4329
39.5304 18.2391
39.7201 18.0525
39.9099 17.8596
40.0999 17.6083
40.2899 17.3214
40.48 17.0721
40.6703 16.8797
40.8607 16.6665
41.0512 16.4968
41.242 16.3178
41.4327 16.0553
41.6236 15.8215
41.8146 15.6208
42.0057 15.4119
42.1969 15.2103
42.3882 15.0269
42.5797 14.8507
42.7713 14.602
42.963 14.4376
43.1549 14.2314
43.3468 14.0391
43.5389 13.8688
43.7312 13.6216
43.9237 13.4447
44.1162 13.2344
44.3088 13.0665
44.5016 12.8707
44.6945 12.7275
44.8875 12.5411
45.0806 12.342
45.2739 12.1437
45.4673 12.0587
45.6609 11.8717
45.8546 11.7
46.0484 11.5201
46.2424 11.3529
46.4365 11.2467
46.631 11.0134
46.8254 10.8357
47.0199 10.6923
47.2146 10.5728
47.4095 10.4229
47.6044 10.2513
47.7996 10.0979
47.9948 9.92041
48.1902 9.7838
48.3858 9.63766
48.5815 9.52013
48.7774 9.38134
48.9734 9.25214
49.1696 9.05389
49.3661 8.94183
49.5626 8.79432
49.7592 8.6925
49.956 8.56372
50.153 8.40538
50.3501 8.28725
50.5474 8.19017
50.7448 8.05229
50.9424 7.89853
51.1402 7.82873
51.3381 7.6757
51.5362 7.53491
51.7344 7.40549
51.9328 7.3383
52.1316 7.18838
52.3304 7.05864
52.5293 6.94471
52.7284 6.82893
52.9276 6.72362
53.1271 6.64604
53.3267 6.46927
53.5265 6.38167
53.7264 6.24113
53.9266 6.16239
54.1269 6.06693
54.3274 5.91286
54.528 5.79698
54.7289 5.62579
54.9301 5.47603
55.1314 5.34686
55.3328 5.16582
55.5344 4.95421
55.7361 4.82442