File: XRD/Ni3Fe_FD0214.xy
TT I
1.27165 7.66335
1.45013 6.34026
1.62863 6.58141
1.80712 5.04371
1.98562 5.15098
2.16411 4.5129
2.34263 4.65806
2.52115 4.46773
2.69965 6.44649
2.87818 7.52926
3.05672 11.4326
3.23527 15.3027
3.4138 19.3678
3.59237 22.5802
3.77094 25.8029
3.9495 30.3613
4.12809 34.783
4.30669 40.6508
4.4853 48.7566
4.6639 58.2085
4.84253 71.9427
5.02118 97.4393
5.19981 893.483
5.37848 279.931
5.55716 112.887
5.73586 101.468
5.91455 111.442
6.09328 3596.49
6.27201 89.9118
6.45075 71.0282
6.62952 64.2769
6.8083 60.0309
6.98711 57.6131
7.16591 56.3833
7.34475 56.1299
7.5236 56.782
7.70247 58.0464
7.88135 60.2448
8.06026 65.8124
8.23919 73.2126
8.41812 91.2695
8.59709 1053.64
8.77609 111.755
8.9551 91.1748
9.13412 87.4951
9.31318 88.2781
9.49226 90.1334
9.67134 95.9262
9.85047 106.771
10.0296 526.246
10.2088 575.532
10.388 115.125
10.5672 435.671
10.7465 92.8889
10.9257 81.0816
11.105 75.0924
11.2844 70.9052
11.4637 68.019
11.6431 66.5841
11.8225 65.3885
12.002 68.7649
12.1814 138.725
12.3609 70.8758
12.5405 67.4526
12.72 69.9742
12.8996 74.7992
13.0792 86.3645
13.2589 226.493
13.4386 151.775
13.6183 223.366
13.7981 114.152
13.9779 80.335
14.1577 75.7618
14.3376 73.4337
14.5175 72.8461
14.6974 74.5758
14.8774 119.697
15.0574 176.43
15.2374 72.5952
15.4175 70.1919
15.5976 70.1128
15.7778 103.654
15.958 178.667
16.1382 64.161
16.3185 60.2397
16.4988 58.1314
16.6792 57.2619
16.8596 57.4084
17.04 59.4322
17.2205 69.0142
17.401 78.0067
17.5815 62.3752
17.7622 64.9812
17.9428 83.0643
18.1237 137.648
18.3044 90.1611
18.4852 84.7703
18.666 63.7065
18.8469 61.1993
19.0278 59.7998
19.2088 63.2286
19.3898 76.2042
19.5709 57.2053
19.752 56.2549
19.9332 59.7413
20.1144 72.3753
20.2957 64.4166
20.477 57.1332
20.6586 52.1902
20.84 51.4153
21.0215 51.1538
21.203 52.6521
21.3846 51.8203
21.5662 52.0146
21.7479 55.7434
21.9297 66.6644
22.1115 57.7255
22.2933 52.695
22.4753 51.1346
22.6572 52.0445
22.8393 54.4082
23.0214 60.1025
23.2037 51.5586
23.3859 52.9749
23.5682 57.5021
23.7505 51.6387
23.9329 47.5111
24.1154 46.2689
24.2979 45.6673
24.4805 44.96
24.6631 45.0412
24.8458 44.4493
25.0286 45.1891
25.2114 46.4996
25.3943 46.6573
25.5773 42.9978
25.7605 42.6691
25.9436 42.792
26.1268 43.6972
26.31 42.3489
26.4933 42.7966
26.6767 44.0514
26.8601 42.4385
27.0437 40.8311
27.2272 40.489
27.4109 40.2609
27.5946 40.5259
27.7784 39.9029
27.9623 39.9428
28.1462 40.7022
28.3304 39.0817
28.5145 37.7308
28.6987 37.2485
28.8829 37.0982
29.0673 36.4046
29.2517 36.0885
29.4361 35.7647
29.6207 34.8042
29.8053 34.5237
29.99 34.2362
30.1748 33.918
30.3597 33.9394
30.5447 33.6647
30.7297 33.8442
30.915 33.2059
31.1002 32.6203
31.2855 32.3481
31.4708 32.2964
31.6563 31.8872
31.8418 31.6071
32.0275 31.3996
32.2132 30.7916
32.399 30.4008
32.5848 29.9007
32.7708 29.5534
32.9569 29.3745
33.143 29.0094
33.3293 28.7295
33.5158 28.3008
33.7022 27.8301
33.8887 27.668
34.0753 27.2447
34.262 26.8523
34.4488 26.5239
34.6357 26.1141
34.8227 25.9174
35.0098 25.6587
35.1969 25.4192
35.3842 25.1209
35.5716 24.8674
35.759 24.5233
35.9468 24.2373
36.1345 24.0183
36.3222 23.7467
36.5101 23.5167
36.6981 23.2006
36.8861 22.8569
37.0743 22.5265
37.2626 22.3286
37.451 21.9824
37.6395 21.747
37.8281 21.4347
38.0168 21.1203
38.2056 20.8963
38.3945 20.6294
38.5837 20.388
38.7728 20.121
38.9621 19.9268
39.1514 19.5407
39.3409 19.3457
39.5304 19.1035
39.7201 18.8953
39.9099 18.6594
40.0999 18.3813
40.2899 18.1532
40.48 17.9655
40.6703 17.7212
40.8607 17.5151
41.0512 17.3551
41.242 17.084
41.4327 16.7702
41.6236 16.6048
41.8146 16.4453
42.0057 16.1539
42.1969 15.9335
42.3882 15.7128
42.5797 15.4805
42.7713 15.3108
42.963 15.0893
43.1549 14.912
43.3468 14.6762
43.5389 14.4559
43.7312 14.2657
43.9237 14.0973
44.1162 13.8856
44.3088 13.7119
44.5016 13.5004
44.6945 13.324
44.8875 13.143
45.0806 12.9569
45.2739 12.7788
45.4673 12.62
45.6609 12.4111
45.8546 12.2447
46.0484 12.0676
46.2424 11.8731
46.4365 11.7661
46.631 11.5403
46.8254 11.3424
47.0199 11.1884
47.2146 11.0573
47.4095 10.8368
47.6044 10.683
47.7996 10.5326
47.9948 10.383
48.1902 10.2206
48.3858 10.0736
48.5815 9.96899
48.7774 9.836
48.9734 9.67956
49.1696 9.49545
49.3661 9.33818
49.5626 9.20807
49.7592 9.08634
49.956 8.95128
50.153 8.83204
50.3501 8.70787
50.5474 8.52883
50.7448 8.4432
50.9424 8.31023
51.1402 8.14962
51.3381 7.99658
51.5362 7.87619
51.7344 7.78168
51.9328 7.65819
52.1316 7.52237
52.3304 7.37548
52.5293 7.2449
52.7284 7.14539
52.9276 6.99765
53.1271 6.93643
53.3267 6.83113
53.5265 6.67426
53.7264 6.55152
53.9266 6.43448
54.1269 6.31042
54.3274 6.17901
54.528 6.03446
54.7289 5.84578
54.9301 5.7206
55.1314 5.54218
55.3328 5.32589
55.5344 5.09328
55.7361 4.96958