File: XRD/Ni3Fe_FD0470.xy
TT I
1.27165 7.51974
1.45013 6.16202
1.62863 5.87729
1.80712 5.07137
1.98562 4.32094
2.16411 4.80048
2.34263 4.98135
2.52115 6.72212
2.69965 7.2109
2.87818 8.47839
3.05672 11.3787
3.23527 15.4783
3.4138 18.9588
3.59237 23.0327
3.77094 26.0834
3.9495 29.987
4.12809 34.5203
4.30669 123.83
4.4853 56.4625
4.6639 56.2525
4.84253 68.6891
5.02118 90.2032
5.19981 530.527
5.37848 205.205
5.55716 104.381
5.73586 95.2175
5.91455 98.8569
6.09328 4298.76
6.27201 83.5086
6.45075 68.9342
6.62952 63.539
6.8083 59.2087
6.98711 56.2943
7.16591 55.9938
7.34475 72.4247
7.5236 55.2673
7.70247 57.143
7.88135 58.4392
8.06026 63.3374
8.23919 70.9357
8.41812 86.4948
8.59709 1239.56
8.77609 101.805
8.9551 90.5096
9.13412 83.5224
9.31318 84.9844
9.49226 86.1746
9.67134 96.4951
9.85047 102.559
10.0296 410.673
10.2088 406.868
10.388 108.386
10.5672 498.536
10.7465 87.9823
10.9257 78.7605
11.105 72.4736
11.2844 69.5227
11.4637 65.7882
11.6431 64.3468
11.8225 63.526
12.002 65.663
12.1814 156.277
12.3609 68.8503
12.5405 65.6283
12.72 69.4368
12.8996 72.4884
13.0792 81.7776
13.2589 251.693
13.4386 124.981
13.6183 253.974
13.7981 98.1835
13.9779 77.1289
14.1577 73.4198
14.3376 71.8612
14.5175 69.944
14.6974 71.9517
14.8774 118.181
15.0574 147.554
15.2374 71.031
15.4175 67.5398
15.5976 67.0552
15.7778 101.135
15.958 155.444
16.1382 62.5945
16.3185 58.9877
16.4988 56.2097
16.6792 55.3689
16.8596 55.8507
17.04 57.1877
17.2205 68.7439
17.401 71.765
17.5815 60.4101
17.7622 62.5925
17.9428 77.1033
18.1237 140.267
18.3044 91.9455
18.4852 78.2956
18.666 61.3397
18.8469 59.1469
19.0278 57.8734
19.2088 60.7795
19.3898 76.5788
19.5709 55.0565
19.752 54.1232
19.9332 57.5166
20.1144 70.4655
20.2957 64.2526
20.477 54.0943
20.6586 50.5186
20.84 49.5068
21.0215 49.4544
21.203 51.5384
21.3846 49.7424
21.5662 49.8458
21.7479 54.123
21.9297 65.4032
22.1115 56.5524
22.2933 50.5025
22.4753 49.5521
22.6572 50.0611
22.8393 53.1349
23.0214 58.0153
23.2037 49.5316
23.3859 50.8129
23.5682 57.3904
23.7505 49.0098
23.9329 45.8115
24.1154 44.7642
24.2979 44.1738
24.4805 43.5925
24.6631 43.509
24.8458 42.8995
25.0286 43.68
25.2114 45.3487
25.3943 45.1509
25.5773 41.3881
25.7605 41.0745
25.9436 41.4964
26.1268 42.3149
26.31 40.7942
26.4933 41.5068
26.6767 42.8885
26.8601 41.129
27.0437 39.4731
27.2272 39.2826
27.4109 38.9078
27.5946 38.9388
27.7784 38.5616
27.9623 39.0843
28.1462 39.4594
28.3304 37.6594
28.5145 36.5062
28.6987 36.0859
28.8829 36.0108
29.0673 35.2085
29.2517 34.8327
29.4361 34.7352
29.6207 33.6584
29.8053 33.3296
29.99 33.0676
30.1748 32.8217
30.3597 32.8004
30.5447 32.5779
30.7297 32.619
30.915 32.1412
31.1002 31.588
31.2855 31.2963
31.4708 31.3781
31.6563 30.9255
31.8418 30.6342
32.0275 30.3576
32.2132 29.7546
32.399 29.3822
32.5848 28.8386
32.7708 28.5963
32.9569 28.4895
33.143 28.1581
33.3293 27.7266
33.5158 27.4298
33.7022 27.0016
33.8887 26.7061
34.0753 26.3868
34.262 26.0188
34.4488 25.6762
34.6357 25.3632
34.8227 25.074
35.0098 24.8306
35.1969 24.5369
35.3842 24.371
35.5716 24.1876
35.759 23.808
35.9468 23.4977
36.1345 23.3088
36.3222 22.9679
36.5101 22.7362
36.6981 22.4252
36.8861 22.1226
37.0743 21.8234
37.2626 21.612
37.451 21.2827
37.6395 21.1871
37.8281 20.8094
38.0168 20.5122
38.2056 20.2667
38.3945 19.9461
38.5837 19.7721
38.7728 19.4399
38.9621 19.2407
39.1514 18.9803
39.3409 18.7255
39.5304 18.4805
39.7201 18.2751
39.9099 18.1352
40.0999 17.8378
40.2899 17.5758
40.48 17.4618
40.6703 17.1921
40.8607 16.9677
41.0512 16.7616
41.242 16.4947
41.4327 16.2863
41.6236 16.0789
41.8146 15.8721
42.0057 15.6613
42.1969 15.4301
42.3882 15.2572
42.5797 15.0071
42.7713 14.8407
42.963 14.6237
43.1549 14.4364
43.3468 14.2084
43.5389 14.0654
43.7312 13.8304
43.9237 13.5937
44.1162 13.4446
44.3088 13.244
44.5016 13.078
44.6945 12.8787
44.8875 12.6958
45.0806 12.5784
45.2739 12.3678
45.4673 12.23
45.6609 12.0313
45.8546 11.838
46.0484 11.6609
46.2424 11.5208
46.4365 11.3538
46.631 11.1669
46.8254 11.0137
47.0199 10.8629
47.2146 10.7439
47.4095 10.5249
47.6044 10.374
47.7996 10.1996
47.9948 10.0574
48.1902 9.91858
48.3858 9.76132
48.5815 9.66294
48.7774 9.54327
48.9734 9.35025
49.1696 9.24986
49.3661 9.07283
49.5626 8.92869
49.7592 8.85837
49.956 8.69307
50.153 8.55992
50.3501 8.42279
50.5474 8.28168
50.7448 8.18226
50.9424 8.04164
51.1402 7.92248
51.3381 7.78262
51.5362 7.67141
51.7344 7.50165
51.9328 7.414
52.1316 7.24192
52.3304 7.15707
52.5293 7.03531
52.7284 6.89786
52.9276 6.79106
53.1271 6.70494
53.3267 6.56627
53.5265 6.51769
53.7264 6.34019
53.9266 6.26313
54.1269 6.13435
54.3274 5.99652
54.528 5.89108
54.7289 5.71323
54.9301 5.55221
55.1314 5.40823
55.3328 5.22719
55.5344 4.99655
55.7361 4.89255