File: XRD/Ni3Fe_FD0615.xy
TT I
1.27165 7.89802
1.45013 6.0831
1.62863 5.36918
1.80712 4.98492
1.98562 4.34578
2.16411 4.63291
2.34263 4.84717
2.52115 7.02185
2.69965 8.49481
2.87818 8.35948
3.05672 11.0959
3.23527 14.7085
3.4138 18.7124
3.59237 24.1661
3.77094 26.0668
3.9495 29.9843
4.12809 35.2767
4.30669 198.763
4.4853 63.8318
4.6639 55.8468
4.84253 67.5049
5.02118 87.7502
5.19981 357.268
5.37848 195.2
5.55716 103.061
5.73586 92.9773
5.91455 95.1919
6.09328 4395.23
6.27201 84.0313
6.45075 67.5032
6.62952 63.0497
6.8083 58.7385
6.98711 56.3575
7.16591 55.5996
7.34475 87.9018
7.5236 55.0186
7.70247 56.4558
7.88135 58.6123
8.06026 62.6847
8.23919 69.9552
8.41812 85.6776
8.59709 1205.62
8.77609 100.464
8.9551 91.584
9.13412 82.7708
9.31318 83.108
9.49226 85.3961
9.67134 98.7716
9.85047 100.544
10.0296 345.035
10.2088 413.494
10.388 105.216
10.5672 504.285
10.7465 87.7107
10.9257 78.7151
11.105 72.4676
11.2844 70.614
11.4637 65.18
11.6431 63.7981
11.8225 63.1414
12.002 63.9814
12.1814 153.862
12.3609 70.6145
12.5405 64.8771
12.72 70.0149
12.8996 71.3094
13.0792 79.2867
13.2589 242.122
13.4386 128.582
13.6183 249.66
13.7981 99.9067
13.9779 76.4123
14.1577 72.7088
14.3376 72.1228
14.5175 69.1135
14.6974 70.8591
14.8774 112.657
15.0574 151.825
15.2374 71.3262
15.4175 66.8699
15.5976 66.0476
15.7778 96.0188
15.958 155.768
16.1382 63.0669
16.3185 59.3314
16.4988 55.7137
16.6792 54.8917
16.8596 55.4559
17.04 56.3945
17.2205 67.3561
17.401 72.4037
17.5815 59.6875
17.7622 61.81
17.9428 74.3359
18.1237 138.781
18.3044 91.6189
18.4852 78.6693
18.666 60.6704
18.8469 58.5598
19.0278 57.3511
19.2088 60.0098
19.3898 76.155
19.5709 54.7499
19.752 53.7209
19.9332 56.7527
20.1144 69.7256
20.2957 64.2259
20.477 54.229
20.6586 49.9564
20.84 49.08
21.0215 48.7964
21.203 51.2206
21.3846 49.067
21.5662 48.9708
21.7479 53.0582
21.9297 64.525
22.1115 56.3546
22.2933 50.1899
22.4753 49.2291
22.6572 49.0197
22.8393 52.3799
23.0214 57.5984
23.2037 48.9962
23.3859 50.0526
23.5682 57.1271
23.7505 48.804
23.9329 45.4637
24.1154 44.2911
24.2979 43.6835
24.4805 43.1028
24.6631 42.901
24.8458 42.4012
25.0286 43.2755
25.2114 44.9514
25.3943 44.7331
25.5773 41.1813
25.7605 40.7134
25.9436 41.1018
26.1268 41.7574
26.31 40.4089
26.4933 41.0055
26.6767 42.3085
26.8601 40.6021
27.0437 39.2391
27.2272 38.7649
27.4109 38.51
27.5946 38.6086
27.7784 38.0706
27.9623 38.6854
28.1462 39.0197
28.3304 37.4463
28.5145 36.1895
28.6987 35.8001
28.8829 35.5665
29.0673 34.8017
29.2517 34.5228
29.4361 34.405
29.6207 33.3618
29.8053 33.0811
29.99 32.8877
30.1748 32.5959
30.3597 32.4563
30.5447 32.322
30.7297 32.4076
30.915 31.7801
31.1002 31.2933
31.2855 31.1103
31.4708 30.9538
31.6563 30.6217
31.8418 30.2511
32.0275 30.105
32.2132 29.573
32.399 29.0755
32.5848 28.6036
32.7708 28.4216
32.9569 28.2466
33.143 27.9411
33.3293 27.611
33.5158 27.14
33.7022 26.705
33.8887 26.4837
34.0753 26.124
34.262 25.8395
34.4488 25.4693
34.6357 25.1904
34.8227 24.8058
35.0098 24.6592
35.1969 24.3271
35.3842 24.187
35.5716 24.0144
35.759 23.616
35.9468 23.2122
36.1345 23.0195
36.3222 22.8068
36.5101 22.5963
36.6981 22.267
36.8861 21.9616
37.0743 21.6614
37.2626 21.4252
37.451 21.1705
37.6395 20.9671
37.8281 20.6207
38.0168 20.3378
38.2056 20.0741
38.3945 19.8315
38.5837 19.653
38.7728 19.3136
38.9621 19.1334
39.1514 18.8282
39.3409 18.66
39.5304 18.3466
39.7201 18.1686
39.9099 17.9617
40.0999 17.7191
40.2899 17.4715
40.48 17.2878
40.6703 17.0294
40.8607 16.8079
41.0512 16.6396
41.242 16.3765
41.4327 16.2082
41.6236 16.0181
41.8146 15.7319
42.0057 15.5304
42.1969 15.2568
42.3882 15.1207
42.5797 14.8859
42.7713 14.74
42.963 14.5133
43.1549 14.3638
43.3468 14.0963
43.5389 13.9045
43.7312 13.757
43.9237 13.4822
44.1162 13.3381
44.3088 13.1747
44.5016 12.985
44.6945 12.8196
44.8875 12.643
45.0806 12.425
45.2739 12.2659
45.4673 12.1037
45.6609 11.9381
45.8546 11.7863
46.0484 11.6046
46.2424 11.4494
46.4365 11.2923
46.631 11.0903
46.8254 10.9278
47.0199 10.7732
47.2146 10.6239
47.4095 10.4514
47.6044 10.2943
47.7996 10.1754
47.9948 10.0126
48.1902 9.85471
48.3858 9.72288
48.5815 9.59137
48.7774 9.46279
48.9734 9.31694
49.1696 9.14301
49.3661 9.01298
49.5626 8.85958
49.7592 8.77442
49.956 8.62633
50.153 8.50688
50.3501 8.36446
50.5474 8.18789
50.7448 8.10895
50.9424 7.98803
51.1402 7.86779
51.3381 7.70088
51.5362 7.62854
51.7344 7.47419
51.9328 7.35423
52.1316 7.20366
52.3304 7.0943
52.5293 6.97793
52.7284 6.91383
52.9276 6.75904
53.1271 6.66464
53.3267 6.52082
53.5265 6.4078
53.7264 6.3499
53.9266 6.19342
54.1269 6.13081
54.3274 5.98533
54.528 5.8692
54.7289 5.67972
54.9301 5.53289
55.1314 5.38094
55.3328 5.13432
55.5344 5.00282
55.7361 4.81402