File: XRD/Ni3Fe_FD0621.xy
TT I
1.27165 7.33171
1.45013 5.52188
1.62863 5.77268
1.80712 5.07949
1.98562 4.86076
2.16411 4.54333
2.34263 5.0732
2.52115 6.96475
2.69965 7.73659
2.87818 8.45805
3.05672 10.8136
3.23527 14.8617
3.4138 19.323
3.59237 23.8469
3.77094 25.8475
3.9495 29.4968
4.12809 34.9037
4.30669 214.304
4.4853 65.5885
4.6639 55.8308
4.84253 67.3402
5.02118 87.0817
5.19981 349.896
5.37848 194.414
5.55716 102.961
5.73586 92.6194
5.91455 94.3795
6.09328 4389.89
6.27201 83.9941
6.45075 67.4972
6.62952 63.1126
6.8083 59.121
6.98711 56.0373
7.16591 55.5716
7.34475 91.8122
7.5236 55.1185
7.70247 56.2417
7.88135 58.2713
8.06026 62.6792
8.23919 69.7595
8.41812 85.7836
8.59709 1177.21
8.77609 100.374
8.9551 91.5058
9.13412 82.0135
9.31318 82.8217
9.49226 84.785
9.67134 99.0332
9.85047 99.9878
10.0296 339.869
10.2088 424.427
10.388 104.947
10.5672 503.172
10.7465 87.4883
10.9257 78.8543
11.105 72.2124
11.2844 70.565
11.4637 65.2135
11.6431 64.126
11.8225 62.7598
12.002 63.8908
12.1814 152.996
12.3609 71.352
12.5405 64.6701
12.72 70.5201
12.8996 71.1178
13.0792 78.7545
13.2589 237.66
13.4386 128.883
13.6183 248.035
13.7981 100.229
13.9779 76.5305
14.1577 72.8755
14.3376 71.8059
14.5175 69.1823
14.6974 70.6568
14.8774 110.811
15.0574 152.13
15.2374 71.3649
15.4175 66.6811
15.5976 66.0388
15.7778 94.9362
15.958 156.452
16.1382 63.157
16.3185 59.1598
16.4988 56.0551
16.6792 54.8119
16.8596 55.4064
17.04 55.9401
17.2205 67.046
17.401 72.9294
17.5815 59.3714
17.7622 61.6383
17.9428 73.8266
18.1237 138.633
18.3044 90.72
18.4852 78.7746
18.666 60.8599
18.8469 58.3501
19.0278 57.2637
19.2088 59.8769
19.3898 76.5862
19.5709 54.4836
19.752 53.3539
19.9332 56.6261
20.1144 69.7774
20.2957 64.0911
20.477 54.1457
20.6586 50.0084
20.84 49.0439
21.0215 48.623
21.203 50.9409
21.3846 49.3239
21.5662 49.078
21.7479 52.7113
21.9297 64.6664
22.1115 56.2809
22.2933 50.1177
22.4753 49.1761
22.6572 48.8468
22.8393 52.0236
23.0214 57.428
23.2037 49.256
23.3859 49.9167
23.5682 56.9195
23.7505 48.6963
23.9329 45.5007
24.1154 44.3195
24.2979 43.7129
24.4805 43.1241
24.6631 43.0222
24.8458 42.4774
25.0286 43.0441
25.2114 44.7286
25.3943 44.8202
25.5773 41.0991
25.7605 40.54
25.9436 41.3063
26.1268 41.877
26.31 40.2764
26.4933 40.9829
26.6767 42.1923
26.8601 40.6245
27.0437 39.0899
27.2272 38.7044
27.4109 38.6403
27.5946 38.6915
27.7784 38.013
27.9623 38.5768
28.1462 39.1557
28.3304 37.5279
28.5145 36.2063
28.6987 35.7386
28.8829 35.5506
29.0673 34.8861
29.2517 34.5424
29.4361 34.2392
29.6207 33.2934
29.8053 33.1457
29.99 32.7117
30.1748 32.6027
30.3597 32.4739
30.5447 32.2884
30.7297 32.3257
30.915 31.8227
31.1002 31.3357
31.2855 31.0099
31.4708 31.0302
31.6563 30.5622
31.8418 30.349
32.0275 30.0418
32.2132 29.5997
32.399 29.0724
32.5848 28.6983
32.7708 28.2803
32.9569 28.1147
33.143 28.0597
33.3293 27.5425
33.5158 27.2189
33.7022 26.6996
33.8887 26.4948
34.0753 26.1218
34.262 25.8846
34.4488 25.4919
34.6357 25.0742
34.8227 24.8516
35.0098 24.6124
35.1969 24.2897
35.3842 24.1125
35.5716 23.8558
35.759 23.5477
35.9468 23.2014
36.1345 23.0513
36.3222 22.7566
36.5101 22.5574
36.6981 22.1824
36.8861 21.9449
37.0743 21.6255
37.2626 21.4229
37.451 21.076
37.6395 20.992
37.8281 20.65
38.0168 20.331
38.2056 20.0428
38.3945 19.7343
38.5837 19.575
38.7728 19.34
38.9621 19.0652
39.1514 18.7942
39.3409 18.5882
39.5304 18.3759
39.7201 18.163
39.9099 17.9642
40.0999 17.641
40.2899 17.4548
40.48 17.1942
40.6703 16.986
40.8607 16.8674
41.0512 16.5325
41.242 16.3737
41.4327 16.1325
41.6236 15.9411
41.8146 15.7595
42.0057 15.509
42.1969 15.2854
42.3882 15.1317
42.5797 14.9013
42.7713 14.7208
42.963 14.5175
43.1549 14.3024
43.3468 14.0496
43.5389 13.8917
43.7312 13.7172
43.9237 13.529
44.1162 13.3248
44.3088 13.1721
44.5016 12.9821
44.6945 12.7949
44.8875 12.5793
45.0806 12.4347
45.2739 12.2572
45.4673 12.0912
45.6609 11.8751
45.8546 11.783
46.0484 11.6199
46.2424 11.4133
46.4365 11.2933
46.631 11.1397
46.8254 10.9265
47.0199 10.7925
47.2146 10.5882
47.4095 10.4591
47.6044 10.2984
47.7996 10.1168
47.9948 9.96866
48.1902 9.8406
48.3858 9.76126
48.5815 9.6074
48.7774 9.42408
48.9734 9.31675
49.1696 9.13956
49.3661 9.01551
49.5626 8.87899
49.7592 8.74937
49.956 8.63458
50.153 8.48311
50.3501 8.31956
50.5474 8.21593
50.7448 8.09432
50.9424 7.96716
51.1402 7.84204
51.3381 7.72539
51.5362 7.59569
51.7344 7.4971
51.9328 7.33565
52.1316 7.2647
52.3304 7.10267
52.5293 6.9611
52.7284 6.91505
52.9276 6.77195
53.1271 6.61141
53.3267 6.52873
53.5265 6.40129
53.7264 6.2754
53.9266 6.22168
54.1269 6.10539
54.3274 6.00864
54.528 5.84205
54.7289 5.65617
54.9301 5.50937
55.1314 5.38356
55.3328 5.17736
55.5344 4.96705
55.7361 4.8742