File: XRD/Ni3Fe_FD0985.xy
TT I
1.27165 7.19225
1.45013 6.05349
1.62863 4.85284
1.80712 5.1148
1.98562 4.2834
2.16411 4.7487
2.34263 5.76785
2.52115 7.51306
2.69965 8.88014
2.87818 8.80309
3.05672 11.213
3.23527 15.2846
3.4138 19.2303
3.59237 24.4834
3.77094 25.8142
3.9495 29.6335
4.12809 34.4738
4.30669 235.338
4.4853 66.7428
4.6639 54.4181
4.84253 65.7302
5.02118 83.9761
5.19981 271.664
5.37848 172.24
5.55716 100.148
5.73586 89.9154
5.91455 89.8065
6.09328 4584.06
6.27201 80.6405
6.45075 66.263
6.62952 61.8384
6.8083 57.8588
6.98711 54.9274
7.16591 54.5978
7.34475 94.276
7.5236 53.9123
7.70247 55.1416
7.88135 56.8092
8.06026 61.3612
8.23919 68.5434
8.41812 83.2256
8.59709 1118.57
8.77609 96.3272
8.9551 90.3996
9.13412 80.5399
9.31318 80.2824
9.49226 82.6644
9.67134 97.4573
9.85047 97.4955
10.0296 291.045
10.2088 366.929
10.388 102.129
10.5672 534.782
10.7465 84.7389
10.9257 77.0919
11.105 70.6198
11.2844 69.2604
11.4637 63.7728
11.6431 62.3268
11.8225 61.2915
12.002 62.0267
12.1814 150.037
12.3609 69.274
12.5405 63.1916
12.72 68.8833
12.8996 69.3985
13.0792 76.8508
13.2589 227.683
13.4386 119.744
13.6183 242.331
13.7981 94.3682
13.9779 74.4005
14.1577 70.8843
14.3376 70.3372
14.5175 67.477
14.6974 68.6611
14.8774 104.181
15.0574 147.078
15.2374 70.0628
15.4175 65.0614
15.5976 64.2747
15.7778 89.2709
15.958 152.257
16.1382 61.6643
16.3185 57.8782
16.4988 54.3065
16.6792 53.1987
16.8596 53.9791
17.04 54.3898
17.2205 64.7387
17.401 68.6314
17.5815 57.7128
17.7622 59.7949
17.9428 70.4268
18.1237 138.21
18.3044 88.8335
18.4852 75.4188
18.666 59.2951
18.8469 56.9567
19.0278 55.772
19.2088 57.9157
19.3898 75.6808
19.5709 53.004
19.752 52.2737
19.9332 54.7621
20.1144 68.7755
20.2957 63.1364
20.477 52.4547
20.6586 48.8192
20.84 47.8218
21.0215 47.5907
21.203 50.1006
21.3846 47.7607
21.5662 47.6344
21.7479 51.1518
21.9297 63.4927
22.1115 55.2086
22.2933 48.9237
22.4753 47.907
22.6572 47.4976
22.8393 50.6305
23.0214 56.3258
23.2037 47.6166
23.3859 48.4733
23.5682 56.5611
23.7505 47.2648
23.9329 44.323
24.1154 43.3022
24.2979 42.503
24.4805 42.0599
24.6631 41.9143
24.8458 41.3913
25.0286 41.888
25.2114 43.6526
25.3943 43.7119
25.5773 40.1013
25.7605 39.7388
25.9436 39.953
26.1268 41.0101
26.31 39.3214
26.4933 39.927
26.6767 41.4756
26.8601 39.6905
27.0437 38.1329
27.2272 37.7696
27.4109 37.7114
27.5946 37.6286
27.7784 37.1172
27.9623 37.7514
28.1462 38.1861
28.3304 36.4927
28.5145 35.3316
28.6987 34.8668
28.8829 34.8682
29.0673 34.077
29.2517 33.809
29.4361 33.4024
29.6207 32.5294
29.8053 32.3333
29.99 31.9596
30.1748 31.8464
30.3597 31.6631
30.5447 31.5633
30.7297 31.6813
30.915 30.9779
31.1002 30.4775
31.2855 30.3256
31.4708 30.2188
31.6563 29.7927
31.8418 29.5485
32.0275 29.4557
32.2132 28.8263
32.399 28.3436
32.5848 27.9642
32.7708 27.6778
32.9569 27.4693
33.143 27.2591
33.3293 26.8437
33.5158 26.494
33.7022 26.098
33.8887 25.8018
34.0753 25.5021
34.262 25.1869
34.4488 24.8147
34.6357 24.488
34.8227 24.218
35.0098 24.0116
35.1969 23.7186
35.3842 23.5255
35.5716 23.3317
35.759 22.9877
35.9468 22.6602
36.1345 22.4692
36.3222 22.2448
36.5101 21.9719
36.6981 21.6763
36.8861 21.4014
37.0743 21.0908
37.2626 20.9036
37.451 20.6066
37.6395 20.4348
37.8281 20.1466
38.0168 19.8466
38.2056 19.6434
38.3945 19.3595
38.5837 19.1041
38.7728 18.8144
38.9621 18.5689
39.1514 18.3496
39.3409 18.1162
39.5304 17.9087
39.7201 17.725
39.9099 17.4775
40.0999 17.2751
40.2899 17.0504
40.48 16.8106
40.6703 16.5843
40.8607 16.4062
41.0512 16.1825
41.242 15.9554
41.4327 15.7784
41.6236 15.5724
41.8146 15.3293
42.0057 15.0861
42.1969 14.995
42.3882 14.711
42.5797 14.5363
42.7713 14.3901
42.963 14.1958
43.1549 14.0232
43.3468 13.6982
43.5389 13.5755
43.7312 13.3769
43.9237 13.1975
44.1162 13.0337
44.3088 12.8523
44.5016 12.6739
44.6945 12.491
44.8875 12.2952
45.0806 12.1403
45.2739 11.9742
45.4673 11.8486
45.6609 11.6401
45.8546 11.4973
46.0484 11.3084
46.2424 11.1855
46.4365 11.0414
46.631 10.8511
46.8254 10.6807
47.0199 10.5192
47.2146 10.427
47.4095 10.2025
47.6044 10.0563
47.7996 9.89858
47.9948 9.76962
48.1902 9.64248
48.3858 9.50006
48.5815 9.37703
48.7774 9.23184
48.9734 9.07029
49.1696 8.95381
49.3661 8.80568
49.5626 8.66721
49.7592 8.53299
49.956 8.4196
50.153 8.2779
50.3501 8.124
50.5474 8.02004
50.7448 7.92462
50.9424 7.77726
51.1402 7.68376
51.3381 7.53007
51.5362 7.44757
51.7344 7.28689
51.9328 7.14975
52.1316 7.041
52.3304 6.99546
52.5293 6.82442
52.7284 6.70809
52.9276 6.60448
53.1271 6.52981
53.3267 6.34717
53.5265 6.28301
53.7264 6.18864
53.9266 6.08056
54.1269 5.96918
54.3274 5.86502
54.528 5.74115
54.7289 5.52252
54.9301 5.36092
55.1314 5.27611
55.3328 5.0387
55.5344 4.89358
55.7361 4.72681