File: XRD/Ni3Fe_FD0937.xy
TT I
1.27165 7.15601
1.45013 6.11232
1.62863 4.84673
1.80712 4.69995
1.98562 4.2954
2.16411 4.10068
2.34263 5.59353
2.52115 7.24088
2.69965 8.98918
2.87818 9.21915
3.05672 11.2456
3.23527 15.166
3.4138 18.8942
3.59237 23.0097
3.77094 25.707
3.9495 29.3824
4.12809 34.0054
4.30669 89.2096
4.4853 52.2255
4.6639 54.3512
4.84253 68.3003
5.02118 86.0604
5.19981 372.38
5.37848 196.711
5.55716 101.131
5.73586 92.2159
5.91455 94.4071
6.09328 4692.49
6.27201 78.6207
6.45075 70.0977
6.62952 62.5501
6.8083 59.4172
6.98711 55.0245
7.16591 56.2974
7.34475 64.075
7.5236 53.5431
7.70247 56.3217
7.88135 56.6532
8.06026 62.202
8.23919 68.5703
8.41812 82.3232
8.59709 1208.03
8.77609 95.5638
8.9551 88.9453
9.13412 82.0653
9.31318 84.5475
9.49226 83.2375
9.67134 94.6367
9.85047 100.679
10.0296 330.373
10.2088 323.295
10.388 103.414
10.5672 550.838
10.7465 84.7801
10.9257 76.8758
11.105 70.4998
11.2844 67.2135
11.4637 63.8657
11.6431 62.4648
11.8225 61.8915
12.002 63.4073
12.1814 159.541
12.3609 65.314
12.5405 64.1515
12.72 66.7627
12.8996 70.7741
13.0792 79.5217
13.2589 246.834
13.4386 113.8
13.6183 260.049
13.7981 91.5066
13.9779 74.5367
14.1577 70.6825
14.3376 69.0651
14.5175 68.0488
14.6974 69.595
14.8774 110.783
15.0574 135.59
15.2374 68.3637
15.4175 65.3006
15.5976 64.6681
15.7778 94.1703
15.958 144.01
16.1382 60.1564
16.3185 56.9174
16.4988 54.4009
16.6792 53.5239
16.8596 53.9978
17.04 55.05
17.2205 66.207
17.401 67.5831
17.5815 58.4228
17.7622 60.3608
17.9428 72.4076
18.1237 140.597
18.3044 90.7762
18.4852 72.624
18.666 59.1985
18.8469 57.0271
19.0278 55.7814
19.2088 58.4239
19.3898 74.7578
19.5709 53.2108
19.752 52.2732
19.9332 55.214
20.1144 69.5359
20.2957 64.1406
20.477 51.8083
20.6586 48.7516
20.84 47.8859
21.0215 47.6341
21.203 50.0376
21.3846 48.0899
21.5662 48.1246
21.7479 51.948
21.9297 64.0344
22.1115 55.3787
22.2933 48.6009
22.4753 47.87
22.6572 48.1584
22.8393 51.2513
23.0214 56.0536
23.2037 48.0441
23.3859 48.9192
23.5682 56.976
23.7505 47.0548
23.9329 44.5893
24.1154 43.4484
24.2979 42.6002
24.4805 42.2678
24.6631 42.0242
24.8458 41.5198
25.0286 42.1199
25.2114 43.8168
25.3943 43.7031
25.5773 40.1
25.7605 39.7469
25.9436 40.1501
26.1268 41.2142
26.31 39.4908
26.4933 40.097
26.6767 41.5984
26.8601 39.7477
27.0437 38.1728
27.2272 37.8209
27.4109 37.7968
27.5946 37.7386
27.7784 37.2403
27.9623 37.8842
28.1462 38.0647
28.3304 36.475
28.5145 35.4147
28.6987 34.9982
28.8829 34.7765
29.0673 34.0332
29.2517 33.8309
29.4361 33.5451
29.6207 32.5141
29.8053 32.3544
29.99 32.1445
30.1748 31.9149
30.3597 31.7808
30.5447 31.5774
30.7297 31.7464
30.915 30.9642
31.1002 30.5421
31.2855 30.4045
31.4708 30.4031
31.6563 29.8651
31.8418 29.731
32.0275 29.3929
32.2132 28.8768
32.399 28.3911
32.5848 28.0565
32.7708 27.7377
32.9569 27.5231
33.143 27.3459
33.3293 26.9686
33.5158 26.5158
33.7022 26.0755
33.8887 25.8891
34.0753 25.5635
34.262 25.2166
34.4488 24.7585
34.6357 24.5481
34.8227 24.2816
35.0098 24.1234
35.1969 23.7622
35.3842 23.6285
35.5716 23.3231
35.759 23.0272
35.9468 22.7783
36.1345 22.488
36.3222 22.2894
36.5101 22.0507
36.6981 21.7787
36.8861 21.4473
37.0743 21.1044
37.2626 20.9291
37.451 20.6087
37.6395 20.4477
37.8281 20.1424
38.0168 19.917
38.2056 19.5891
38.3945 19.3055
38.5837 19.0872
38.7728 18.9478
38.9621 18.6096
39.1514 18.3343
39.3409 18.15
39.5304 17.8866
39.7201 17.7029
39.9099 17.5362
40.0999 17.3028
40.2899 17.0479
40.48 16.866
40.6703 16.6722
40.8607 16.4507
41.0512 16.275
41.242 15.9395
41.4327 15.7789
41.6236 15.5661
41.8146 15.3867
42.0057 15.1994
42.1969 14.9485
42.3882 14.7871
42.5797 14.5325
42.7713 14.3544
42.963 14.1694
43.1549 13.9955
43.3468 13.7626
43.5389 13.5824
43.7312 13.3645
43.9237 13.2497
44.1162 13.008
44.3088 12.8629
44.5016 12.7266
44.6945 12.527
44.8875 12.345
45.0806 12.1087
45.2739 11.9946
45.4673 11.8339
45.6609 11.6302
45.8546 11.4721
46.0484 11.335
46.2424 11.1641
46.4365 11.0204
46.631 10.8159
46.8254 10.6507
47.0199 10.5773
47.2146 10.3895
47.4095 10.2152
47.6044 10.0333
47.7996 9.89899
47.9948 9.76324
48.1902 9.61586
48.3858 9.48478
48.5815 9.35123
48.7774 9.23422
48.9734 9.08229
49.1696 8.96523
49.3661 8.79017
49.5626 8.66756
49.7592 8.52002
49.956 8.41283
50.153 8.28644
50.3501 8.13629
50.5474 8.0044
50.7448 7.9084
50.9424 7.79153
51.1402 7.65781
51.3381 7.4994
51.5362 7.43266
51.7344 7.31044
51.9328 7.15456
52.1316 7.03191
52.3304 6.95768
52.5293 6.85562
52.7284 6.70003
52.9276 6.59986
53.1271 6.4773
53.3267 6.34988
53.5265 6.30687
53.7264 6.14412
53.9266 6.01291
54.1269 5.95645
54.3274 5.84675
54.528 5.70869
54.7289 5.53544
54.9301 5.39785
55.1314 5.23485
55.3328 5.02969
55.5344 4.87636
55.7361 4.74371