File: XRD/Ni3Fe_FD0345.xy
TT I
1.27165 7.82737
1.45013 6.54365
1.62863 5.21149
1.80712 4.96552
1.98562 4.49159
2.16411 4.81482
2.34263 5.6019
2.52115 6.10579
2.69965 7.60466
2.87818 8.28065
3.05672 11.5953
3.23527 15.1367
3.4138 18.9901
3.59237 23.564
3.77094 26.3137
3.9495 29.802
4.12809 34.9286
4.30669 138.439
4.4853 58.3321
4.6639 57.1514
4.84253 69.397
5.02118 91.7492
5.19981 594.155
5.37848 226.447
5.55716 106.614
5.73586 96.3915
5.91455 101.949
6.09328 4027.11
6.27201 85.865
6.45075 69.3335
6.62952 64.0627
6.8083 59.7825
6.98711 57.152
7.16591 56.4611
7.34475 76.4617
7.5236 55.8925
7.70247 57.3426
7.88135 59.4418
8.06026 63.8165
8.23919 71.6399
8.41812 88.5195
8.59709 1177.63
8.77609 104.329
8.9551 91.9992
9.13412 84.8285
9.31318 85.7112
9.49226 87.0824
9.67134 97.7592
9.85047 103.514
10.0296 438.652
10.2088 476.84
10.388 109.713
10.5672 486.595
10.7465 89.5446
10.9257 80.0164
11.105 73.642
11.2844 70.8944
11.4637 66.7138
11.6431 65.2217
11.8225 64.112
12.002 66.3228
12.1814 150.688
12.3609 70.4624
12.5405 66.341
12.72 70.6605
12.8996 73.3218
13.0792 82.6404
13.2589 246.969
13.4386 133.026
13.6183 244.017
13.7981 102.166
13.9779 78.2157
14.1577 74.0636
14.3376 72.6658
14.5175 71.1714
14.6974 72.9565
14.8774 119.587
15.0574 154.606
15.2374 72.0743
15.4175 68.6144
15.5976 67.9646
15.7778 102.75
15.958 163.807
16.1382 63.5556
16.3185 59.6744
16.4988 57.0714
16.6792 56.2765
16.8596 56.4388
17.04 58.0039
17.2205 69.1291
17.401 73.556
17.5815 61.0412
17.7622 63.4271
17.9428 78.9589
18.1237 139.975
18.3044 91.8922
18.4852 79.9536
18.666 62.2154
18.8469 59.8551
19.0278 58.6361
19.2088 61.8989
19.3898 76.673
19.5709 55.5279
19.752 54.9913
19.9332 58.5672
20.1144 71.2673
20.2957 64.53
20.477 55.2035
20.6586 51.1604
20.84 50.2608
21.0215 50.1945
21.203 51.9581
21.3846 50.4927
21.5662 50.5457
21.7479 54.669
21.9297 66.1082
22.1115 57.0018
22.2933 51.2738
22.4753 50.1903
22.6572 50.6661
22.8393 53.8781
23.0214 58.9111
23.2037 50.3253
23.3859 51.6196
23.5682 57.5094
23.7505 49.8018
23.9329 46.4616
24.1154 45.4955
24.2979 44.7688
24.4805 44.1447
24.6631 44.108
24.8458 43.4498
25.0286 44.2908
25.2114 45.9618
25.3943 45.9144
25.5773 42.1871
25.7605 41.5846
25.9436 42.0288
26.1268 42.8679
26.31 41.3298
26.4933 41.9859
26.6767 43.3094
26.8601 41.5994
27.0437 39.9419
27.2272 39.814
27.4109 39.5179
27.5946 39.4834
27.7784 38.9277
27.9623 39.4225
28.1462 39.8291
28.3304 38.156
28.5145 36.9486
28.6987 36.6412
28.8829 36.3807
29.0673 35.6794
29.2517 35.2699
29.4361 35.0693
29.6207 34.1614
29.8053 33.8295
29.99 33.4502
30.1748 33.3027
30.3597 33.2474
30.5447 33.1554
30.7297 33.1195
30.915 32.4104
31.1002 32.0437
31.2855 31.6687
31.4708 31.6952
31.6563 31.2554
31.8418 30.9684
32.0275 30.7691
32.2132 30.277
32.399 29.7594
32.5848 29.297
32.7708 28.9569
32.9569 28.8066
33.143 28.6217
33.3293 28.1975
33.5158 27.7862
33.7022 27.4028
33.8887 27.0764
34.0753 26.6892
34.262 26.378
34.4488 26.0547
34.6357 25.6607
34.8227 25.3456
35.0098 25.2375
35.1969 24.8933
35.3842 24.6799
35.5716 24.4059
35.759 24.1291
35.9468 23.7881
36.1345 23.5021
36.3222 23.2706
36.5101 23.0265
36.6981 22.7661
36.8861 22.4791
37.0743 22.1049
37.2626 21.8896
37.451 21.5369
37.6395 21.4389
37.8281 21.046
38.0168 20.7468
38.2056 20.5341
38.3945 20.2276
38.5837 19.9466
38.7728 19.7857
38.9621 19.4929
39.1514 19.245
39.3409 18.9944
39.5304 18.7423
39.7201 18.5373
39.9099 18.3216
40.0999 18.0447
40.2899 17.8698
40.48 17.5863
40.6703 17.3568
40.8607 17.1811
41.0512 16.9694
41.242 16.6891
41.4327 16.5263
41.6236 16.3022
41.8146 16.0705
42.0057 15.8767
42.1969 15.6541
42.3882 15.4813
42.5797 15.2296
42.7713 15.0675
42.963 14.7688
43.1549 14.5976
43.3468 14.3694
43.5389 14.1385
43.7312 14.0137
43.9237 13.7967
44.1162 13.6403
44.3088 13.4078
44.5016 13.251
44.6945 13.0863
44.8875 12.898
45.0806 12.7332
45.2739 12.512
45.4673 12.3568
45.6609 12.189
45.8546 11.9872
46.0484 11.8019
46.2424 11.6867
46.4365 11.5225
46.631 11.3019
46.8254 11.1761
47.0199 10.9896
47.2146 10.8257
47.4095 10.6767
47.6044 10.5134
47.7996 10.3814
47.9948 10.1902
48.1902 10.0859
48.3858 9.95589
48.5815 9.73088
48.7774 9.64738
48.9734 9.45133
49.1696 9.35859
49.3661 9.1856
49.5626 9.02402
49.7592 8.92898
49.956 8.8199
50.153 8.66262
50.3501 8.50248
50.5474 8.37234
50.7448 8.30658
50.9424 8.14941
51.1402 8.0075
51.3381 7.84205
51.5362 7.7562
51.7344 7.64077
51.9328 7.5124
52.1316 7.37471
52.3304 7.26077
52.5293 7.12366
52.7284 7.03736
52.9276 6.84892
53.1271 6.79094
53.3267 6.64981
53.5265 6.55358
53.7264 6.43393
53.9266 6.3251
54.1269 6.2117
54.3274 6.08633
54.528 5.94779
54.7289 5.82153
54.9301 5.64426
55.1314 5.49019
55.3328 5.25107
55.5344 5.06372
55.7361 4.91758