File: XRD/Ni3Fe_FD0190.xy
TT I
1.27165 7.85139
1.45013 6.45681
1.62863 4.90649
1.80712 5.23241
1.98562 5.01861
2.16411 4.74808
2.34263 4.8006
2.52115 4.2811
2.69965 5.76087
2.87818 8.88867
3.05672 11.4816
3.23527 15.1938
3.4138 18.8012
3.59237 22.4157
3.77094 25.4868
3.9495 29.4855
4.12809 33.6644
4.30669 39.2744
4.4853 46.6345
4.6639 56.3257
4.84253 68.4538
5.02118 93.9367
5.19981 585.944
5.37848 366.356
5.55716 110.214
5.73586 98.3296
5.91455 107.829
6.09328 3065.88
6.27201 89.8001
6.45075 68.5301
6.62952 61.8677
6.8083 57.7813
6.98711 55.4899
7.16591 54.2281
7.34475 53.8321
7.5236 57.3786
7.70247 55.7533
7.88135 58.483
8.06026 62.9284
8.23919 70.4248
8.41812 86.645
8.59709 958.261
8.77609 114.393
8.9551 87.9287
9.13412 84.1637
9.31318 87.6861
9.49226 86.6539
9.67134 91.7704
9.85047 102.523
10.0296 555.31
10.2088 814.617
10.388 107.727
10.5672 368.591
10.7465 91.7997
10.9257 78.2862
11.105 72.4306
11.2844 68.5821
11.4637 65.6946
11.6431 64.1605
11.8225 63.1245
12.002 66.7496
12.1814 126.276
12.3609 72.6673
12.5405 65.1139
12.72 67.4087
12.8996 71.9325
13.0792 81.6798
13.2589 214.627
13.4386 182.674
13.6183 204.852
13.7981 135.129
13.9779 78.2304
14.1577 75.4007
14.3376 70.7899
14.5175 70.5175
14.6974 71.7507
14.8774 122.015
15.0574 193.366
15.2374 70.8856
15.4175 67.956
15.5976 67.525
15.7778 107.793
15.958 182.441
16.1382 62.9848
16.3185 58.8169
16.4988 56.4485
16.6792 55.5689
16.8596 55.7361
17.04 56.8062
17.2205 66.8517
17.401 79.8986
17.5815 60.5015
17.7622 63.0059
17.9428 84.5718
18.1237 122.199
18.3044 88.5187
18.4852 90.708
18.666 62.286
18.8469 59.6193
19.0278 58.1167
19.2088 62.6705
19.3898 71.6883
19.5709 56.6438
19.752 54.6448
19.9332 58.9593
20.1144 69.2451
20.2957 62.1873
20.477 58.0866
20.6586 50.8754
20.84 50.2375
21.0215 50.1587
21.203 51.0285
21.3846 51.1589
21.5662 50.1165
21.7479 54.8599
21.9297 63.7281
22.1115 56.7542
22.2933 52.3259
22.4753 49.9553
22.6572 50.2971
22.8393 53.017
23.0214 58.3482
23.2037 50.378
23.3859 52.4553
23.5682 55.1507
23.7505 52.4569
23.9329 46.5666
24.1154 45.1946
24.2979 44.4767
24.4805 43.9525
24.6631 44.0641
24.8458 43.3455
25.0286 43.9036
25.2114 45.6488
25.3943 45.7165
25.5773 42.2986
25.7605 41.5801
25.9436 41.7405
26.1268 42.5237
26.31 41.4491
26.4933 41.7191
26.6767 42.9679
26.8601 41.7138
27.0437 40.0637
27.2272 39.5261
27.4109 39.2688
27.5946 39.5013
27.7784 39.0835
27.9623 39.294
28.1462 39.8538
28.3304 38.3954
28.5145 36.9814
28.6987 36.5313
28.8829 36.2164
29.0673 35.717
29.2517 35.2037
29.4361 34.9118
29.6207 34.0805
29.8053 33.6738
29.99 33.3345
30.1748 33.1352
30.3597 33.1558
30.5447 32.9083
30.7297 32.9308
30.915 32.5261
31.1002 32.0367
31.2855 31.5737
31.4708 31.5136
31.6563 31.2893
31.8418 30.96
32.0275 30.764
32.2132 30.2417
32.399 29.6692
32.5848 29.2064
32.7708 28.9428
32.9569 28.7734
33.143 28.4736
33.3293 28.2041
33.5158 27.6727
33.7022 27.2257
33.8887 26.9264
34.0753 26.5666
34.262 26.2987
34.4488 25.9248
34.6357 25.6032
34.8227 25.3189
35.0098 25.0987
35.1969 24.7749
35.3842 24.4751
35.5716 24.4074
35.759 24.0571
35.9468 23.6356
36.1345 23.4357
36.3222 23.2327
36.5101 22.9504
36.6981 22.7055
36.8861 22.4099
37.0743 22.0062
37.2626 21.8133
37.451 21.4723
37.6395 21.3543
37.8281 20.975
38.0168 20.6855
38.2056 20.4702
38.3945 20.2364
38.5837 19.9229
38.7728 19.6919
38.9621 19.4079
39.1514 19.1073
39.3409 18.8511
39.5304 18.6723
39.7201 18.5057
39.9099 18.2688
40.0999 18.0593
40.2899 17.778
40.48 17.5614
40.6703 17.3063
40.8607 17.1309
41.0512 16.9562
41.242 16.6796
41.4327 16.4871
41.6236 16.209
41.8146 16.0508
42.0057 15.7878
42.1969 15.5729
42.3882 15.4061
42.5797 15.158
42.7713 14.9663
42.963 14.7493
43.1549 14.5182
43.3468 14.3253
43.5389 14.174
43.7312 13.9561
43.9237 13.7045
44.1162 13.6205
44.3088 13.3774
44.5016 13.1581
44.6945 13.0481
44.8875 12.8138
45.0806 12.6197
45.2739 12.4888
45.4673 12.297
45.6609 12.1479
45.8546 11.9179
46.0484 11.808
46.2424 11.6155
46.4365 11.4441
46.631 11.3107
46.8254 11.066
47.0199 10.9428
47.2146 10.7947
47.4095 10.6129
47.6044 10.4806
47.7996 10.3147
47.9948 10.1903
48.1902 10.0202
48.3858 9.8698
48.5815 9.73732
48.7774 9.62378
48.9734 9.47458
49.1696 9.32292
49.3661 9.19134
49.5626 9.04109
49.7592 8.90508
49.956 8.75873
50.153 8.61061
50.3501 8.46112
50.5474 8.38294
50.7448 8.24966
50.9424 8.11418
51.1402 7.97715
51.3381 7.86554
51.5362 7.73724
51.7344 7.61832
51.9328 7.46473
52.1316 7.30595
52.3304 7.27234
52.5293 7.13862
52.7284 6.9867
52.9276 6.91115
53.1271 6.75042
53.3267 6.65888
53.5265 6.52082
53.7264 6.41425
53.9266 6.30782
54.1269 6.20965
54.3274 6.00854
54.528 5.94646
54.7289 5.71779
54.9301 5.55239
55.1314 5.41547
55.3328 5.12181
55.5344 4.97261
55.7361 4.85755