File: XRD/Ni3Fe_FD0334.xy
TT I
1.27165 7.15068
1.45013 6.70144
1.62863 5.34078
1.80712 5.05297
1.98562 5.02505
2.16411 4.83877
2.34263 4.39217
2.52115 5.86389
2.69965 7.60812
2.87818 8.07398
3.05672 11.323
3.23527 14.7725
3.4138 18.783
3.59237 23.8163
3.77094 26.2948
3.9495 30.1861
4.12809 34.8452
4.30669 161.665
4.4853 60.998
4.6639 56.8528
4.84253 69.7394
5.02118 91.9098
5.19981 567.14
5.37848 226.288
5.55716 106.93
5.73586 96.4184
5.91455 101.943
6.09328 4076.05
6.27201 86.4699
6.45075 69.656
6.62952 64.1266
6.8083 59.9665
6.98711 57.2411
7.16591 56.937
7.34475 81.5738
7.5236 55.871
7.70247 57.2451
7.88135 59.3256
8.06026 64.2738
8.23919 71.833
8.41812 88.8339
8.59709 1163.6
8.77609 104.785
8.9551 92.2285
9.13412 84.4989
9.31318 85.5984
9.49226 87.3077
9.67134 99.0782
9.85047 103.458
10.0296 427.214
10.2088 493.11
10.388 109.658
10.5672 483.093
10.7465 89.6167
10.9257 80.3634
11.105 73.9758
11.2844 71.2936
11.4637 66.8209
11.6431 65.5222
11.8225 64.2312
12.002 66.4012
12.1814 148.467
12.3609 71.4767
12.5405 66.4954
12.72 71.0891
12.8996 73.0229
13.0792 82.4903
13.2589 244.491
13.4386 133.098
13.6183 240.815
13.7981 102.628
13.9779 78.3133
14.1577 74.4737
14.3376 73.1221
14.5175 71.0341
14.6974 72.7112
14.8774 118.324
15.0574 156.051
15.2374 72.3467
15.4175 68.4184
15.5976 68.0008
15.7778 101.813
15.958 164.767
16.1382 63.9339
16.3185 60.1049
16.4988 57.1309
16.6792 56.0321
16.8596 56.7026
17.04 57.6034
17.2205 68.9018
17.401 74.0558
17.5815 60.9809
17.7622 63.2201
17.9428 78.6379
18.1237 140.008
18.3044 91.5904
18.4852 80.2697
18.666 62.2699
18.8469 59.846
19.0278 58.5487
19.2088 61.9489
19.3898 77.4265
19.5709 55.9231
19.752 55.0469
19.9332 58.3664
20.1144 71.3667
20.2957 64.4734
20.477 55.44
20.6586 51.2004
20.84 50.2072
21.0215 50.221
21.203 52.0832
21.3846 50.6515
21.5662 50.4456
21.7479 54.4929
21.9297 66.1484
22.1115 57.2442
22.2933 51.3212
22.4753 50.443
22.6572 50.664
22.8393 53.5931
23.0214 59.1242
23.2037 50.4588
23.3859 51.4832
23.5682 57.7999
23.7505 50.1024
23.9329 46.6263
24.1154 45.3894
24.2979 44.7001
24.4805 44.273
24.6631 44.1897
24.8458 43.6151
25.0286 44.2818
25.2114 46.0735
25.3943 46.0205
25.5773 42.1494
25.7605 41.6264
25.9436 42.1724
26.1268 42.9511
26.31 41.4139
26.4933 41.9997
26.6767 43.3247
26.8601 41.7838
27.0437 40.0466
27.2272 39.7251
27.4109 39.487
27.5946 39.5473
27.7784 39.0342
27.9623 39.4225
28.1462 39.893
28.3304 38.3682
28.5145 37.1051
28.6987 36.7335
28.8829 36.3938
29.0673 35.6957
29.2517 35.312
29.4361 35.2258
29.6207 34.1777
29.8053 33.9096
29.99 33.5518
30.1748 33.3745
30.3597 33.3007
30.5447 33.1469
30.7297 33.0855
30.915 32.5783
31.1002 31.9881
31.2855 31.7439
31.4708 31.7353
31.6563 31.311
31.8418 30.9542
32.0275 30.7725
32.2132 30.2134
32.399 29.7651
32.5848 29.3648
32.7708 28.9771
32.9569 28.8747
33.143 28.6666
33.3293 28.2467
33.5158 27.8343
33.7022 27.3566
33.8887 27.0573
34.0753 26.7511
34.262 26.502
34.4488 26.0725
34.6357 25.7845
34.8227 25.4025
35.0098 25.1299
35.1969 24.9204
35.3842 24.6875
35.5716 24.5134
35.759 24.2082
35.9468 23.7762
36.1345 23.5384
36.3222 23.3026
36.5101 23.1288
36.6981 22.789
36.8861 22.4678
37.0743 22.1633
37.2626 21.9505
37.451 21.6354
37.6395 21.4061
37.8281 21.1417
38.0168 20.7984
38.2056 20.5394
38.3945 20.2697
38.5837 19.9023
38.7728 19.7834
38.9621 19.5288
39.1514 19.2657
39.3409 18.9835
39.5304 18.7468
39.7201 18.5784
39.9099 18.3043
40.0999 18.1283
40.2899 17.8866
40.48 17.6605
40.6703 17.4565
40.8607 17.2312
41.0512 16.9334
41.242 16.7485
41.4327 16.5319
41.6236 16.2724
41.8146 16.1065
42.0057 15.8188
42.1969 15.614
42.3882 15.4591
42.5797 15.206
42.7713 15.0524
42.963 14.8167
43.1549 14.61
43.3468 14.3691
43.5389 14.2133
43.7312 14.0193
43.9237 13.8386
44.1162 13.7001
44.3088 13.4758
44.5016 13.2702
44.6945 13.0473
44.8875 12.8794
45.0806 12.7256
45.2739 12.5664
45.4673 12.3906
45.6609 12.1678
45.8546 12.0416
46.0484 11.8033
46.2424 11.6803
46.4365 11.5366
46.631 11.3152
46.8254 11.1471
47.0199 10.9942
47.2146 10.8935
47.4095 10.65
47.6044 10.5409
47.7996 10.3796
47.9948 10.2129
48.1902 10.079
48.3858 9.94304
48.5815 9.79705
48.7774 9.66802
48.9734 9.54438
49.1696 9.3492
49.3661 9.24352
49.5626 9.07421
49.7592 8.94299
49.956 8.80146
50.153 8.7188
50.3501 8.52482
50.5474 8.38751
50.7448 8.27671
50.9424 8.15543
51.1402 8.00569
51.3381 7.88186
51.5362 7.80578
51.7344 7.61411
51.9328 7.50419
52.1316 7.36224
52.3304 7.30304
52.5293 7.13431
52.7284 7.03872
52.9276 6.90494
53.1271 6.82331
53.3267 6.66917
53.5265 6.55682
53.7264 6.46422
53.9266 6.3035
54.1269 6.26351
54.3274 6.0903
54.528 5.94108
54.7289 5.79312
54.9301 5.62343
55.1314 5.542
55.3328 5.31753
55.5344 5.1188
55.7361 4.94336