File: XRD/Ni3Fe_FD0877.xy
TT I
1.27165 7.3074
1.45013 5.81326
1.62863 4.94046
1.80712 4.82404
1.98562 4.34476
2.16411 4.90748
2.34263 5.50838
2.52115 7.51662
2.69965 8.70315
2.87818 9.15217
3.05672 11.3657
3.23527 14.8806
3.4138 18.905
3.59237 24.4433
3.77094 26.0791
3.9495 30.0228
4.12809 34.9522
4.30669 257.583
4.4853 69.0892
4.6639 55.0233
4.84253 66.0053
5.02118 84.3344
5.19981 289.486
5.37848 177.948
5.55716 99.8834
5.73586 90.2816
5.91455 90.7292
6.09328 4283.9
6.27201 81.8566
6.45075 66.4815
6.62952 62.3377
6.8083 58.4823
6.98711 55.3917
7.16591 54.9793
7.34475 98.7147
7.5236 54.4455
7.70247 55.698
7.88135 57.2039
8.06026 61.4316
8.23919 68.5966
8.41812 83.84
8.59709 1103.16
8.77609 97.5203
8.9551 91.6008
9.13412 80.8209
9.31318 81.4483
9.49226 83.0737
9.67134 99.0736
9.85047 98.4236
10.0296 295.531
10.2088 407.657
10.388 103.12
10.5672 520.22
10.7465 85.2733
10.9257 77.5508
11.105 71.1092
11.2844 70.1057
11.4637 64.3302
11.6431 63.0293
11.8225 61.6721
12.002 62.6276
12.1814 148.973
12.3609 71.3636
12.5405 63.5522
12.72 69.7577
12.8996 69.911
13.0792 77.0739
13.2589 223.409
13.4386 123.683
13.6183 238.788
13.7981 96.1514
13.9779 74.6484
14.1577 71.7088
14.3376 71.1726
14.5175 67.6419
14.6974 69.3554
14.8774 104.53
15.0574 147.29
15.2374 70.4554
15.4175 65.4593
15.5976 64.6789
15.7778 89.9101
15.958 155.843
16.1382 62.5936
16.3185 58.122
16.4988 54.6991
16.6792 53.9579
16.8596 54.4795
17.04 54.9246
17.2205 65.0108
17.401 69.633
17.5815 58.1889
17.7622 60.4013
17.9428 70.8512
18.1237 138.471
18.3044 88.9352
18.4852 76.7087
18.666 59.8539
18.8469 57.1531
19.0278 56.0331
19.2088 58.3832
19.3898 76.4566
19.5709 53.3678
19.752 52.4025
19.9332 55.0654
20.1144 69.3873
20.2957 63.4132
20.477 53.0958
20.6586 49.0778
20.84 48.164
21.0215 47.9946
21.203 50.2677
21.3846 48.33
21.5662 48.1367
21.7479 51.4921
21.9297 64.0803
22.1115 55.5222
22.2933 49.2066
22.4753 48.4607
22.6572 47.9274
22.8393 50.9661
23.0214 56.8686
23.2037 48.2292
23.3859 48.8216
23.5682 56.4541
23.7505 47.841
23.9329 44.6879
24.1154 43.5599
24.2979 42.9919
24.4805 42.4286
24.6631 42.3531
24.8458 41.6894
25.0286 42.2125
25.2114 44.0947
25.3943 44.304
25.5773 40.4126
25.7605 40.0354
25.9436 40.3345
26.1268 41.1954
26.31 39.6326
26.4933 40.1948
26.6767 41.6266
26.8601 40.0389
27.0437 38.4795
27.2272 37.9855
27.4109 37.794
27.5946 37.8705
27.7784 37.4674
27.9623 37.9347
28.1462 38.4018
28.3304 36.8515
28.5145 35.4396
28.6987 35.1734
28.8829 34.9959
29.0673 34.2661
29.2517 33.9532
29.4361 33.7542
29.6207 32.7013
29.8053 32.5071
29.99 32.1612
30.1748 32.0068
30.3597 31.9237
30.5447 31.7567
30.7297 31.8915
30.915 31.1982
31.1002 30.7502
31.2855 30.4865
31.4708 30.4631
31.6563 29.992
31.8418 29.7307
32.0275 29.6115
32.2132 29.0486
32.399 28.5752
32.5848 28.1742
32.7708 27.7879
32.9569 27.7234
33.143 27.5082
33.3293 27.1704
33.5158 26.734
33.7022 26.3746
33.8887 25.9819
34.0753 25.7146
34.262 25.2694
34.4488 24.9885
34.6357 24.6945
34.8227 24.3693
35.0098 24.2071
35.1969 23.8911
35.3842 23.7461
35.5716 23.4881
35.759 23.1622
35.9468 22.8429
36.1345 22.6559
36.3222 22.4348
36.5101 22.151
36.6981 21.8772
36.8861 21.5116
37.0743 21.2374
37.2626 20.9868
37.451 20.7318
37.6395 20.5911
37.8281 20.3113
38.0168 19.9938
38.2056 19.7675
38.3945 19.4504
38.5837 19.241
38.7728 18.9685
38.9621 18.7228
39.1514 18.5725
39.3409 18.3006
39.5304 18.0329
39.7201 17.8673
39.9099 17.6787
40.0999 17.3281
40.2899 17.1528
40.48 16.937
40.6703 16.7064
40.8607 16.5565
41.0512 16.3518
41.242 16.1021
41.4327 15.8828
41.6236 15.6629
41.8146 15.5291
42.0057 15.2194
42.1969 15.0118
42.3882 14.852
42.5797 14.6638
42.7713 14.5451
42.963 14.2503
43.1549 14.0717
43.3468 13.8666
43.5389 13.7118
43.7312 13.4918
43.9237 13.297
44.1162 13.0959
44.3088 12.9589
44.5016 12.7369
44.6945 12.5684
44.8875 12.4726
45.0806 12.2568
45.2739 12.0892
45.4673 11.9094
45.6609 11.7018
45.8546 11.5883
46.0484 11.4388
46.2424 11.2309
46.4365 11.0687
46.631 10.9126
46.8254 10.7533
47.0199 10.567
47.2146 10.4257
47.4095 10.2928
47.6044 10.0943
47.7996 9.96298
47.9948 9.85203
48.1902 9.694
48.3858 9.59362
48.5815 9.44133
48.7774 9.30182
48.9734 9.15897
49.1696 8.99845
49.3661 8.82784
49.5626 8.70954
49.7592 8.58231
49.956 8.49017
50.153 8.3478
50.3501 8.22407
50.5474 8.08843
50.7448 7.97057
50.9424 7.86085
51.1402 7.71247
51.3381 7.56355
51.5362 7.47323
51.7344 7.36743
51.9328 7.20153
52.1316 7.06209
52.3304 6.94785
52.5293 6.90336
52.7284 6.75231
52.9276 6.64809
53.1271 6.56252
53.3267 6.46167
53.5265 6.333
53.7264 6.19873
53.9266 6.09606
54.1269 5.95273
54.3274 5.89179
54.528 5.72794
54.7289 5.57233
54.9301 5.47042
55.1314 5.32229
55.3328 5.09286
55.5344 4.90948
55.7361 4.70326