File: XRD/Ni3Fe_FD0177.xy
TT I
1.27165 8.43935
1.45013 5.96786
1.62863 5.83032
1.80712 5.02774
1.98562 5.15329
2.16411 4.70153
2.34263 4.23404
2.52115 4.65969
2.69965 5.74223
2.87818 8.41698
3.05672 11.6435
3.23527 14.8642
3.4138 18.9308
3.59237 22.1178
3.77094 25.2354
3.9495 28.7042
4.12809 32.9224
4.30669 38.1939
4.4853 45.2404
4.6639 53.8787
4.84253 66.4551
5.02118 90.8198
5.19981 519.035
5.37848 410.564
5.55716 107.579
5.73586 95.4473
5.91455 104.991
6.09328 2865.7
6.27201 88.7486
6.45075 66.886
6.62952 60.0861
6.8083 56.0262
6.98711 53.5613
7.16591 53.1357
7.34475 52.3902
7.5236 55.7117
7.70247 54.2244
7.88135 56.5699
8.06026 60.731
8.23919 68.3418
8.41812 84.0904
8.59709 919.124
8.77609 115.445
8.9551 85.8316
9.13412 81.6158
9.31318 85.6889
9.49226 84.3163
9.67134 89.2812
9.85047 99.2806
10.0296 535.147
10.2088 949.38
10.388 105.143
10.5672 345.203
10.7465 90.6149
10.9257 76.0942
11.105 70.5613
11.2844 66.8221
11.4637 63.7728
11.6431 62.2583
11.8225 61.5682
12.002 65.0911
12.1814 121.33
12.3609 73.9348
12.5405 63.3246
12.72 65.6504
12.8996 70.3268
13.0792 79.546
13.2589 209.85
13.4386 202.979
13.6183 199.054
13.7981 150.032
13.9779 76.4044
14.1577 74.2628
14.3376 69.3389
14.5175 68.6097
14.6974 70.2063
14.8774 121.759
15.0574 205.075
15.2374 69.5651
15.4175 66.629
15.5976 66.0646
15.7778 107.629
15.958 187.366
16.1382 61.9621
16.3185 57.4947
16.4988 55.3284
16.6792 54.3025
16.8596 54.6499
17.04 55.63
17.2205 65.9283
17.401 81.5677
17.5815 59.5391
17.7622 61.6069
17.9428 83.6896
18.1237 118.264
18.3044 89.3087
18.4852 95.1352
18.666 61.2819
18.8469 58.8174
19.0278 57.1856
19.2088 62.0827
19.3898 70.2437
19.5709 56.6007
19.752 53.9354
19.9332 58.6137
20.1144 68.0614
20.2957 61.9662
20.477 59.261
20.6586 50.1034
20.84 49.3411
21.0215 49.4296
21.203 50.1449
21.3846 50.7487
21.5662 49.3281
21.7479 54.4605
21.9297 63.3257
22.1115 56.9082
22.2933 52.7987
22.4753 49.1826
22.6572 49.5315
22.8393 52.5804
23.0214 57.9864
23.2037 50.2531
23.3859 52.1523
23.5682 54.4329
23.7505 53.3517
23.9329 46.041
24.1154 44.7893
24.2979 43.9964
24.4805 43.3736
24.6631 43.4615
24.8458 42.797
25.0286 43.3397
25.2114 45.1518
25.3943 45.4271
25.5773 41.9828
25.7605 41.0654
25.9436 41.3267
26.1268 42.0379
26.31 41.1705
26.4933 41.334
26.6767 42.5574
26.8601 41.6898
27.0437 39.8058
27.2272 39.3057
27.4109 39.0053
27.5946 39.1388
27.7784 38.7971
27.9623 38.8393
28.1462 39.839
28.3304 38.3789
28.5145 36.5871
28.6987 36.22
28.8829 35.905
29.0673 35.4601
29.2517 34.763
29.4361 34.7004
29.6207 33.8226
29.8053 33.3931
29.99 33.0513
30.1748 32.9419
30.3597 32.9912
30.5447 32.6566
30.7297 32.6966
30.915 32.375
31.1002 31.734
31.2855 31.4666
31.4708 31.2555
31.6563 31.0754
31.8418 30.6398
32.0275 30.5276
32.2132 30.0645
32.399 29.4787
32.5848 28.9508
32.7708 28.5696
32.9569 28.505
33.143 28.2021
33.3293 27.9441
33.5158 27.5865
33.7022 27.0347
33.8887 26.7602
34.0753 26.5327
34.262 25.9991
34.4488 25.7725
34.6357 25.3969
34.8227 25.1251
35.0098 24.8574
35.1969 24.6132
35.3842 24.2787
35.5716 24.2061
35.759 23.9058
35.9468 23.4831
36.1345 23.2182
36.3222 23.1091
36.5101 22.7892
36.6981 22.5103
36.8861 22.2513
37.0743 21.8989
37.2626 21.6026
37.451 21.3245
37.6395 21.1818
37.8281 20.7391
38.0168 20.5685
38.2056 20.3209
38.3945 19.9904
38.5837 19.742
38.7728 19.5216
38.9621 19.2985
39.1514 18.9978
39.3409 18.8063
39.5304 18.6066
39.7201 18.3393
39.9099 18.1477
40.0999 17.9085
40.2899 17.6682
40.48 17.3915
40.6703 17.1661
40.8607 17.0032
41.0512 16.7895
41.242 16.5436
41.4327 16.355
41.6236 16.078
41.8146 15.8568
42.0057 15.6558
42.1969 15.4844
42.3882 15.3403
42.5797 15.0358
42.7713 14.8714
42.963 14.6896
43.1549 14.439
43.3468 14.2238
43.5389 14.0607
43.7312 13.8026
43.9237 13.6866
44.1162 13.4908
44.3088 13.3058
44.5016 13.1265
44.6945 12.9192
44.8875 12.7894
45.0806 12.5575
45.2739 12.3771
45.4673 12.2556
45.6609 12.0784
45.8546 11.9179
46.0484 11.7313
46.2424 11.4951
46.4365 11.4154
46.631 11.1944
46.8254 11.0134
47.0199 10.8895
47.2146 10.7044
47.4095 10.5997
47.6044 10.404
47.7996 10.2434
47.9948 10.0701
48.1902 9.97281
48.3858 9.80742
48.5815 9.67664
48.7774 9.53658
48.9734 9.37792
49.1696 9.25658
49.3661 9.08464
49.5626 8.93424
49.7592 8.85584
49.956 8.67312
50.153 8.5575
50.3501 8.43193
50.5474 8.28979
50.7448 8.20693
50.9424 8.08159
51.1402 7.92227
51.3381 7.7865
51.5362 7.7059
51.7344 7.55968
51.9328 7.40848
52.1316 7.3102
52.3304 7.20051
52.5293 7.06958
52.7284 6.92608
52.9276 6.83636
53.1271 6.74574
53.3267 6.58384
53.5265 6.51815
53.7264 6.43011
53.9266 6.26863
54.1269 6.13759
54.3274 6.00474
54.528 5.84812
54.7289 5.6567
54.9301 5.55878
55.1314 5.38337
55.3328 5.11125
55.5344 4.97748
55.7361 4.80117