File: XRD/Ni3Fe_FD0582.xy
TT I
1.27165 7.03874
1.45013 6.42592
1.62863 5.25179
1.80712 4.60816
1.98562 4.5676
2.16411 4.38265
2.34263 5.06245
2.52115 6.39514
2.69965 7.61211
2.87818 8.91334
3.05672 11.072
3.23527 14.8254
3.4138 18.6409
3.59237 23.1486
3.77094 26.3016
3.9495 30.1002
4.12809 34.2901
4.30669 121.367
4.4853 56.3542
4.6639 56.2452
4.84253 68.5123
5.02118 88.5885
5.19981 472.418
5.37848 200.253
5.55716 103.34
5.73586 93.9282
5.91455 97.3204
6.09328 4446.85
6.27201 82.1032
6.45075 68.93
6.62952 62.7205
6.8083 58.9652
6.98711 55.5
7.16591 55.6478
7.34475 71.9733
7.5236 54.7024
7.70247 56.61
7.88135 58.1336
8.06026 62.7151
8.23919 70.0292
8.41812 85.5161
8.59709 1248.63
8.77609 99.969
8.9551 89.5644
9.13412 83.0362
9.31318 84.258
9.49226 85.438
9.67134 95.8166
9.85047 101.532
10.0296 380.769
10.2088 372.947
10.388 106.359
10.5672 519.876
10.7465 87.0288
10.9257 78.3157
11.105 71.9441
11.2844 68.9929
11.4637 65.2275
11.6431 63.8351
11.8225 62.6945
12.002 64.7739
12.1814 155.673
12.3609 67.8065
12.5405 65.1556
12.72 68.7993
12.8996 71.694
13.0792 81.0861
13.2589 252.917
13.4386 121.578
13.6183 254.511
13.7981 96.8298
13.9779 76.2892
14.1577 72.4444
14.3376 71.0089
14.5175 69.4841
14.6974 71.3166
14.8774 116.173
15.0574 143.526
15.2374 70.1292
15.4175 66.7891
15.5976 66.6533
15.7778 99.1107
15.958 150.116
16.1382 62.2591
16.3185 58.4032
16.4988 55.981
16.6792 54.7077
16.8596 55.2871
17.04 56.6965
17.2205 67.9401
17.401 70.9712
17.5815 59.6038
17.7622 61.8273
17.9428 75.6502
18.1237 141.875
18.3044 91.9233
18.4852 76.8593
18.666 60.6981
18.8469 58.3828
19.0278 57.3809
19.2088 59.9756
19.3898 76.3321
19.5709 54.6145
19.752 53.8206
19.9332 56.913
20.1144 70.364
20.2957 64.2389
20.477 53.6233
20.6586 49.8496
20.84 49.1292
21.0215 48.947
21.203 51.1895
21.3846 49.288
21.5662 49.4515
21.7479 53.5439
21.9297 65.0378
22.1115 56.1445
22.2933 49.9574
22.4753 49.1604
22.6572 49.2545
22.8393 52.5319
23.0214 57.4165
23.2037 48.9964
23.3859 50.4696
23.5682 57.3209
23.7505 48.4046
23.9329 45.4286
24.1154 44.3289
24.2979 43.7292
24.4805 43.2509
24.6631 43.1411
24.8458 42.5471
25.0286 43.205
25.2114 44.9827
25.3943 44.9389
25.5773 41.2364
25.7605 40.7212
25.9436 41.1367
26.1268 41.9908
26.31 40.37
26.4933 41.0426
26.6767 42.4211
26.8601 40.7537
27.0437 39.2021
27.2272 38.795
27.4109 38.6447
27.5946 38.764
27.7784 38.19
27.9623 38.7422
28.1462 39.069
28.3304 37.3579
28.5145 36.1975
28.6987 35.8307
28.8829 35.7014
29.0673 34.8709
29.2517 34.5958
29.4361 34.424
29.6207 33.3325
29.8053 33.1042
29.99 32.8206
30.1748 32.5959
30.3597 32.4587
30.5447 32.416
30.7297 32.4851
30.915 31.7487
31.1002 31.2072
31.2855 31.1848
31.4708 31.0394
31.6563 30.5566
31.8418 30.3144
32.0275 30.1369
32.2132 29.5765
32.399 29.1633
32.5848 28.7719
32.7708 28.2996
32.9569 28.3036
33.143 28.0561
33.3293 27.6263
33.5158 27.2575
33.7022 26.7612
33.8887 26.4903
34.0753 26.2307
34.262 25.7588
34.4488 25.3757
34.6357 25.2291
34.8227 24.8978
35.0098 24.5634
35.1969 24.3632
35.3842 24.153
35.5716 23.9605
35.759 23.4711
35.9468 23.2784
36.1345 23.0614
36.3222 22.7945
36.5101 22.5684
36.6981 22.302
36.8861 21.9009
37.0743 21.6163
37.2626 21.3195
37.451 21.1507
37.6395 20.9628
37.8281 20.6135
38.0168 20.3381
38.2056 20.1
38.3945 19.8253
38.5837 19.5535
38.7728 19.3379
38.9621 19.0402
39.1514 18.8327
39.3409 18.5382
39.5304 18.3544
39.7201 18.18
39.9099 17.9071
40.0999 17.6787
40.2899 17.5131
40.48 17.2229
40.6703 17.0292
40.8607 16.8818
41.0512 16.5878
41.242 16.3684
41.4327 16.131
41.6236 15.9487
41.8146 15.7749
42.0057 15.4825
42.1969 15.2894
42.3882 15.185
42.5797 14.8359
42.7713 14.7556
42.963 14.5106
43.1549 14.3469
43.3468 14.079
43.5389 13.8942
43.7312 13.7277
43.9237 13.5357
44.1162 13.3513
44.3088 13.1668
44.5016 12.9754
44.6945 12.8007
44.8875 12.6027
45.0806 12.4369
45.2739 12.2268
45.4673 12.1188
45.6609 11.92
45.8546 11.7311
46.0484 11.6307
46.2424 11.3978
46.4365 11.2577
46.631 11.0632
46.8254 10.8964
47.0199 10.769
47.2146 10.5901
47.4095 10.4349
47.6044 10.2848
47.7996 10.1581
47.9948 10.0275
48.1902 9.85774
48.3858 9.75967
48.5815 9.55524
48.7774 9.45278
48.9734 9.2867
49.1696 9.15974
49.3661 9.01142
49.5626 8.84829
49.7592 8.74194
49.956 8.5936
50.153 8.45317
50.3501 8.32854
50.5474 8.25706
50.7448 8.12862
50.9424 7.96409
51.1402 7.85629
51.3381 7.69225
51.5362 7.62112
51.7344 7.448
51.9328 7.33835
52.1316 7.20523
52.3304 7.13208
52.5293 6.98088
52.7284 6.85416
52.9276 6.78781
53.1271 6.68278
53.3267 6.52402
53.5265 6.4227
53.7264 6.31661
53.9266 6.20407
54.1269 6.09168
54.3274 6.00147
54.528 5.84507
54.7289 5.69801
54.9301 5.52569
55.1314 5.38149
55.3328 5.18524
55.5344 5.02649
55.7361 4.84617