File: XRD/Ni3Fe_FD0090.xy
TT I
1.27165 8.92217
1.45013 7.4556
1.62863 6.71689
1.80712 6.00162
1.98562 6.01004
2.16411 5.21229
2.34263 4.76153
2.52115 4.10993
2.69965 5.86112
2.87818 7.59634
3.05672 10.6612
3.23527 14.89
3.4138 18.5241
3.59237 21.2438
3.77094 24.6844
3.9495 28.1248
4.12809 32.2697
4.30669 37.2107
4.4853 44.4359
4.6639 54.1595
4.84253 66.9753
5.02118 97.0002
5.19981 743.144
5.37848 869.076
5.55716 116.245
5.73586 100.378
5.91455 116.94
6.09328 1876.07
6.27201 102.092
6.45075 67.3594
6.62952 59.7555
6.8083 54.9506
6.98711 52.7027
7.16591 51.6556
7.34475 51.3082
7.5236 63.2959
7.70247 53.7889
7.88135 55.657
8.06026 59.815
8.23919 67.5483
8.41812 85.08
8.59709 686.833
8.77609 139.731
8.9551 85.9211
9.13412 81.7204
9.31318 105.983
9.49226 83.0486
9.67134 87.6831
9.85047 98.8311
10.0296 610.097
10.2088 1314.72
10.388 107.026
10.5672 227.952
10.7465 99.9738
10.9257 75.1451
11.105 68.9871
11.2844 65.3255
11.4637 62.3648
11.6431 60.9586
11.8225 60.3286
12.002 74.7495
12.1814 97.2864
12.3609 85.9244
12.5405 62.257
12.72 64.1196
12.8996 68.5702
13.0792 79.7569
13.2589 173.673
13.4386 279.085
13.6183 156.076
13.7981 203.6
13.9779 75.377
14.1577 80.5246
14.3376 68.2502
14.5175 67.2904
14.6974 68.774
14.8774 119.451
15.0574 207.292
15.2374 68.6851
15.4175 64.9502
15.5976 64.8043
15.7778 107.621
15.958 168.802
16.1382 63.118
16.3185 56.5514
16.4988 54.1092
16.6792 52.9887
16.8596 53.2664
17.04 54.7438
17.2205 62.3961
17.401 80.9828
17.5815 57.998
17.7622 60.6717
17.9428 85.9063
18.1237 92.8448
18.3044 88.226
18.4852 101.504
18.666 60.2209
18.8469 57.2628
19.0278 55.7428
19.2088 61.5274
19.3898 63.2695
19.5709 57.8773
19.752 52.4773
19.9332 57.4904
20.1144 61.7316
20.2957 59.0531
20.477 62.2128
20.6586 49.0365
20.84 48.5491
21.0215 48.3395
21.203 47.8787
21.3846 50.3904
21.5662 47.935
21.7479 53.0086
21.9297 56.8334
22.1115 55.972
22.2933 53.4752
22.4753 48.0126
22.6572 48.3071
22.8393 50.5562
23.0214 53.4381
23.2037 49.9263
23.3859 51.4897
23.5682 50.0467
23.7505 55.3538
23.9329 45.0227
24.1154 43.6117
24.2979 42.8721
24.4805 42.1618
24.6631 42.3956
24.8458 41.8065
25.0286 42.0702
25.2114 42.8091
25.3943 43.0614
25.5773 41.5714
25.7605 40.0615
25.9436 40.1
26.1268 40.2856
26.31 40.6275
26.4933 39.983
26.6767 40.3422
26.8601 40.8911
27.0437 39.0764
27.2272 38.3964
27.4109 37.8002
27.5946 37.878
27.7784 37.9509
27.9623 37.5419
28.1462 38.1939
28.3304 37.3295
28.5145 35.7739
28.6987 35.2216
28.8829 34.7321
29.0673 34.6985
29.2517 33.827
29.4361 33.4927
29.6207 33.0879
29.8053 32.4129
29.99 32.1891
30.1748 31.8713
30.3597 31.9307
30.5447 31.6783
30.7297 31.458
30.915 31.5379
31.1002 30.8283
31.2855 30.4581
31.4708 30.2747
31.6563 30.2643
31.8418 29.6954
32.0275 29.4983
32.2132 29.2339
32.399 28.5973
32.5848 28.1021
32.7708 27.7792
32.9569 27.6005
33.143 27.2902
33.3293 26.9896
33.5158 26.8279
33.7022 26.2451
33.8887 25.9404
34.0753 25.6733
34.262 25.1944
34.4488 24.997
34.6357 24.5899
34.8227 24.3652
35.0098 24.1452
35.1969 23.8303
35.3842 23.4924
35.5716 23.4014
35.759 23.1789
35.9468 22.8171
36.1345 22.5563
36.3222 22.357
36.5101 22.1262
36.6981 21.7363
36.8861 21.4772
37.0743 21.1879
37.2626 20.9612
37.451 20.7151
37.6395 20.5183
37.8281 20.2359
38.0168 19.9367
38.2056 19.6453
38.3945 19.3962
38.5837 19.2386
38.7728 18.9566
38.9621 18.6226
39.1514 18.4493
39.3409 18.1892
39.5304 18.0217
39.7201 17.8004
39.9099 17.6114
40.0999 17.3533
40.2899 17.1109
40.48 16.9076
40.6703 16.6582
40.8607 16.5434
41.0512 16.3272
41.242 16.0602
41.4327 15.8682
41.6236 15.6091
41.8146 15.422
42.0057 15.2006
42.1969 14.9895
42.3882 14.8474
42.5797 14.6375
42.7713 14.4138
42.963 14.2167
43.1549 13.9838
43.3468 13.8046
43.5389 13.6145
43.7312 13.4669
43.9237 13.2773
44.1162 13.0795
44.3088 12.9118
44.5016 12.7076
44.6945 12.6076
44.8875 12.3632
45.0806 12.1644
45.2739 11.967
45.4673 11.89
45.6609 11.6657
45.8546 11.5172
46.0484 11.3776
46.2424 11.2036
46.4365 11.0557
46.631 10.8693
46.8254 10.6904
47.0199 10.5779
47.2146 10.4096
47.4095 10.2471
47.6044 10.151
47.7996 9.94761
47.9948 9.79526
48.1902 9.67432
48.3858 9.49479
48.5815 9.4102
48.7774 9.28486
48.9734 9.1229
49.1696 8.98373
49.3661 8.88273
49.5626 8.7136
49.7592 8.5971
49.956 8.50197
50.153 8.3668
50.3501 8.21023
50.5474 8.08804
50.7448 7.97551
50.9424 7.8529
51.1402 7.75337
51.3381 7.57835
51.5362 7.44967
51.7344 7.37343
51.9328 7.19639
52.1316 7.0995
52.3304 6.99255
52.5293 6.90681
52.7284 6.78004
52.9276 6.6509
53.1271 6.55145
53.3267 6.43654
53.5265 6.27203
53.7264 6.18676
53.9266 6.11464
54.1269 5.95439
54.3274 5.82968
54.528 5.66844
54.7289 5.506
54.9301 5.29456
55.1314 5.13172
55.3328 4.97515
55.5344 4.79656
55.7361 4.7042