File: XRD/Ni3Fe_FD0039.xy
TT I
1.27165 32.5537
1.45013 27.6938
1.62863 23.8279
1.80712 22.3453
1.98562 21.2933
2.16411 21.3266
2.34263 21.6134
2.52115 23.0428
2.69965 27.2522
2.87818 36.9195
3.05672 63.9559
3.23527 70.4656
3.4138 36.7137
3.59237 30.5362
3.77094 28.7293
3.9495 28.0742
4.12809 33.008
4.30669 54.3801
4.4853 41.5261
4.6639 41.4481
4.84253 51.9025
5.02118 88.5696
5.19981 295.296
5.37848 3536.88
5.55716 153.685
5.73586 101.276
5.91455 115.235
6.09328 521.541
6.27201 257.968
6.45075 66.0038
6.62952 48.9112
6.8083 44.8462
6.98711 39.364
7.16591 40.2322
7.34475 52.2194
7.5236 52.1375
7.70247 43.3223
7.88135 37.2902
8.06026 39.104
8.23919 44.2981
8.41812 56.308
8.59709 177.594
8.77609 495.193
8.9551 75.7227
9.13412 61.8597
9.31318 322.394
9.49226 55.8378
9.67134 55.0087
9.85047 61.1126
10.0296 109.562
10.2088 612.92
10.388 111.3
10.5672 95.2522
10.7465 233.949
10.9257 49.6008
11.105 42.8761
11.2844 40.8596
11.4637 38.0969
11.6431 37.6803
11.8225 37.7029
12.002 99.2018
12.1814 48.6447
12.3609 92.8318
12.5405 42.3966
12.72 40.024
12.8996 39.9893
13.0792 44.34
13.2589 67.6007
13.4386 176.964
13.6183 85.5747
13.7981 182.79
13.9779 56.7273
14.1577 53.8911
14.3376 46.5406
14.5175 39.8576
14.6974 39.812
14.8774 46.1174
15.0574 68.1573
15.2374 71.3435
15.4175 41.1684
15.5976 39.3579
15.7778 43.6718
15.958 58.8405
16.1382 95.3296
16.3185 38.5246
16.4988 34.0563
16.6792 32.5713
16.8596 32.5947
17.04 42.698
17.2205 34.7045
17.401 38.5741
17.5815 42.1161
17.7622 36.3546
17.9428 40.5655
18.1237 44.584
18.3044 91.7314
18.4852 54.8239
18.666 54.514
18.8469 36.5226
19.0278 34.6556
19.2088 34.7983
19.3898 44.1792
19.5709 46.3367
19.752 34.2999
19.9332 32.6581
20.1144 33.4352
20.2957 43.9567
20.477 38.8578
20.6586 34.5192
20.84 33.4803
21.0215 29.829
21.203 29.3967
21.3846 30.2151
21.5662 31.7038
21.7479 30.4714
21.9297 31.8107
22.1115 41.9198
22.2933 39.3055
22.4753 32.7897
22.6572 30.246
22.8393 31.4983
23.0214 31.4463
23.2037 39.2041
23.3859 32.0341
23.5682 34.5221
23.7505 35.1625
23.9329 34.6911
24.1154 29.4273
24.2979 27.5149
24.4805 27.085
24.6631 27.1072
24.8458 27.6146
25.0286 26.4963
25.2114 26.7871
25.3943 29.0503
25.5773 29.9442
25.7605 26.9654
25.9436 26.922
26.1268 25.7561
26.31 26.8619
26.4933 26.5901
26.6767 25.9163
26.8601 27.6252
27.0437 28.6844
27.2272 25.8242
27.4109 24.7462
27.5946 24.9669
27.7784 25.0588
27.9623 24.7412
28.1462 25.7063
28.3304 26.6883
28.5145 25.5507
28.6987 24.1502
28.8829 23.0409
29.0673 22.7012
29.2517 22.9624
29.4361 22.0915
29.6207 22.0667
29.8053 21.8764
29.99 21.2358
30.1748 21.5224
30.3597 21.0661
30.5447 21.3025
30.7297 21.0015
30.915 21.2072
31.1002 21.8492
31.2855 20.8754
31.4708 20.3737
31.6563 20.4822
31.8418 20.78
32.0275 20.0424
32.2132 20.2018
32.399 19.9335
32.5848 19.2656
32.7708 18.8584
32.9569 18.8251
33.143 18.6738
33.3293 18.2905
33.5158 18.593
33.7022 18.3062
33.8887 17.7926
34.0753 17.4947
34.262 17.4024
34.4488 17.0328
34.6357 16.88
34.8227 16.6688
35.0098 16.45
35.1969 16.2879
35.3842 16.2025
35.5716 16.0592
35.759 16.2178
35.9468 15.9338
36.1345 15.6424
36.3222 15.4028
36.5101 15.4304
36.6981 15.1483
36.8861 14.9709
37.0743 14.8079
37.2626 14.5385
37.451 14.3499
37.6395 14.243
37.8281 14.0609
38.0168 13.8857
38.2056 13.7471
38.3945 13.4349
38.5837 13.3072
38.7728 13.2147
38.9621 13.0551
39.1514 12.944
39.3409 12.6898
39.5304 12.5552
39.7201 12.4115
39.9099 12.2919
40.0999 12.1029
40.2899 12.079
40.48 11.8193
40.6703 11.7331
40.8607 11.614
41.0512 11.5061
41.242 11.3293
41.4327 11.1902
41.6236 10.9893
41.8146 10.9137
42.0057 10.8003
42.1969 10.6373
42.3882 10.4816
42.5797 10.286
42.7713 10.217
42.963 10.0323
43.1549 9.91656
43.3468 9.73709
43.5389 9.63784
43.7312 9.54657
43.9237 9.37694
44.1162 9.30226
44.3088 9.16316
44.5016 9.05579
44.6945 8.93299
44.8875 8.81077
45.0806 8.71056
45.2739 8.59228
45.4673 8.45374
45.6609 8.35215
45.8546 8.25744
46.0484 8.15399
46.2424 8.01564
46.4365 7.90644
46.631 7.7975
46.8254 7.68102
47.0199 7.59056
47.2146 7.46467
47.4095 7.32723
47.6044 7.24403
47.7996 7.14074
47.9948 7.01914
48.1902 6.93685
48.3858 6.83152
48.5815 6.76654
48.7774 6.67607
48.9734 6.553
49.1696 6.48143
49.3661 6.33911
49.5626 6.30992
49.7592 6.2156
49.956 6.09681
50.153 6.05106
50.3501 5.94632
50.5474 5.83972
50.7448 5.78413
50.9424 5.70441
51.1402 5.61811
51.3381 5.49923
51.5362 5.41879
51.7344 5.32964
51.9328 5.25816
52.1316 5.15944
52.3304 5.09661
52.5293 5.01439
52.7284 4.95759
52.9276 4.84139
53.1271 4.7819
53.3267 4.7012
53.5265 4.63497
53.7264 4.56424
53.9266 4.45607
54.1269 4.35505
54.3274 4.26037
54.528 4.1403
54.7289 4.04037
54.9301 3.89389
55.1314 3.78701
55.3328 3.66791
55.5344 3.50216
55.7361 3.44711