File: XRD/Ni3Fe_FD0546.xy
TT I
1.27165 7.93816
1.45013 6.37053
1.62863 5.61346
1.80712 4.95067
1.98562 4.45576
2.16411 5.1328
2.34263 5.38732
2.52115 6.59998
2.69965 7.76065
2.87818 9.02012
3.05672 10.9966
3.23527 14.9565
3.4138 19.5624
3.59237 24.2697
3.77094 26.6154
3.9495 30.1856
4.12809 34.886
4.30669 215.52
4.4853 65.6117
4.6639 56.3188
4.84253 67.6808
5.02118 87.7722
5.19981 374.712
5.37848 199.575
5.55716 102.749
5.73586 93.0106
5.91455 96.1403
6.09328 4333.72
6.27201 83.69
6.45075 67.9713
6.62952 63.2641
6.8083 59.0019
6.98711 56.2446
7.16591 55.8309
7.34475 92.4819
7.5236 55.4882
7.70247 56.7412
7.88135 58.1821
8.06026 62.9259
8.23919 70.149
8.41812 86.3638
8.59709 1184.33
8.77609 100.664
8.9551 92.4137
9.13412 82.6004
9.31318 83.1679
9.49226 85.0193
9.67134 99.4697
9.85047 100.725
10.0296 350.871
10.2088 400.934
10.388 105.636
10.5672 517.996
10.7465 86.5291
10.9257 79.0796
11.105 72.2517
11.2844 70.7843
11.4637 65.2862
11.6431 63.8061
11.8225 62.8655
12.002 64.1113
12.1814 152.083
12.3609 70.8284
12.5405 64.9707
12.72 70.5422
12.8996 71.5349
13.0792 79.488
13.2589 238.866
13.4386 124.249
13.6183 248.161
13.7981 97.8352
13.9779 76.2374
14.1577 72.9299
14.3376 72.1014
14.5175 69.5301
14.6974 70.9138
14.8774 111.943
15.0574 149.432
15.2374 71.4976
15.4175 66.8102
15.5976 66.2078
15.7778 95.9757
15.958 155.734
16.1382 63.2825
16.3185 59.2381
16.4988 55.7934
16.6792 54.8592
16.8596 55.6773
17.04 56.1527
17.2205 67.2664
17.401 71.5623
17.5815 59.7002
17.7622 61.7598
17.9428 74.5628
18.1237 141.974
18.3044 90.9768
18.4852 78.1533
18.666 60.9071
18.8469 58.462
19.0278 57.1698
19.2088 60.0252
19.3898 77.1407
19.5709 54.4582
19.752 53.6296
19.9332 56.5779
20.1144 70.8734
20.2957 64.3983
20.477 53.996
20.6586 50.0242
20.84 49.2844
21.0215 48.8829
21.203 51.3468
21.3846 49.2429
21.5662 49.0634
21.7479 52.9524
21.9297 65.2415
22.1115 56.5649
22.2933 50.3403
22.4753 49.3147
22.6572 49.2081
22.8393 52.2534
23.0214 58.0903
23.2037 49.1181
23.3859 50.0185
23.5682 57.7272
23.7505 48.4581
23.9329 45.5734
24.1154 44.4771
24.2979 43.8879
24.4805 43.3187
24.6631 43.2333
24.8458 42.6233
25.0286 43.2214
25.2114 44.9062
25.3943 44.9663
25.5773 41.1851
25.7605 40.7744
25.9436 41.2185
26.1268 42.0857
26.31 40.3921
26.4933 41.099
26.6767 42.57
26.8601 40.7072
27.0437 39.1346
27.2272 38.8425
27.4109 38.6392
27.5946 38.6613
27.7784 38.2819
27.9623 38.7226
28.1462 39.1892
28.3304 37.4413
28.5145 36.2242
28.6987 36.0007
28.8829 35.7274
29.0673 34.8673
29.2517 34.6106
29.4361 34.4748
29.6207 33.4203
29.8053 33.1606
29.99 32.8501
30.1748 32.6576
30.3597 32.4763
30.5447 32.3565
30.7297 32.6015
30.915 31.8432
31.1002 31.3389
31.2855 31.0735
31.4708 31.1036
31.6563 30.735
31.8418 30.3555
32.0275 30.1656
32.2132 29.6058
32.399 29.1418
32.5848 28.7318
32.7708 28.4733
32.9569 28.2012
33.143 28.0698
33.3293 27.6318
33.5158 27.2565
33.7022 26.8329
33.8887 26.5107
34.0753 26.2212
34.262 25.908
34.4488 25.4466
34.6357 25.1475
34.8227 24.8911
35.0098 24.6821
35.1969 24.4167
35.3842 24.1726
35.5716 23.9086
35.759 23.5832
35.9468 23.2341
36.1345 23.086
36.3222 22.8428
36.5101 22.606
36.6981 22.288
36.8861 21.9716
37.0743 21.67
37.2626 21.3806
37.451 21.1403
37.6395 20.9938
37.8281 20.6493
38.0168 20.342
38.2056 20.1269
38.3945 19.8538
38.5837 19.6454
38.7728 19.3516
38.9621 19.148
39.1514 18.8944
39.3409 18.6343
39.5304 18.3834
39.7201 18.1836
39.9099 18.017
40.0999 17.6839
40.2899 17.5408
40.48 17.2779
40.6703 17.0568
40.8607 16.8781
41.0512 16.6626
41.242 16.3671
41.4327 16.1824
41.6236 15.9698
41.8146 15.7653
42.0057 15.5557
42.1969 15.3799
42.3882 15.1436
42.5797 14.9141
42.7713 14.7638
42.963 14.5482
43.1549 14.3418
43.3468 14.1282
43.5389 13.9196
43.7312 13.7625
43.9237 13.5515
44.1162 13.3493
44.3088 13.1943
44.5016 12.9953
44.6945 12.8157
44.8875 12.6316
45.0806 12.4434
45.2739 12.2982
45.4673 12.128
45.6609 11.8915
45.8546 11.8406
46.0484 11.639
46.2424 11.4363
46.4365 11.3036
46.631 11.1039
46.8254 10.9558
47.0199 10.804
47.2146 10.6549
47.4095 10.4903
47.6044 10.2974
47.7996 10.1219
47.9948 10.0254
48.1902 9.84856
48.3858 9.70062
48.5815 9.63232
48.7774 9.49635
48.9734 9.33514
49.1696 9.19375
49.3661 9.05358
49.5626 8.86781
49.7592 8.74534
49.956 8.6613
50.153 8.50936
50.3501 8.36722
50.5474 8.26567
50.7448 8.13393
50.9424 7.97029
51.1402 7.86331
51.3381 7.74649
51.5362 7.62458
51.7344 7.48688
51.9328 7.37052
52.1316 7.19804
52.3304 7.09773
52.5293 6.99778
52.7284 6.90707
52.9276 6.77907
53.1271 6.69473
53.3267 6.53754
53.5265 6.45616
53.7264 6.35097
53.9266 6.2431
54.1269 6.14267
54.3274 5.98894
54.528 5.83977
54.7289 5.70097
54.9301 5.53326
55.1314 5.42963
55.3328 5.17263
55.5344 4.9995
55.7361 4.85294