File: XRD/Ni3Fe_FD0192.xy
TT I
1.27165 8.27413
1.45013 6.46163
1.62863 5.49547
1.80712 5.34072
1.98562 4.9047
2.16411 4.8716
2.34263 4.10521
2.52115 4.42698
2.69965 5.27609
2.87818 7.55894
3.05672 11.5176
3.23527 15.2041
3.4138 18.8004
3.59237 22.2444
3.77094 25.4145
3.9495 29.7141
4.12809 34.6424
4.30669 39.7243
4.4853 47.2239
4.6639 56.8847
4.84253 70.4379
5.02118 95.3925
5.19981 631.164
5.37848 340.576
5.55716 111.98
5.73586 100.176
5.91455 109.917
6.09328 3172.83
6.27201 90.268
6.45075 69.6311
6.62952 62.8636
6.8083 58.5233
6.98711 56.3778
7.16591 55.3991
7.34475 55.0062
7.5236 58.1867
7.70247 57.01
7.88135 59.2907
8.06026 64.0506
8.23919 71.7341
8.41812 88.644
8.59709 983.062
8.77609 114.3
8.9551 89.4084
9.13412 85.6109
9.31318 88.6272
9.49226 88.1791
9.67134 93.803
9.85047 104.447
10.0296 563.389
10.2088 743.136
10.388 109.748
10.5672 385.355
10.7465 92.7694
10.9257 79.4765
11.105 73.8397
11.2844 69.7301
11.4637 66.7315
11.6431 65.2853
11.8225 64.2541
12.002 67.6857
12.1814 129.4
12.3609 72.2085
12.5405 66.2613
12.72 68.6868
12.8996 73.5557
13.0792 83.0477
13.2589 218.259
13.4386 171.147
13.6183 209.257
13.7981 128.858
13.9779 79.0641
14.1577 76.3317
14.3376 72.187
14.5175 71.6251
14.6974 73.2054
14.8774 122.62
15.0574 187.537
15.2374 71.5553
15.4175 69.1114
15.5976 68.5148
15.7778 107.919
15.958 179.034
16.1382 63.4946
16.3185 59.4401
16.4988 57.4031
16.6792 56.4684
16.8596 56.4357
17.04 57.62
17.2205 67.6262
17.401 79.2849
17.5815 61.3747
17.7622 63.8192
17.9428 85.1921
18.1237 124.937
18.3044 88.7241
18.4852 88.9826
18.666 62.8459
18.8469 60.3069
19.0278 58.7108
19.2088 63.2912
19.3898 72.7541
19.5709 57.0354
19.752 55.0821
19.9332 59.7414
20.1144 69.8282
20.2957 62.8863
20.477 58.1438
20.6586 51.6097
20.84 50.6724
21.0215 50.6923
21.203 51.5865
21.3846 51.4565
21.5662 50.6044
21.7479 55.1663
21.9297 64.2915
22.1115 56.8092
22.2933 52.532
22.4753 50.4657
22.6572 50.8517
22.8393 53.4627
23.0214 58.6912
23.2037 50.7737
23.3859 52.7386
23.5682 55.5066
23.7505 52.2006
23.9329 46.907
24.1154 45.7747
24.2979 44.9533
24.4805 44.4619
24.6631 44.427
24.8458 43.8469
25.0286 44.3956
25.2114 45.9655
25.3943 45.9438
25.5773 42.7291
25.7605 41.8883
25.9436 42.1383
26.1268 42.7433
26.31 41.7991
26.4933 42.0993
26.6767 43.0072
26.8601 41.9349
27.0437 40.4119
27.2272 39.9336
27.4109 39.6289
27.5946 39.6533
27.7784 39.2939
27.9623 39.4958
28.1462 40.0663
28.3304 38.6661
28.5145 37.1441
28.6987 36.8752
28.8829 36.5279
29.0673 35.9335
29.2517 35.4577
29.4361 35.1165
29.6207 34.3318
29.8053 33.9615
29.99 33.6911
30.1748 33.4488
30.3597 33.3693
30.5447 33.1765
30.7297 33.2614
30.915 32.7824
31.1002 32.2567
31.2855 31.8371
31.4708 31.798
31.6563 31.56
31.8418 30.9398
32.0275 30.8891
32.2132 30.4574
32.399 29.8898
32.5848 29.4682
32.7708 29.075
32.9569 28.9163
33.143 28.6868
33.3293 28.3702
33.5158 27.9907
33.7022 27.454
33.8887 27.222
34.0753 26.989
34.262 26.4622
34.4488 26.114
34.6357 25.7743
34.8227 25.535
35.0098 25.2373
35.1969 25.027
35.3842 24.7336
35.5716 24.4947
35.759 24.1724
35.9468 23.8507
36.1345 23.6361
36.3222 23.3831
36.5101 23.1111
36.6981 22.8211
36.8861 22.492
37.0743 22.1672
37.2626 22.0174
37.451 21.6033
37.6395 21.4672
37.8281 21.1271
38.0168 20.9206
38.2056 20.6105
38.3945 20.3557
38.5837 20.0425
38.7728 19.7807
38.9621 19.5591
39.1514 19.3444
39.3409 19.0314
39.5304 18.7594
39.7201 18.6351
39.9099 18.3982
40.0999 18.1804
40.2899 17.9205
40.48 17.6438
40.6703 17.4658
40.8607 17.2803
41.0512 16.992
41.242 16.7627
41.4327 16.603
41.6236 16.2822
41.8146 16.138
42.0057 15.9419
42.1969 15.7035
42.3882 15.4595
42.5797 15.2952
42.7713 15.1231
42.963 14.8852
43.1549 14.6596
43.3468 14.4165
43.5389 14.2323
43.7312 14.0238
43.9237 13.8144
44.1162 13.6716
44.3088 13.499
44.5016 13.3001
44.6945 13.0901
44.8875 12.9336
45.0806 12.7555
45.2739 12.5685
45.4673 12.416
45.6609 12.2198
45.8546 12.043
46.0484 11.8938
46.2424 11.6968
46.4365 11.5791
46.631 11.3548
46.8254 11.1813
47.0199 11.0335
47.2146 10.8646
47.4095 10.7342
47.6044 10.5484
47.7996 10.4146
47.9948 10.2732
48.1902 10.1028
48.3858 9.93332
48.5815 9.79946
48.7774 9.65397
48.9734 9.56264
49.1696 9.39338
49.3661 9.25842
49.5626 9.06289
49.7592 8.93046
49.956 8.84036
50.153 8.70068
50.3501 8.56025
50.5474 8.43194
50.7448 8.33425
50.9424 8.16677
51.1402 8.09506
51.3381 7.92728
51.5362 7.77961
51.7344 7.66853
51.9328 7.51156
52.1316 7.36968
52.3304 7.29438
52.5293 7.15728
52.7284 7.0685
52.9276 6.93102
53.1271 6.83809
53.3267 6.67395
53.5265 6.58228
53.7264 6.49434
53.9266 6.36423
54.1269 6.23372
54.3274 6.09069
54.528 5.95881
54.7289 5.77369
54.9301 5.59636
55.1314 5.41691
55.3328 5.22311
55.5344 4.95657
55.7361 4.89917