File: XRD/Ni3Fe_FD0421.xy
TT I
1.27165 8.00245
1.45013 6.41083
1.62863 4.94712
1.80712 5.14215
1.98562 4.54386
2.16411 5.16879
2.34263 5.04125
2.52115 6.35122
2.69965 7.70897
2.87818 7.79672
3.05672 11.2487
3.23527 15.2499
3.4138 19.379
3.59237 25.6649
3.77094 26.8404
3.9495 30.4997
4.12809 35.7865
4.30669 296.541
4.4853 74.9847
4.6639 56.3514
4.84253 67.9812
5.02118 88.3395
5.19981 422.101
5.37848 223.197
5.55716 104.817
5.73586 94.2689
5.91455 97.2064
6.09328 3874.58
6.27201 87.8796
6.45075 69.0105
6.62952 65.1522
6.8083 60.6759
6.98711 57.4143
7.16591 56.9486
7.34475 109.537
7.5236 55.9329
7.70247 57.7589
7.88135 58.9665
8.06026 63.4352
8.23919 71.1452
8.41812 87.7643
8.59709 1063.46
8.77609 104.228
8.9551 96.3836
9.13412 83.6627
9.31318 84.1721
9.49226 85.7915
9.67134 103.95
9.85047 102.342
10.0296 351.937
10.2088 504.072
10.388 108.13
10.5672 471.684
10.7465 89.0935
10.9257 80.8939
11.105 73.5244
11.2844 73.4911
11.4637 66.9188
11.6431 65.2566
11.8225 64.0221
12.002 64.8963
12.1814 141.835
12.3609 75.1976
12.5405 66.1188
12.72 72.7935
12.8996 72.4282
13.0792 80.364
13.2589 220.546
13.4386 138.645
13.6183 226.237
13.7981 106.205
13.9779 77.4208
14.1577 74.4942
14.3376 74.3696
14.5175 70.3348
14.6974 72.0247
14.8774 109.006
15.0574 166.227
15.2374 73.5325
15.4175 67.9858
15.5976 67.3489
15.7778 94.6841
15.958 171.688
16.1382 65.3731
16.3185 60.7567
16.4988 56.9872
16.6792 55.9809
16.8596 56.7769
17.04 57.0902
17.2205 66.7175
17.401 74.7924
17.5815 60.742
17.7622 62.4542
17.9428 75.2944
18.1237 137.231
18.3044 88.7317
18.4852 83.089
18.666 61.8891
18.8469 59.3672
19.0278 58.2955
19.2088 60.8307
19.3898 77.797
19.5709 55.6782
19.752 54.3255
19.9332 57.3433
20.1144 70.6176
20.2957 63.4769
20.477 55.8092
20.6586 50.7271
20.84 49.9848
21.0215 49.8412
21.203 51.6703
21.3846 50.2445
21.5662 49.7716
21.7479 53.3141
21.9297 65.4464
22.1115 56.8303
22.2933 51.2671
22.4753 50.0982
22.6572 49.9136
22.8393 52.6063
23.0214 59.1556
23.2037 50.1247
23.3859 50.8643
23.5682 56.8803
23.7505 49.9717
23.9329 46.3175
24.1154 45.0955
24.2979 44.4767
24.4805 43.8486
24.6631 43.9261
24.8458 43.2535
25.0286 43.6852
25.2114 45.5322
25.3943 45.7835
25.5773 41.9537
25.7605 41.2364
25.9436 41.7131
26.1268 42.7906
26.31 41.0652
26.4933 41.4696
26.6767 43.1249
26.8601 41.3636
27.0437 39.6541
27.2272 39.4544
27.4109 39.1407
27.5946 39.331
27.7784 38.611
27.9623 39.065
28.1462 39.7333
28.3304 38.1257
28.5145 36.7772
28.6987 36.5165
28.8829 36.2788
29.0673 35.5429
29.2517 35.0736
29.4361 34.8724
29.6207 34.0466
29.8053 33.6269
29.99 33.3223
30.1748 33.2073
30.3597 33.0091
30.5447 32.9137
30.7297 33.0115
30.915 32.2938
31.1002 31.7939
31.2855 31.6165
31.4708 31.549
31.6563 31.1377
31.8418 30.7633
32.0275 30.6878
32.2132 30.0491
32.399 29.5467
32.5848 29.1628
32.7708 28.8896
32.9569 28.7285
33.143 28.3802
33.3293 28.0723
33.5158 27.7069
33.7022 27.2223
33.8887 26.937
34.0753 26.6735
34.262 26.3167
34.4488 25.9085
34.6357 25.5951
34.8227 25.305
35.0098 25.0729
35.1969 24.7321
35.3842 24.463
35.5716 24.2844
35.759 24.0905
35.9468 23.6282
36.1345 23.4951
36.3222 23.1219
36.5101 22.9227
36.6981 22.6407
36.8861 22.2582
37.0743 21.9404
37.2626 21.7475
37.451 21.4295
37.6395 21.3665
37.8281 20.9374
38.0168 20.644
38.2056 20.3637
38.3945 20.1231
38.5837 19.9169
38.7728 19.7026
38.9621 19.4232
39.1514 19.147
39.3409 18.8586
39.5304 18.7001
39.7201 18.4441
39.9099 18.2473
40.0999 17.9882
40.2899 17.7944
40.48 17.4934
40.6703 17.3275
40.8607 17.1344
41.0512 16.9868
41.242 16.6334
41.4327 16.4135
41.6236 16.2286
41.8146 15.991
42.0057 15.8379
42.1969 15.6274
42.3882 15.3833
42.5797 15.1528
42.7713 14.9866
42.963 14.7823
43.1549 14.5487
43.3468 14.3437
43.5389 14.1451
43.7312 13.9327
43.9237 13.7705
44.1162 13.5376
44.3088 13.4151
44.5016 13.1891
44.6945 13.0091
44.8875 12.8615
45.0806 12.6553
45.2739 12.484
45.4673 12.3314
45.6609 12.0928
45.8546 11.9669
46.0484 11.8013
46.2424 11.6128
46.4365 11.4313
46.631 11.2805
46.8254 11.1287
47.0199 10.9746
47.2146 10.7808
47.4095 10.6234
47.6044 10.4702
47.7996 10.3172
47.9948 10.15
48.1902 10.0099
48.3858 9.89722
48.5815 9.74801
48.7774 9.63548
48.9734 9.50279
49.1696 9.27485
49.3661 9.18403
49.5626 9.03933
49.7592 8.90213
49.956 8.73911
50.153 8.64627
50.3501 8.51574
50.5474 8.38288
50.7448 8.23186
50.9424 8.12672
51.1402 7.99588
51.3381 7.84906
51.5362 7.74262
51.7344 7.59861
51.9328 7.48893
52.1316 7.32844
52.3304 7.21141
52.5293 7.12742
52.7284 6.98076
52.9276 6.87659
53.1271 6.79827
53.3267 6.66436
53.5265 6.54058
53.7264 6.39555
53.9266 6.26864
54.1269 6.20085
54.3274 6.07506
54.528 5.93578
54.7289 5.75704
54.9301 5.58243
55.1314 5.46181
55.3328 5.25839
55.5344 5.06989
55.7361 4.96182