File: XRD/Ni3Fe_FD0473.xy
TT I
1.27165 7.76684
1.45013 6.38331
1.62863 5.05955
1.80712 5.61194
1.98562 4.83802
2.16411 4.48726
2.34263 5.38654
2.52115 7.29051
2.69965 7.52048
2.87818 8.78162
3.05672 11.4504
3.23527 14.9083
3.4138 18.9852
3.59237 23.1651
3.77094 26.0265
3.9495 29.96
4.12809 34.6653
4.30669 118.328
4.4853 55.8227
4.6639 56.5167
4.84253 69.2784
5.02118 89.7604
5.19981 536.838
5.37848 206.13
5.55716 104.898
5.73586 95.0711
5.91455 98.8327
6.09328 4285.01
6.27201 83.2501
6.45075 69.4321
6.62952 63.4172
6.8083 59.5075
6.98711 56.5073
7.16591 56.3137
7.34475 70.927
7.5236 54.9138
7.70247 57.2966
7.88135 58.9364
8.06026 63.3915
8.23919 70.6706
8.41812 86.4169
8.59709 1246.51
8.77609 101.457
8.9551 90.3016
9.13412 84.1767
9.31318 85.1235
9.49226 86.5561
9.67134 96.386
9.85047 102.812
10.0296 412.145
10.2088 402.275
10.388 108.663
10.5672 500.282
10.7465 87.9113
10.9257 78.7059
11.105 72.4117
11.2844 69.9387
11.4637 65.6807
11.6431 64.407
11.8225 63.5467
12.002 65.7625
12.1814 156.149
12.3609 68.823
12.5405 65.5952
12.72 69.3651
12.8996 72.6139
13.0792 82.064
13.2589 252.08
13.4386 124.757
13.6183 254.597
13.7981 97.5233
13.9779 77.2531
14.1577 73.2501
14.3376 71.7997
14.5175 70.2059
14.6974 72.1048
14.8774 118.491
15.0574 146.951
15.2374 70.8872
15.4175 67.5935
15.5976 67.4767
15.7778 101.484
15.958 154.36
16.1382 62.513
16.3185 58.8473
16.4988 56.4882
16.6792 55.3405
16.8596 56.0237
17.04 57.1891
17.2205 68.6694
17.401 71.4773
17.5815 60.2978
17.7622 62.5097
17.9428 77.1025
18.1237 140.517
18.3044 92.2234
18.4852 78.5443
18.666 61.3588
18.8469 58.7626
19.0278 57.715
19.2088 60.9023
19.3898 76.5111
19.5709 55.0714
19.752 54.1414
19.9332 57.805
20.1144 70.4732
20.2957 64.4402
20.477 54.1268
20.6586 50.2562
20.84 49.5524
21.0215 49.6188
21.203 51.496
21.3846 49.8306
21.5662 49.9318
21.7479 54.141
21.9297 65.5682
22.1115 56.6011
22.2933 50.4968
22.4753 49.4678
22.6572 49.7599
22.8393 53.1993
23.0214 57.9143
23.2037 49.6929
23.3859 50.8895
23.5682 57.4626
23.7505 48.8652
23.9329 45.9402
24.1154 44.7284
24.2979 43.9969
24.4805 43.498
24.6631 43.4817
24.8458 42.862
25.0286 43.5638
25.2114 45.3245
25.3943 45.2302
25.5773 41.6096
25.7605 41.102
25.9436 41.6292
26.1268 42.3854
26.31 40.8286
26.4933 41.3734
26.6767 42.8443
26.8601 40.969
27.0437 39.6061
27.2272 39.1281
27.4109 38.9979
27.5946 38.989
27.7784 38.4234
27.9623 38.9263
28.1462 39.4228
28.3304 37.7581
28.5145 36.4726
28.6987 36.1241
28.8829 36.0861
29.0673 35.2281
29.2517 34.7516
29.4361 34.6571
29.6207 33.7137
29.8053 33.2724
29.99 33.1345
30.1748 32.8169
30.3597 32.7198
30.5447 32.8222
30.7297 32.7351
30.915 32.214
31.1002 31.6735
31.2855 31.338
31.4708 31.2515
31.6563 30.7674
31.8418 30.6471
32.0275 30.3401
32.2132 29.8073
32.399 29.4332
32.5848 28.8658
32.7708 28.5925
32.9569 28.5065
33.143 28.2388
33.3293 27.7883
33.5158 27.3459
33.7022 26.9716
33.8887 26.7973
34.0753 26.4175
34.262 25.9989
34.4488 25.6992
34.6357 25.3177
34.8227 25.0736
35.0098 24.8306
35.1969 24.6047
35.3842 24.3364
35.5716 24.1164
35.759 23.7426
35.9468 23.4953
36.1345 23.2108
36.3222 22.989
36.5101 22.8444
36.6981 22.4096
36.8861 22.09
37.0743 21.794
37.2626 21.5707
37.451 21.2871
37.6395 21.1447
37.8281 20.8086
38.0168 20.517
38.2056 20.2099
38.3945 19.9577
38.5837 19.6299
38.7728 19.463
38.9621 19.2413
39.1514 18.9712
39.3409 18.7164
39.5304 18.5052
39.7201 18.3587
39.9099 18.071
40.0999 17.9035
40.2899 17.6287
40.48 17.3466
40.6703 17.1817
40.8607 16.9548
41.0512 16.7259
41.242 16.5108
41.4327 16.3224
41.6236 16.0527
41.8146 15.8376
42.0057 15.6485
42.1969 15.4605
42.3882 15.2616
42.5797 15.0181
42.7713 14.8484
42.963 14.6045
43.1549 14.4174
43.3468 14.2034
43.5389 13.9939
43.7312 13.7677
43.9237 13.6714
44.1162 13.4556
44.3088 13.2277
44.5016 13.0273
44.6945 12.8936
44.8875 12.689
45.0806 12.5137
45.2739 12.3624
45.4673 12.2293
45.6609 12.003
45.8546 11.8638
46.0484 11.6862
46.2424 11.461
46.4365 11.3705
46.631 11.2004
46.8254 10.9962
47.0199 10.8227
47.2146 10.6835
47.4095 10.5146
47.6044 10.3654
47.7996 10.2082
47.9948 10.078
48.1902 9.91792
48.3858 9.76954
48.5815 9.66207
48.7774 9.52876
48.9734 9.37775
49.1696 9.24913
49.3661 9.05804
49.5626 8.95393
49.7592 8.82688
49.956 8.67712
50.153 8.56475
50.3501 8.39627
50.5474 8.27521
50.7448 8.15326
50.9424 8.04299
51.1402 7.9269
51.3381 7.75815
51.5362 7.65049
51.7344 7.50032
51.9328 7.39542
52.1316 7.27548
52.3304 7.15694
52.5293 7.03847
52.7284 6.94848
52.9276 6.80902
53.1271 6.72765
53.3267 6.58085
53.5265 6.44587
53.7264 6.34045
53.9266 6.25691
54.1269 6.16029
54.3274 6.07497
54.528 5.85238
54.7289 5.69534
54.9301 5.59
55.1314 5.43712
55.3328 5.23136
55.5344 5.01076
55.7361 4.86023