File: XRD/Ni3Fe_FD0535.xy
TT I
1.27165 7.15978
1.45013 6.36119
1.62863 5.03701
1.80712 4.90711
1.98562 5.10915
2.16411 4.89145
2.34263 5.32651
2.52115 6.28841
2.69965 7.93666
2.87818 8.43381
3.05672 11.1659
3.23527 14.8437
3.4138 19.1783
3.59237 24.8189
3.77094 26.5465
3.9495 29.986
4.12809 35.9856
4.30669 284.552
4.4853 73.0431
4.6639 55.4293
4.84253 67.9237
5.02118 86.9563
5.19981 369.755
5.37848 207.342
5.55716 103.432
5.73586 92.9639
5.91455 94.4631
6.09328 4109.72
6.27201 85.5642
6.45075 68.5098
6.62952 64.2562
6.8083 59.7921
6.98711 56.8384
7.16591 56.4313
7.34475 106.699
7.5236 55.8867
7.70247 57.1838
7.88135 58.5827
8.06026 62.7499
8.23919 70.2956
8.41812 86.5432
8.59709 1089.85
8.77609 102.084
8.9551 94.8663
9.13412 82.5508
9.31318 83.2112
9.49226 85.1922
9.67134 102.627
9.85047 100.799
10.0296 330.954
10.2088 470.061
10.388 106.539
10.5672 499.269
10.7465 87.6372
10.9257 79.5875
11.105 73.2573
11.2844 72.2392
11.4637 65.8169
11.6431 64.8362
11.8225 63.3154
12.002 64.378
12.1814 147.352
12.3609 73.8945
12.5405 65.4776
12.72 72.0132
12.8996 71.6835
13.0792 79.1303
13.2589 224.264
13.4386 132.705
13.6183 231.653
13.7981 103.2
13.9779 76.575
14.1577 73.5814
14.3376 73.1712
14.5175 69.2587
14.6974 71.1304
14.8774 107.74
15.0574 161.784
15.2374 72.8705
15.4175 67.2243
15.5976 66.465
15.7778 93.4011
15.958 165.635
16.1382 64.3451
16.3185 59.8822
16.4988 56.2365
16.6792 55.1556
16.8596 56.1065
17.04 56.4303
17.2205 66.4475
17.401 73.7805
17.5815 60.0138
17.7622 61.8488
17.9428 73.6715
18.1237 137.832
18.3044 89.2003
18.4852 81.211
18.666 61.3873
18.8469 58.6824
19.0278 57.5935
19.2088 60.2185
19.3898 76.9923
19.5709 55.038
19.752 53.8597
19.9332 56.7684
20.1144 70.3555
20.2957 63.6594
20.477 54.8235
20.6586 50.3564
20.84 49.3343
21.0215 49.333
21.203 51.1793
21.3846 49.6445
21.5662 49.4529
21.7479 52.8553
21.9297 65.1263
22.1115 56.5352
22.2933 50.5872
22.4753 49.7589
22.6572 49.3683
22.8393 52.2307
23.0214 58.3728
23.2037 49.3885
23.3859 50.1304
23.5682 56.7587
23.7505 49.3021
23.9329 45.6665
24.1154 44.6931
24.2979 43.9678
24.4805 43.4002
24.6631 43.3953
24.8458 42.7292
25.0286 43.2255
25.2114 45.1122
25.3943 45.3127
25.5773 41.5029
25.7605 40.987
25.9436 41.3498
26.1268 42.269
26.31 40.5762
26.4933 41.0507
26.6767 42.7154
26.8601 40.8836
27.0437 39.465
27.2272 39.032
27.4109 38.7672
27.5946 38.6976
27.7784 38.2799
27.9623 38.6846
28.1462 39.309
28.3304 37.6424
28.5145 36.4634
28.6987 36.06
28.8829 35.8362
29.0673 35.124
29.2517 34.7325
29.4361 34.5588
29.6207 33.5893
29.8053 33.1923
29.99 32.9888
30.1748 32.7728
30.3597 32.6534
30.5447 32.5632
30.7297 32.5992
30.915 32.099
31.1002 31.4982
31.2855 31.2093
31.4708 31.2255
31.6563 30.7626
31.8418 30.4927
32.0275 30.2664
32.2132 29.7579
32.399 29.2924
32.5848 28.7902
32.7708 28.5104
32.9569 28.4363
33.143 28.1476
33.3293 27.7965
33.5158 27.4144
33.7022 26.8954
33.8887 26.6185
34.0753 26.3158
34.262 25.8789
34.4488 25.598
34.6357 25.3335
34.8227 25.0823
35.0098 24.7346
35.1969 24.5005
35.3842 24.2935
35.5716 24.1696
35.759 23.6989
35.9468 23.3673
36.1345 23.1493
36.3222 22.9113
36.5101 22.7228
36.6981 22.3967
36.8861 22.0667
37.0743 21.7488
37.2626 21.4766
37.451 21.2554
37.6395 21.0943
37.8281 20.7521
38.0168 20.4538
38.2056 20.1657
38.3945 19.8977
38.5837 19.6648
38.7728 19.4312
38.9621 19.1979
39.1514 18.8951
39.3409 18.719
39.5304 18.4463
39.7201 18.284
39.9099 18.0587
40.0999 17.7833
40.2899 17.5585
40.48 17.4125
40.6703 17.1588
40.8607 17.0135
41.0512 16.6969
41.242 16.4607
41.4327 16.2709
41.6236 16.0172
41.8146 15.9151
42.0057 15.6432
42.1969 15.4421
42.3882 15.2358
42.5797 14.9835
42.7713 14.8455
42.963 14.6276
43.1549 14.4199
43.3468 14.208
43.5389 14.0048
43.7312 13.8209
43.9237 13.645
44.1162 13.4383
44.3088 13.235
44.5016 13.0494
44.6945 12.914
44.8875 12.7084
45.0806 12.5274
45.2739 12.3576
45.4673 12.1905
45.6609 11.9612
45.8546 11.8556
46.0484 11.6799
46.2424 11.4948
46.4365 11.3691
46.631 11.1661
46.8254 10.9718
47.0199 10.8276
47.2146 10.7128
47.4095 10.5462
47.6044 10.3771
47.7996 10.2411
47.9948 10.0972
48.1902 9.92603
48.3858 9.81977
48.5815 9.64205
48.7774 9.52791
48.9734 9.36995
49.1696 9.26351
49.3661 9.06315
49.5626 8.91514
49.7592 8.81387
49.956 8.68249
50.153 8.53955
50.3501 8.41573
50.5474 8.32439
50.7448 8.20734
50.9424 8.02167
51.1402 7.90982
51.3381 7.76135
51.5362 7.67105
51.7344 7.52134
51.9328 7.39992
52.1316 7.27206
52.3304 7.16924
52.5293 7.07269
52.7284 6.92936
52.9276 6.84421
53.1271 6.6993
53.3267 6.58394
53.5265 6.45809
53.7264 6.39939
53.9266 6.26118
54.1269 6.11749
54.3274 6.02517
54.528 5.90716
54.7289 5.7516
54.9301 5.5446
55.1314 5.41304
55.3328 5.22663
55.5344 5.01473
55.7361 4.8442