File: XRD/Ni3Fe_FD0597.xy
TT I
1.27165 7.62037
1.45013 6.21899
1.62863 4.79122
1.80712 4.45506
1.98562 4.67709
2.16411 4.82148
2.34263 5.55548
2.52115 6.82369
2.69965 8.05101
2.87818 8.60847
3.05672 10.929
3.23527 15.1092
3.4138 18.7222
3.59237 23.0295
3.77094 25.5269
3.9495 29.7337
4.12809 34.4836
4.30669 103.365
4.4853 54.3776
4.6639 55.7206
4.84253 69.0785
5.02118 88.6395
5.19981 481.198
5.37848 203.272
5.55716 104.015
5.73586 93.9168
5.91455 97.5777
6.09328 4364.83
6.27201 81.8652
6.45075 69.6986
6.62952 62.9826
6.8083 59.4085
6.98711 56.0278
7.16591 56.2945
7.34475 68.3204
7.5236 54.679
7.70247 57.0312
7.88135 58.1593
8.06026 63.0183
8.23919 69.909
8.41812 85.1815
8.59709 1262.4
8.77609 99.6221
8.9551 90.0252
9.13412 83.5121
9.31318 85.3918
9.49226 85.2269
9.67134 95.8027
9.85047 101.836
10.0296 382.498
10.2088 360.911
10.388 107.306
10.5672 512.95
10.7465 87.1065
10.9257 78.2334
11.105 72.0665
11.2844 68.8693
11.4637 65.1571
11.6431 63.804
11.8225 63.0865
12.002 65.037
12.1814 157.039
12.3609 67.2943
12.5405 65.1269
12.72 68.5093
12.8996 72.0396
13.0792 81.5912
13.2589 253.752
13.4386 121.5
13.6183 255.755
13.7981 96.7736
13.9779 76.5157
14.1577 72.4499
14.3376 70.7699
14.5175 69.4281
14.6974 71.5241
14.8774 116.587
15.0574 143.077
15.2374 70.0657
15.4175 66.9373
15.5976 66.6481
15.7778 99.6653
15.958 149.383
16.1382 61.7807
16.3185 58.3599
16.4988 55.8881
16.6792 54.8887
16.8596 55.2816
17.04 56.5898
17.2205 67.9848
17.401 71.2974
17.5815 59.7159
17.7622 61.8649
17.9428 75.6142
18.1237 141.372
18.3044 92.3441
18.4852 76.4247
18.666 60.7469
18.8469 58.5448
19.0278 57.044
19.2088 60.2494
19.3898 75.9402
19.5709 54.5419
19.752 53.796
19.9332 56.942
20.1144 70.2173
20.2957 64.3232
20.477 53.4378
20.6586 49.9423
20.84 49.1573
21.0215 48.8998
21.203 51.2043
21.3846 49.1195
21.5662 49.4028
21.7479 53.4301
21.9297 65.0481
22.1115 56.3575
22.2933 49.9429
22.4753 49.0202
22.6572 49.3753
22.8393 52.6282
23.0214 57.3666
23.2037 49.1388
23.3859 50.2794
23.5682 57.4208
23.7505 48.2114
23.9329 45.5329
24.1154 44.3836
24.2979 43.5238
24.4805 43.2791
24.6631 43.022
24.8458 42.4008
25.0286 43.2314
25.2114 45.0317
25.3943 44.7541
25.5773 41.0614
25.7605 40.6518
25.9436 41.2321
26.1268 41.9072
26.31 40.3154
26.4933 41.1807
26.6767 42.4494
26.8601 40.554
27.0437 39.1551
27.2272 38.8574
27.4109 38.6132
27.5946 38.6764
27.7784 38.1742
27.9623 38.5932
28.1462 39.0441
28.3304 37.2519
28.5145 36.2188
28.6987 35.9515
28.8829 35.7176
29.0673 34.9574
29.2517 34.5201
29.4361 34.3646
29.6207 33.3505
29.8053 33.1021
29.99 32.8362
30.1748 32.6324
30.3597 32.4644
30.5447 32.3406
30.7297 32.4997
30.915 31.7338
31.1002 31.2895
31.2855 31.1265
31.4708 31.0169
31.6563 30.5143
31.8418 30.3856
32.0275 30.0647
32.2132 29.6149
32.399 29.0733
32.5848 28.6828
32.7708 28.3027
32.9569 28.2042
33.143 27.9418
33.3293 27.6429
33.5158 27.1927
33.7022 26.7549
33.8887 26.4557
34.0753 26.0872
34.262 25.7653
34.4488 25.4875
34.6357 25.0786
34.8227 24.8143
35.0098 24.57
35.1969 24.4021
35.3842 24.0802
35.5716 23.8986
35.759 23.574
35.9468 23.2537
36.1345 23.0398
36.3222 22.7689
36.5101 22.5578
36.6981 22.191
36.8861 21.9267
37.0743 21.6139
37.2626 21.421
37.451 21.0945
37.6395 20.9241
37.8281 20.5982
38.0168 20.3376
38.2056 20.1028
38.3945 19.7656
38.5837 19.623
38.7728 19.2762
38.9621 19.0833
39.1514 18.8621
39.3409 18.543
39.5304 18.3523
39.7201 18.1868
39.9099 17.9166
40.0999 17.6245
40.2899 17.449
40.48 17.2274
40.6703 17.0031
40.8607 16.8278
41.0512 16.5817
41.242 16.393
41.4327 16.1514
41.6236 15.9158
41.8146 15.7643
42.0057 15.4792
42.1969 15.2368
42.3882 15.1189
42.5797 14.9171
42.7713 14.6799
42.963 14.5055
43.1549 14.3005
43.3468 14.1001
43.5389 13.8594
43.7312 13.7184
43.9237 13.5283
44.1162 13.3279
44.3088 13.1467
44.5016 12.964
44.6945 12.7767
44.8875 12.5915
45.0806 12.4472
45.2739 12.3006
45.4673 12.0691
45.6609 11.944
45.8546 11.8057
46.0484 11.5771
46.2424 11.4447
46.4365 11.3019
46.631 11.0855
46.8254 10.9443
47.0199 10.7754
47.2146 10.6222
47.4095 10.4395
47.6044 10.3297
47.7996 10.1746
47.9948 10.0206
48.1902 9.78459
48.3858 9.77678
48.5815 9.56611
48.7774 9.40923
48.9734 9.30945
49.1696 9.16965
49.3661 9.02176
49.5626 8.84443
49.7592 8.74606
49.956 8.60284
50.153 8.51094
50.3501 8.32425
50.5474 8.2361
50.7448 8.08781
50.9424 7.98447
51.1402 7.83608
51.3381 7.70093
51.5362 7.57666
51.7344 7.45592
51.9328 7.34696
52.1316 7.18274
52.3304 7.08182
52.5293 6.93095
52.7284 6.88984
52.9276 6.76215
53.1271 6.64603
53.3267 6.5528
53.5265 6.36756
53.7264 6.32445
53.9266 6.20167
54.1269 6.097
54.3274 5.99593
54.528 5.81451
54.7289 5.68152
54.9301 5.50969
55.1314 5.3806
55.3328 5.18436
55.5344 4.94979
55.7361 4.84138