File: XRD/Ni3Fe_FD0847.xy
TT I
1.27165 7.12335
1.45013 6.23175
1.62863 4.97504
1.80712 4.94694
1.98562 4.54815
2.16411 5.57322
2.34263 5.99925
2.52115 6.47398
2.69965 8.52087
2.87818 8.78379
3.05672 10.8645
3.23527 15.3845
3.4138 18.7582
3.59237 23.6376
3.77094 25.8662
3.9495 29.7109
4.12809 34.4211
4.30669 193.802
4.4853 62.9528
4.6639 54.4666
4.84253 66.5811
5.02118 85.5389
5.19981 303.417
5.37848 176.251
5.55716 100.885
5.73586 90.8815
5.91455 92.0443
6.09328 4404.22
6.27201 80.8583
6.45075 66.455
6.62952 62.186
6.8083 57.7935
6.98711 54.9988
7.16591 55.1233
7.34475 85.5809
7.5236 53.9402
7.70247 55.6917
7.88135 57.1805
8.06026 61.7969
8.23919 68.5124
8.41812 83.9688
8.59709 1165.74
8.77609 97.4392
8.9551 90.0796
9.13412 81.1268
9.31318 81.7699
9.49226 83.4676
9.67134 96.6032
9.85047 98.7119
10.0296 317.94
10.2088 395.82
10.388 103.034
10.5672 533.902
10.7465 85.4138
10.9257 77.3266
11.105 70.9317
11.2844 69.2666
11.4637 64.0263
11.6431 62.7848
11.8225 61.65
12.002 62.4891
12.1814 154.663
12.3609 68.8551
12.5405 63.6418
12.72 68.781
12.8996 69.879
13.0792 77.8687
13.2589 238.485
13.4386 121.222
13.6183 251.738
13.7981 96.122
13.9779 74.9311
14.1577 71.4581
14.3376 70.418
14.5175 67.8866
14.6974 69.7644
14.8774 107.744
15.0574 147.025
15.2374 70.0612
15.4175 65.5932
15.5976 64.9982
15.7778 92.7939
15.958 150.642
16.1382 61.6657
16.3185 57.9274
16.4988 54.9802
16.6792 53.919
16.8596 54.607
17.04 55.2059
17.2205 65.835
17.401 70.136
17.5815 58.5252
17.7622 60.4857
17.9428 71.7803
18.1237 137.447
18.3044 90.8223
18.4852 75.8597
18.666 59.4113
18.8469 57.2935
19.0278 56.0982
19.2088 58.5828
19.3898 75.736
19.5709 53.351
19.752 52.6413
19.9332 55.3283
20.1144 68.9575
20.2957 63.9789
20.477 52.9527
20.6586 48.9966
20.84 48.3218
21.0215 47.9764
21.203 50.3874
21.3846 48.3832
21.5662 48.0754
21.7479 51.8015
21.9297 63.482
22.1115 55.3682
22.2933 49.1401
22.4753 48.2187
22.6572 48.1031
22.8393 51.328
23.0214 56.5998
23.2037 48.1525
23.3859 48.9433
23.5682 56.4404
23.7505 47.8201
23.9329 44.7163
24.1154 43.5493
24.2979 42.9385
24.4805 42.3794
24.6631 42.1479
24.8458 41.6883
25.0286 42.3777
25.2114 44.119
25.3943 44.0419
25.5773 40.4059
25.7605 40.119
25.9436 40.3907
26.1268 41.1577
26.31 39.5768
26.4933 40.2466
26.6767 41.6591
26.8601 39.9654
27.0437 38.2996
27.2272 38.0887
27.4109 37.9234
27.5946 37.9007
27.7784 37.379
27.9623 37.9288
28.1462 38.2862
28.3304 36.6839
28.5145 35.4566
28.6987 35.2484
28.8829 34.9788
29.0673 34.2483
29.2517 34.0418
29.4361 33.7259
29.6207 32.8068
29.8053 32.4809
29.99 32.2215
30.1748 32.0966
30.3597 31.8052
30.5447 31.7761
30.7297 31.7906
30.915 31.2109
31.1002 30.7816
31.2855 30.4775
31.4708 30.5108
31.6563 29.9527
31.8418 29.756
32.0275 29.5813
32.2132 29.0514
32.399 28.627
32.5848 28.1718
32.7708 27.7345
32.9569 27.6716
33.143 27.4661
33.3293 27.107
33.5158 26.7437
33.7022 26.3365
33.8887 26.0503
34.0753 25.7349
34.262 25.3531
34.4488 25.0602
34.6357 24.7026
34.8227 24.4856
35.0098 24.1497
35.1969 23.9658
35.3842 23.7525
35.5716 23.5105
35.759 23.2914
35.9468 22.8687
36.1345 22.7067
36.3222 22.3607
36.5101 22.213
36.6981 21.8121
36.8861 21.509
37.0743 21.3001
37.2626 21.0362
37.451 20.7802
37.6395 20.663
37.8281 20.2201
38.0168 19.9786
38.2056 19.6994
38.3945 19.5402
38.5837 19.2455
38.7728 19.0083
38.9621 18.7102
39.1514 18.5042
39.3409 18.3128
39.5304 18.0232
39.7201 17.8989
39.9099 17.6288
40.0999 17.3519
40.2899 17.1715
40.48 16.9019
40.6703 16.7024
40.8607 16.5274
41.0512 16.332
41.242 16.0494
41.4327 15.9067
41.6236 15.6552
41.8146 15.4627
42.0057 15.2362
42.1969 15.0382
42.3882 14.9092
42.5797 14.6418
42.7713 14.5097
42.963 14.2154
43.1549 14.0609
43.3468 13.8339
43.5389 13.7007
43.7312 13.4775
43.9237 13.3261
44.1162 13.0728
44.3088 12.9555
44.5016 12.7438
44.6945 12.5243
44.8875 12.4234
45.0806 12.2675
45.2739 12.1021
45.4673 11.9123
45.6609 11.7333
45.8546 11.5754
46.0484 11.4119
46.2424 11.2276
46.4365 11.1019
46.631 10.9385
46.8254 10.7455
47.0199 10.5625
47.2146 10.4685
47.4095 10.3057
47.6044 10.1213
47.7996 9.99063
47.9948 9.87714
48.1902 9.70138
48.3858 9.56571
48.5815 9.40131
48.7774 9.25783
48.9734 9.12758
49.1696 8.99852
49.3661 8.83261
49.5626 8.74697
49.7592 8.61786
49.956 8.48069
50.153 8.34343
50.3501 8.21947
50.5474 8.07128
50.7448 7.96704
50.9424 7.83694
51.1402 7.7229
51.3381 7.62364
51.5362 7.47749
51.7344 7.33855
51.9328 7.22986
52.1316 7.07448
52.3304 6.99203
52.5293 6.87006
52.7284 6.7784
52.9276 6.63264
53.1271 6.55954
53.3267 6.38149
53.5265 6.29338
53.7264 6.22525
53.9266 6.1163
54.1269 5.98229
54.3274 5.88326
54.528 5.72508
54.7289 5.62662
54.9301 5.40206
55.1314 5.34538
55.3328 5.05824
55.5344 4.96286
55.7361 4.82084