File: XRD/Ni3Fe_FD0267.xy
TT I
1.27165 7.68115
1.45013 6.67115
1.62863 5.7126
1.80712 4.77954
1.98562 5.07528
2.16411 4.56009
2.34263 5.30288
2.52115 5.29384
2.69965 6.8999
2.87818 8.08002
3.05672 11.1533
3.23527 15.3243
3.4138 18.7907
3.59237 24.3417
3.77094 26.738
3.9495 30.1249
4.12809 35.8111
4.30669 174.902
4.4853 62.7849
4.6639 57.4253
4.84253 70.6654
5.02118 93.7539
5.19981 546.261
5.37848 266.689
5.55716 109.978
5.73586 98.4301
5.91455 104.027
6.09328 3718.29
6.27201 90.0615
6.45075 71.0668
6.62952 65.8683
6.8083 61.2054
6.98711 57.8308
7.16591 57.5968
7.34475 85.2886
7.5236 56.8875
7.70247 58.4806
7.88135 59.9496
8.06026 65.0749
8.23919 72.6086
8.41812 90.1614
8.59709 1097.45
8.77609 110.281
8.9551 95.1105
9.13412 86.1387
9.31318 87.3909
9.49226 88.5603
9.67134 101.175
9.85047 105.353
10.0296 439.38
10.2088 598.564
10.388 111.176
10.5672 461.072
10.7465 91.7219
10.9257 81.6477
11.105 75.0779
11.2844 72.6397
11.4637 67.7416
11.6431 66.4276
11.8225 65.1633
12.002 66.8577
12.1814 144.146
12.3609 74.6959
12.5405 67.5177
12.72 72.3373
12.8996 74.2583
13.0792 82.9692
13.2589 229.53
13.4386 151.84
13.6183 229.95
13.7981 113.504
13.9779 79.4204
14.1577 75.5301
14.3376 74.41
14.5175 71.9118
14.6974 73.6286
14.8774 116.416
15.0574 176.529
15.2374 73.8539
15.4175 69.3524
15.5976 68.8188
15.7778 100.772
15.958 174.356
16.1382 65.2463
16.3185 60.914
16.4988 58.0317
16.6792 56.7237
16.8596 57.6202
17.04 58.3999
17.2205 68.7166
17.401 77.4667
17.5815 61.8817
17.7622 64.0042
17.9428 80.0551
18.1237 136.12
18.3044 91.0505
18.4852 85.8563
18.666 63.2515
18.8469 60.5812
19.0278 59.4848
19.2088 62.5951
19.3898 77.0797
19.5709 57.0531
19.752 55.5922
19.9332 59.2369
20.1144 71.8057
20.2957 64.7491
20.477 57.3236
20.6586 51.8132
20.84 50.9199
21.0215 50.9304
21.203 52.5229
21.3846 51.5558
21.5662 51.0104
21.7479 54.9941
21.9297 66.2982
22.1115 57.8182
22.2933 52.7833
22.4753 50.9984
22.6572 51.1033
22.8393 53.9838
23.0214 59.5786
23.2037 51.1697
23.3859 52.4638
23.5682 57.6234
23.7505 51.5211
23.9329 47.1287
24.1154 46.0464
24.2979 45.3345
24.4805 44.7976
24.6631 44.7374
24.8458 44.026
25.0286 44.6076
25.2114 46.2699
25.3943 46.3839
25.5773 42.7616
25.7605 42.2895
25.9436 42.4619
26.1268 43.4075
26.31 41.9503
26.4933 42.3538
26.6767 43.7888
26.8601 42.2608
27.0437 40.5999
27.2272 40.1844
27.4109 40.0707
27.5946 40.0472
27.7784 39.5689
27.9623 39.8086
28.1462 40.4293
28.3304 38.9275
28.5145 37.4454
28.6987 37.209
28.8829 36.8141
29.0673 36.2589
29.2517 35.6307
29.4361 35.5111
29.6207 34.5955
29.8053 34.3505
29.99 34.0048
30.1748 33.7637
30.3597 33.7127
30.5447 33.5442
30.7297 33.4836
30.915 33.0083
31.1002 32.4598
31.2855 32.1759
31.4708 31.9969
31.6563 31.6785
31.8418 31.3817
32.0275 31.2627
32.2132 30.5875
32.399 30.152
32.5848 29.6941
32.7708 29.371
32.9569 29.2336
33.143 28.9501
33.3293 28.5269
33.5158 28.2193
33.7022 27.6604
33.8887 27.4402
34.0753 27.0842
34.262 26.7598
34.4488 26.3851
34.6357 26.0456
34.8227 25.7525
35.0098 25.5741
35.1969 25.2734
35.3842 25.0516
35.5716 24.7082
35.759 24.4859
35.9468 24.0733
36.1345 23.8376
36.3222 23.6968
36.5101 23.349
36.6981 23.0872
36.8861 22.8036
37.0743 22.4389
37.2626 22.1774
37.451 21.9137
37.6395 21.7326
37.8281 21.4373
38.0168 21.0637
38.2056 20.8257
38.3945 20.5143
38.5837 20.2305
38.7728 20.0208
38.9621 19.7182
39.1514 19.5181
39.3409 19.2874
39.5304 19.0997
39.7201 18.8509
39.9099 18.6197
40.0999 18.3457
40.2899 18.0905
40.48 17.7886
40.6703 17.6316
40.8607 17.4493
41.0512 17.2256
41.242 16.9704
41.4327 16.711
41.6236 16.5291
41.8146 16.3539
42.0057 16.1199
42.1969 15.8641
42.3882 15.6722
42.5797 15.5019
42.7713 15.2559
42.963 15.0797
43.1549 14.8057
43.3468 14.6078
43.5389 14.3813
43.7312 14.2083
43.9237 13.9909
44.1162 13.8408
44.3088 13.6363
44.5016 13.4216
44.6945 13.2973
44.8875 13.095
45.0806 12.8654
45.2739 12.7107
45.4673 12.5398
45.6609 12.3588
45.8546 12.2262
46.0484 12.0376
46.2424 11.8546
46.4365 11.6684
46.631 11.4648
46.8254 11.3211
47.0199 11.1487
47.2146 11.0243
47.4095 10.8013
47.6044 10.6748
47.7996 10.5032
47.9948 10.3179
48.1902 10.2111
48.3858 10.0481
48.5815 9.919
48.7774 9.83057
48.9734 9.63558
49.1696 9.50385
49.3661 9.33707
49.5626 9.17174
49.7592 9.05423
49.956 8.89944
50.153 8.79689
50.3501 8.65868
50.5474 8.50718
50.7448 8.43232
50.9424 8.25223
51.1402 8.17221
51.3381 7.98492
51.5362 7.87127
51.7344 7.715
51.9328 7.5856
52.1316 7.47246
52.3304 7.35571
52.5293 7.21686
52.7284 7.1396
52.9276 6.97915
53.1271 6.89591
53.3267 6.77264
53.5265 6.63865
53.7264 6.55378
53.9266 6.42374
54.1269 6.24961
54.3274 6.18585
54.528 6.00578
54.7289 5.82268
54.9301 5.65963
55.1314 5.58888
55.3328 5.32241
55.5344 5.11758
55.7361 4.96755