File: XRD/Ni3Fe_FD0314.xy
TT I
1.27165 7.47754
1.45013 6.70942
1.62863 5.86853
1.80712 4.8449
1.98562 4.7397
2.16411 4.70344
2.34263 5.26133
2.52115 5.54684
2.69965 6.93248
2.87818 8.43746
3.05672 11.0468
3.23527 14.6933
3.4138 19.1422
3.59237 24.6375
3.77094 26.9296
3.9495 30.4753
4.12809 35.3814
4.30669 264.074
4.4853 71.2043
4.6639 56.6166
4.84253 69.0214
5.02118 90.8666
5.19981 491.243
5.37848 236.436
5.55716 106.45
5.73586 95.75
5.91455 99.9824
6.09328 3868.03
6.27201 87.5894
6.45075 69.6136
6.62952 65.0162
6.8083 60.6691
6.98711 57.7553
7.16591 57.4773
7.34475 103.992
7.5236 56.0565
7.70247 58.2063
7.88135 59.4131
8.06026 63.9873
8.23919 71.6394
8.41812 89.2656
8.59709 1065.06
8.77609 105.571
8.9551 95.6518
9.13412 84.4216
9.31318 85.2701
9.49226 86.7675
9.67134 102.987
9.85047 103.255
10.0296 378.101
10.2088 519.12
10.388 109.409
10.5672 478.577
10.7465 89.7829
10.9257 81.1151
11.105 74.2891
11.2844 73.2739
11.4637 66.8084
11.6431 65.7221
11.8225 64.393
12.002 65.703
12.1814 143.258
12.3609 74.913
12.5405 66.55
12.72 72.8239
12.8996 73.0973
13.0792 81.6301
13.2589 223.891
13.4386 138.056
13.6183 225.402
13.7981 105.898
13.9779 78.0119
14.1577 74.7275
14.3376 74.2841
14.5175 70.7218
14.6974 72.6343
14.8774 111.042
15.0574 164.156
15.2374 74.0008
15.4175 68.3436
15.5976 67.702
15.7778 96.4227
15.958 174.545
16.1382 65.1949
16.3185 60.8951
16.4988 57.3492
16.6792 56.1808
16.8596 57.1236
17.04 57.5146
17.2205 67.5914
17.401 75.3351
17.5815 61.0649
17.7622 62.9846
17.9428 77.2263
18.1237 140.794
18.3044 89.9465
18.4852 82.8511
18.666 62.2661
18.8469 59.9008
19.0278 58.7665
19.2088 61.4996
19.3898 78.502
19.5709 56.066
19.752 54.9895
19.9332 58.0432
20.1144 71.9023
20.2957 64.3907
20.477 55.8731
20.6586 51.0867
20.84 50.3508
21.0215 50.3318
21.203 52.0985
21.3846 50.7196
21.5662 50.2014
21.7479 53.985
21.9297 66.6534
22.1115 57.3271
22.2933 51.7825
22.4753 50.5714
22.6572 50.4694
22.8393 53.0897
23.0214 59.9847
23.2037 50.4156
23.3859 51.2698
23.5682 57.8385
23.7505 50.3749
23.9329 46.7451
24.1154 45.5439
24.2979 44.8513
24.4805 44.4135
24.6631 44.2879
24.8458 43.723
25.0286 44.1492
25.2114 45.9546
25.3943 46.3162
25.5773 42.2932
25.7605 41.793
25.9436 42.1376
26.1268 43.0577
26.31 41.5585
26.4933 42.0764
26.6767 43.5478
26.8601 41.8748
27.0437 40.1136
27.2272 39.7615
27.4109 39.5914
27.5946 39.6043
27.7784 39.0898
27.9623 39.4467
28.1462 40.0742
28.3304 38.537
28.5145 37.1034
28.6987 36.552
28.8829 36.5594
29.0673 35.7387
29.2517 35.4212
29.4361 35.2783
29.6207 34.2372
29.8053 33.9339
29.99 33.6881
30.1748 33.4353
30.3597 33.3443
30.5447 33.097
30.7297 33.1889
30.915 32.673
31.1002 32.2321
31.2855 31.97
31.4708 31.7935
31.6563 31.2344
31.8418 31.0694
32.0275 30.8982
32.2132 30.34
32.399 29.8906
32.5848 29.4679
32.7708 29.0398
32.9569 28.8557
33.143 28.6431
33.3293 28.1557
33.5158 27.9279
33.7022 27.5111
33.8887 27.1497
34.0753 26.8641
34.262 26.4667
34.4488 26.1053
34.6357 25.7387
34.8227 25.4056
35.0098 25.2765
35.1969 24.9453
35.3842 24.7267
35.5716 24.5125
35.759 24.2336
35.9468 23.8681
36.1345 23.6798
36.3222 23.3952
36.5101 23.0319
36.6981 22.8008
36.8861 22.5308
37.0743 22.1784
37.2626 21.9868
37.451 21.6293
37.6395 21.5079
37.8281 21.2553
38.0168 20.8834
38.2056 20.6087
38.3945 20.3938
38.5837 20.1097
38.7728 19.8197
38.9621 19.5262
39.1514 19.3257
39.3409 19.0719
39.5304 18.8438
39.7201 18.6887
39.9099 18.3849
40.0999 18.2192
40.2899 17.9333
40.48 17.7201
40.6703 17.4243
40.8607 17.2747
41.0512 17.0625
41.242 16.8007
41.4327 16.6241
41.6236 16.3906
41.8146 16.1349
42.0057 15.9046
42.1969 15.7363
42.3882 15.5807
42.5797 15.2773
42.7713 15.0912
42.963 14.9172
43.1549 14.6658
43.3468 14.4722
43.5389 14.2915
43.7312 14.0543
43.9237 13.8671
44.1162 13.7237
44.3088 13.5362
44.5016 13.3136
44.6945 13.1397
44.8875 12.984
45.0806 12.7669
45.2739 12.5977
45.4673 12.4158
45.6609 12.2403
45.8546 12.0939
46.0484 11.8603
46.2424 11.7181
46.4365 11.6001
46.631 11.3554
46.8254 11.2221
47.0199 11.0282
47.2146 10.8951
47.4095 10.7239
47.6044 10.5758
47.7996 10.4158
47.9948 10.2367
48.1902 10.1096
48.3858 9.98185
48.5815 9.87931
48.7774 9.67806
48.9734 9.57025
49.1696 9.39219
49.3661 9.22971
49.5626 9.09672
49.7592 8.99091
49.956 8.83819
50.153 8.71341
50.3501 8.55335
50.5474 8.45112
50.7448 8.32815
50.9424 8.19793
51.1402 8.07025
51.3381 7.91992
51.5362 7.82528
51.7344 7.64698
51.9328 7.54727
52.1316 7.40453
52.3304 7.28933
52.5293 7.16336
52.7284 7.08071
52.9276 6.94234
53.1271 6.84162
53.3267 6.69915
53.5265 6.58955
53.7264 6.48541
53.9266 6.34894
54.1269 6.22849
54.3274 6.09719
54.528 6.01699
54.7289 5.80199
54.9301 5.58885
55.1314 5.54527
55.3328 5.28443
55.5344 5.08679
55.7361 4.99282