File: XRD/Ni3Fe_FD0068.xy
TT I
1.27165 29.6586
1.45013 24.0764
1.62863 20.6605
1.80712 18.7687
1.98562 17.1436
2.16411 18.0581
2.34263 17.8616
2.52115 19.5041
2.69965 22.2666
2.87818 32.0623
3.05672 56.135
3.23527 54.4429
3.4138 29.4219
3.59237 25.0442
3.77094 24.8194
3.9495 26.1489
4.12809 28.99
4.30669 36.9106
4.4853 37.8482
4.6639 44.3464
4.84253 57.6356
5.02118 105.128
5.19981 385.218
5.37848 2415.99
5.55716 142.739
5.73586 102.966
5.91455 124.599
6.09328 697.698
6.27201 179.191
6.45075 63.118
6.62952 48.4648
6.8083 43.2705
6.98711 42.1026
7.16591 42.6513
7.34475 40.5705
7.5236 71.3573
7.70247 43.3248
7.88135 40.7436
8.06026 42.919
8.23919 48.9784
8.41812 63.6464
8.59709 228.33
8.77609 253.441
8.9551 73.66
9.13412 67.6741
9.31318 245.425
9.49226 61.2496
9.67134 61.4692
9.85047 68.6045
10.0296 162.157
10.2088 727.445
10.388 91.932
10.5672 108.322
10.7465 147.002
10.9257 53.3197
11.105 47.5953
11.2844 44.6549
11.4637 42.2963
11.6431 41.6834
11.8225 42.3197
12.002 108.571
12.1814 53.7944
12.3609 74.0481
12.5405 43.2021
12.72 42.231
12.8996 44.0564
13.0792 53.088
13.2589 75.4432
13.4386 186.195
13.6183 80.2418
13.7981 163.111
13.9779 53.7949
14.1577 76.7318
14.3376 47.0177
14.5175 44.3021
14.6974 44.2253
14.8774 54.2428
15.0574 91.0987
15.2374 52.6534
15.4175 43.372
15.5976 42.6598
15.7778 50.2862
15.958 74.157
16.1382 62.5349
16.3185 38.7827
16.4988 36.067
16.6792 35.1516
16.8596 35.3127
17.04 39.103
17.2205 37.3296
17.401 44.335
17.5815 38.6744
17.7622 40.6777
17.9428 43.4895
18.1237 48.5089
18.3044 66.6534
18.4852 58.6439
18.666 43.8498
18.8469 37.8354
19.0278 36.4938
19.2088 37.233
19.3898 46.7963
19.5709 41.2109
19.752 34.577
19.9332 34.6423
20.1144 35.6584
20.2957 39.9412
20.477 39.5819
20.6586 32.8404
20.84 34.8522
21.0215 31.1318
21.203 30.883
21.3846 32.1377
21.5662 31.6788
21.7479 32.015
21.9297 33.165
22.1115 38.506
22.2933 35.4987
22.4753 31.581
22.6572 31.0141
22.8393 32.4299
23.0214 32.3919
23.2037 34.4548
23.3859 31.9821
23.5682 32.1635
23.7505 35.7615
23.9329 30.4109
24.1154 29.2185
24.2979 28.2349
24.4805 27.792
24.6631 28.1999
24.8458 27.5067
25.0286 27.3014
25.2114 27.435
25.3943 27.9982
25.5773 28.0119
25.7605 26.4773
25.9436 26.3634
26.1268 26.0019
26.31 26.644
26.4933 25.8879
26.6767 25.7714
26.8601 26.9338
27.0437 26.343
27.2272 25.2396
27.4109 24.8291
27.5946 24.7947
27.7784 24.8273
27.9623 24.5125
28.1462 24.7428
28.3304 24.784
28.5145 23.9462
28.6987 23.3261
28.8829 22.8936
29.0673 22.7377
29.2517 22.3765
29.4361 22.0788
29.6207 21.9665
29.8053 21.5645
29.99 21.3235
30.1748 21.1613
30.3597 20.9963
30.5447 20.86
30.7297 20.7171
30.915 20.8481
31.1002 20.6571
31.2855 20.1992
31.4708 20.0183
31.6563 19.9873
31.8418 19.809
32.0275 19.4973
32.2132 19.5331
32.399 19.189
32.5848 18.7825
32.7708 18.5707
32.9569 18.4501
33.143 18.2387
33.3293 18.0622
33.5158 17.9303
33.7022 17.5765
33.8887 17.4365
34.0753 17.2502
34.262 16.9722
34.4488 16.8095
34.6357 16.5957
34.8227 16.3211
35.0098 16.257
35.1969 16.0825
35.3842 15.8572
35.5716 15.7628
35.759 15.6168
35.9468 15.3696
36.1345 15.181
36.3222 15.0815
36.5101 14.9433
36.6981 14.7549
36.8861 14.5175
37.0743 14.3492
37.2626 14.1931
37.451 14.0635
37.6395 13.8974
37.8281 13.6781
38.0168 13.4731
38.2056 13.3617
38.3945 13.1581
38.5837 12.9961
38.7728 12.8947
38.9621 12.7075
39.1514 12.5321
39.3409 12.329
39.5304 12.2439
39.7201 12.1209
39.9099 11.9791
40.0999 11.834
40.2899 11.7058
40.48 11.5253
40.6703 11.3626
40.8607 11.2769
41.0512 11.1117
41.242 10.9726
41.4327 10.8465
41.6236 10.6929
41.8146 10.5392
42.0057 10.4493
42.1969 10.277
42.3882 10.1776
42.5797 10.0234
42.7713 9.94244
42.963 9.73598
43.1549 9.6233
43.3468 9.47837
43.5389 9.32644
43.7312 9.2597
43.9237 9.13154
44.1162 9.01156
44.3088 8.89981
44.5016 8.79996
44.6945 8.67277
44.8875 8.54302
45.0806 8.4347
45.2739 8.32573
45.4673 8.2079
45.6609 8.0813
45.8546 7.99768
46.0484 7.88544
46.2424 7.72279
46.4365 7.64911
46.631 7.54464
46.8254 7.40896
47.0199 7.31002
47.2146 7.19741
47.4095 7.13225
47.6044 7.00488
47.7996 6.88424
47.9948 6.81474
48.1902 6.70762
48.3858 6.64967
48.5815 6.55735
48.7774 6.43967
48.9734 6.3853
49.1696 6.28148
49.3661 6.18054
49.5626 6.07738
49.7592 5.99143
49.956 5.90797
50.153 5.82144
50.3501 5.72435
50.5474 5.63865
50.7448 5.57923
50.9424 5.52482
51.1402 5.42263
51.3381 5.34237
51.5362 5.24589
51.7344 5.17449
51.9328 5.10016
52.1316 4.97856
52.3304 4.94265
52.5293 4.83129
52.7284 4.76022
52.9276 4.67348
53.1271 4.64593
53.3267 4.56031
53.5265 4.47183
53.7264 4.40434
53.9266 4.29523
54.1269 4.23404
54.3274 4.16143
54.528 4.02517
54.7289 3.87531
54.9301 3.75493
55.1314 3.66538
55.3328 3.46068
55.5344 3.34712
55.7361 3.27208