File: XRD/Ni3Fe_FD0728.xy
TT I
1.27165 7.48816
1.45013 6.91562
1.62863 5.16215
1.80712 5.32765
1.98562 4.79981
2.16411 5.3496
2.34263 5.76918
2.52115 6.71228
2.69965 8.40081
2.87818 8.42769
3.05672 11.1325
3.23527 15.2316
3.4138 19.0113
3.59237 23.424
3.77094 26.0405
3.9495 29.7054
4.12809 34.5886
4.30669 192.614
4.4853 62.8078
4.6639 55.406
4.84253 66.4926
5.02118 86.1729
5.19981 329.866
5.37848 185.509
5.55716 101.389
5.73586 91.3872
5.91455 93.3456
6.09328 4480.25
6.27201 82.155
6.45075 67.0297
6.62952 62.3567
6.8083 58.4778
6.98711 55.5609
7.16591 54.9441
7.34475 85.6009
7.5236 54.6207
7.70247 55.9458
7.88135 57.2854
8.06026 61.9153
8.23919 68.9776
8.41812 84.494
8.59709 1186.16
8.77609 98.6274
8.9551 90.4347
9.13412 81.6007
9.31318 82.0023
9.49226 84.2663
9.67134 97.3534
9.85047 99.2296
10.0296 336.815
10.2088 411.512
10.388 103.906
10.5672 514.982
10.7465 86.1487
10.9257 77.9121
11.105 71.5727
11.2844 69.594
11.4637 64.6452
11.6431 63.251
11.8225 62.1858
12.002 63.2098
12.1814 155.26
12.3609 69.7727
12.5405 64.4338
12.72 69.1686
12.8996 70.5084
13.0792 78.282
13.2589 241.444
13.4386 127.077
13.6183 250.265
13.7981 97.5127
13.9779 75.7321
14.1577 71.9126
14.3376 71.4657
14.5175 68.4579
14.6974 69.8984
14.8774 110.155
15.0574 148.371
15.2374 70.6198
15.4175 66.1056
15.5976 65.4316
15.7778 94.6558
15.958 153.826
16.1382 62.2615
16.3185 58.3348
16.4988 55.2764
16.6792 54.1579
16.8596 54.9228
17.04 55.3553
17.2205 66.6637
17.401 70.5463
17.5815 58.7849
17.7622 61.0619
17.9428 73.0912
18.1237 138.579
18.3044 91.2025
18.4852 77.3861
18.666 60.3028
18.8469 57.9698
19.0278 56.4479
19.2088 59.4397
19.3898 75.7659
19.5709 53.9147
19.752 53.0889
19.9332 55.9144
20.1144 69.6133
20.2957 63.767
20.477 53.6076
20.6586 49.3844
20.84 48.6871
21.0215 48.4425
21.203 50.7422
21.3846 48.6565
21.5662 48.5455
21.7479 52.4436
21.9297 64.3356
22.1115 55.9635
22.2933 49.812
22.4753 48.6632
22.6572 48.61
22.8393 51.9202
23.0214 57.0664
23.2037 48.6391
23.3859 49.5688
23.5682 56.9148
23.7505 48.2581
23.9329 45.146
24.1154 43.9255
24.2979 43.3515
24.4805 42.737
24.6631 42.6694
24.8458 42.196
25.0286 42.7281
25.2114 44.5435
25.3943 44.4791
25.5773 40.6358
25.7605 40.3714
25.9436 40.7041
26.1268 41.5988
26.31 39.9703
26.4933 40.7208
26.6767 42.0044
26.8601 40.3604
27.0437 38.8445
27.2272 38.4576
27.4109 38.3347
27.5946 38.3598
27.7784 37.8724
27.9623 38.3838
28.1462 38.7278
28.3304 36.9977
28.5145 35.8408
28.6987 35.4867
28.8829 35.3687
29.0673 34.6199
29.2517 34.3528
29.4361 34.1191
29.6207 33.0546
29.8053 32.839
29.99 32.4956
30.1748 32.2991
30.3597 32.1955
30.5447 32.1089
30.7297 32.0424
30.915 31.5233
31.1002 31.1182
31.2855 30.7977
31.4708 30.6832
31.6563 30.2415
31.8418 29.9545
32.0275 29.8614
32.2132 29.3089
32.399 28.9206
32.5848 28.5137
32.7708 28.1624
32.9569 27.9223
33.143 27.7525
33.3293 27.3038
33.5158 26.9814
33.7022 26.4996
33.8887 26.2449
34.0753 25.899
34.262 25.6325
34.4488 25.3409
34.6357 24.9378
34.8227 24.5705
35.0098 24.461
35.1969 24.1176
35.3842 23.8578
35.5716 23.7626
35.759 23.4953
35.9468 23.0901
36.1345 22.7782
36.3222 22.6098
36.5101 22.395
36.6981 22.0623
36.8861 21.6703
37.0743 21.3533
37.2626 21.2162
37.451 21.0075
37.6395 20.7442
37.8281 20.4614
38.0168 20.1389
38.2056 19.9213
38.3945 19.6602
38.5837 19.391
38.7728 19.1708
38.9621 18.9307
39.1514 18.6338
39.3409 18.4093
39.5304 18.1995
39.7201 18.0224
39.9099 17.8046
40.0999 17.5222
40.2899 17.292
40.48 17.0443
40.6703 16.8783
40.8607 16.731
41.0512 16.4317
41.242 16.1857
41.4327 16.0291
41.6236 15.8556
41.8146 15.6187
42.0057 15.4118
42.1969 15.2315
42.3882 15.0019
42.5797 14.8073
42.7713 14.6044
42.963 14.3945
43.1549 14.2023
43.3468 14.0062
43.5389 13.8513
43.7312 13.5834
43.9237 13.4197
44.1162 13.2601
44.3088 13.077
44.5016 12.8637
44.6945 12.705
44.8875 12.4948
45.0806 12.3304
45.2739 12.1927
45.4673 12.0131
45.6609 11.8414
45.8546 11.6962
46.0484 11.5063
46.2424 11.3659
46.4365 11.1679
46.631 10.973
46.8254 10.8117
47.0199 10.6545
47.2146 10.5338
47.4095 10.3511
47.6044 10.2039
47.7996 10.0449
47.9948 9.94295
48.1902 9.7507
48.3858 9.62433
48.5815 9.49138
48.7774 9.39769
48.9734 9.26314
49.1696 9.07097
49.3661 8.9299
49.5626 8.77708
49.7592 8.70249
49.956 8.54177
50.153 8.41536
50.3501 8.29175
50.5474 8.16538
50.7448 8.03493
50.9424 7.90599
51.1402 7.77475
51.3381 7.67606
51.5362 7.53573
51.7344 7.43792
51.9328 7.3096
52.1316 7.15203
52.3304 7.05066
52.5293 6.94127
52.7284 6.8422
52.9276 6.70271
53.1271 6.60153
53.3267 6.4792
53.5265 6.35831
53.7264 6.25977
53.9266 6.17062
54.1269 6.08101
54.3274 5.9301
54.528 5.81015
54.7289 5.62562
54.9301 5.45947
55.1314 5.3627
55.3328 5.1431
55.5344 4.97506
55.7361 4.81119