File: XRD/Ni3Fe_FD0123.xy
TT I
1.27165 8.37747
1.45013 6.94715
1.62863 6.51304
1.80712 5.65602
1.98562 5.52505
2.16411 4.98708
2.34263 4.64979
2.52115 4.40152
2.69965 6.17979
2.87818 7.81763
3.05672 10.9873
3.23527 14.8315
3.4138 18.7606
3.59237 21.4001
3.77094 25.2649
3.9495 28.246
4.12809 32.6294
4.30669 37.5213
4.4853 44.3645
4.6639 53.4086
4.84253 65.4001
5.02118 90.7943
5.19981 586.567
5.37848 533.799
5.55716 108.366
5.73586 95.4144
5.91455 106.739
6.09328 2499.92
6.27201 90.7706
6.45075 66.2176
6.62952 59.1527
6.8083 54.9246
6.98711 52.939
7.16591 51.7713
7.34475 51.8292
7.5236 56.2481
7.70247 53.2458
7.88135 55.5781
8.06026 60.0209
8.23919 67.3616
8.41812 83.5545
8.59709 836.538
8.77609 119.801
8.9551 84.5814
9.13412 80.7199
9.31318 88.3357
9.49226 83.1711
9.67134 87.6102
9.85047 98.0784
10.0296 558.626
10.2088 1076.78
10.388 104.43
10.5672 304.304
10.7465 91.6343
10.9257 75.235
11.105 69.3446
11.2844 65.6332
11.4637 62.4749
11.6431 61.5251
11.8225 60.5346
12.002 66.0164
12.1814 112.439
12.3609 76.8899
12.5405 62.5118
12.72 64.4382
12.8996 69.2365
13.0792 78.8467
13.2589 196.686
13.4386 227.324
13.6183 182.577
13.7981 165.631
13.9779 75.4558
14.1577 74.4476
14.3376 68.4119
14.5175 67.4421
14.6974 68.8715
14.8774 120.387
15.0574 206.423
15.2374 68.3999
15.4175 65.5366
15.5976 65.1599
15.7778 107.419
15.958 183.926
16.1382 61.5128
16.3185 56.5805
16.4988 54.6203
16.6792 53.5088
16.8596 53.6311
17.04 54.7611
17.2205 64.3382
17.401 80.9732
17.5815 58.549
17.7622 60.7033
17.9428 83.815
18.1237 109.159
18.3044 87.7682
18.4852 97.2825
18.666 60.3098
18.8469 57.8169
19.0278 56.2145
19.2088 61.4782
19.3898 67.1884
19.5709 56.2819
19.752 52.6923
19.9332 57.8984
20.1144 65.7552
20.2957 60.3941
20.477 59.555
20.6586 49.3885
20.84 48.6814
21.0215 48.5947
21.203 49.0489
21.3846 50.2177
21.5662 48.3798
21.7479 53.5616
21.9297 60.8115
22.1115 56.1234
22.2933 52.573
22.4753 48.4353
22.6572 48.6494
22.8393 51.4431
23.0214 56.0555
23.2037 49.7121
23.3859 51.583
23.5682 52.6611
23.7505 53.7457
23.9329 45.2104
24.1154 44.0251
24.2979 43.2315
24.4805 42.5914
24.6631 42.8114
24.8458 42.0398
25.0286 42.7568
25.2114 44.0117
25.3943 44.3271
25.5773 41.5028
25.7605 40.4085
25.9436 40.689
26.1268 41.1761
26.31 40.8009
26.4933 40.5351
26.6767 41.6153
26.8601 41.1031
27.0437 39.1154
27.2272 38.5941
27.4109 38.2727
27.5946 38.5047
27.7784 38.3532
27.9623 38.0872
28.1462 39.0024
28.3304 37.7764
28.5145 36.0441
28.6987 35.5912
28.8829 35.1878
29.0673 34.9876
29.2517 34.3824
29.4361 33.9567
29.6207 33.3415
29.8053 32.8258
29.99 32.507
30.1748 32.2367
30.3597 32.304
30.5447 32.1287
30.7297 32.0378
30.915 31.8549
31.1002 31.2341
31.2855 30.9896
31.4708 30.753
31.6563 30.6349
31.8418 30.1619
32.0275 29.9009
32.2132 29.5827
32.399 28.9819
32.5848 28.5616
32.7708 28.1131
32.9569 28.0285
33.143 27.6762
33.3293 27.4614
33.5158 27.0634
33.7022 26.6014
33.8887 26.321
34.0753 26.0263
34.262 25.6327
34.4488 25.2548
34.6357 24.9136
34.8227 24.7
35.0098 24.4298
35.1969 24.1186
35.3842 23.9151
35.5716 23.7872
35.759 23.5764
35.9468 23.0926
36.1345 22.9298
36.3222 22.6903
36.5101 22.3884
36.6981 22.1574
36.8861 21.8238
37.0743 21.497
37.2626 21.2672
37.451 20.9702
37.6395 20.7869
37.8281 20.4188
38.0168 20.2646
38.2056 19.9214
38.3945 19.6779
38.5837 19.4603
38.7728 19.1905
38.9621 18.8921
39.1514 18.5878
39.3409 18.4218
39.5304 18.2598
39.7201 18.0394
39.9099 17.8346
40.0999 17.586
40.2899 17.3055
40.48 17.1172
40.6703 16.9015
40.8607 16.7348
41.0512 16.4875
41.242 16.2241
41.4327 16.0954
41.6236 15.8124
41.8146 15.6389
42.0057 15.3851
42.1969 15.186
42.3882 15.0522
42.5797 14.8344
42.7713 14.6087
42.963 14.4247
43.1549 14.1763
43.3468 14.0561
43.5389 13.799
43.7312 13.6647
43.9237 13.4391
44.1162 13.2573
44.3088 13.0797
44.5016 12.8829
44.6945 12.7402
44.8875 12.5235
45.0806 12.3261
45.2739 12.1685
45.4673 12.0027
45.6609 11.836
45.8546 11.7219
46.0484 11.4856
46.2424 11.3342
46.4365 11.1845
46.631 10.9938
46.8254 10.8369
47.0199 10.6825
47.2146 10.5698
47.4095 10.3595
47.6044 10.2368
47.7996 10.0664
47.9948 9.91068
48.1902 9.8026
48.3858 9.66718
48.5815 9.51256
48.7774 9.35686
48.9734 9.24863
49.1696 9.09975
49.3661 8.95592
49.5626 8.81317
49.7592 8.6814
49.956 8.58644
50.153 8.47032
50.3501 8.29814
50.5474 8.18478
50.7448 8.11093
50.9424 7.93319
51.1402 7.79809
51.3381 7.65495
51.5362 7.56754
51.7344 7.44675
51.9328 7.30427
52.1316 7.20242
52.3304 7.07608
52.5293 6.95247
52.7284 6.8519
52.9276 6.69065
53.1271 6.60987
53.3267 6.52445
53.5265 6.38226
53.7264 6.28219
53.9266 6.16929
54.1269 6.04734
54.3274 5.93642
54.528 5.74603
54.7289 5.58051
54.9301 5.39186
55.1314 5.22142
55.3328 5.04134
55.5344 4.85917
55.7361 4.76279