File: XRD/Ni3Fe_FD0229.xy
TT I
1.27165 7.73107
1.45013 6.20841
1.62863 5.40591
1.80712 4.8904
1.98562 5.02131
2.16411 4.55825
2.34263 4.45134
2.52115 4.52632
2.69965 6.44463
2.87818 7.87079
3.05672 11.1745
3.23527 15.3961
3.4138 18.6383
3.59237 22.4393
3.77094 25.6899
3.9495 29.6658
4.12809 34.9816
4.30669 40.3744
4.4853 48.4672
4.6639 57.8291
4.84253 71.8996
5.02118 96.954
5.19981 885.626
5.37848 277.929
5.55716 112.574
5.73586 101.336
5.91455 110.05
6.09328 3645.45
6.27201 89.1725
6.45075 71.1169
6.62952 64.0924
6.8083 60.0706
6.98711 57.4914
7.16591 56.5779
7.34475 55.6804
7.5236 55.9893
7.70247 58.0984
7.88135 60.367
8.06026 65.6428
8.23919 73.2615
8.41812 90.1143
8.59709 1069.52
8.77609 110.468
8.9551 90.9382
9.13412 86.9858
9.31318 87.8705
9.49226 89.7974
9.67134 95.386
9.85047 106.75
10.0296 517.936
10.2088 550.516
10.388 115.064
10.5672 445.994
10.7465 92.0742
10.9257 80.9632
11.105 74.9556
11.2844 70.7727
11.4637 67.9268
11.6431 66.2791
11.8225 65.6045
12.002 68.6805
12.1814 141.411
12.3609 69.806
12.5405 67.1489
12.72 69.6944
12.8996 74.5727
13.0792 86.3853
13.2589 228.971
13.4386 150.552
13.6183 226.3
13.7981 111.417
13.9779 79.997
14.1577 75.3542
14.3376 73.2297
14.5175 72.7155
14.6974 74.6752
14.8774 119.525
15.0574 169.958
15.2374 72.1559
15.4175 69.7906
15.5976 70.0566
15.7778 103.782
15.958 175.605
16.1382 63.7763
16.3185 60.1784
16.4988 58.1135
16.6792 56.8892
16.8596 57.2264
17.04 59.0867
17.2205 68.9496
17.401 76.9572
17.5815 62.1757
17.7622 64.5523
17.9428 82.6157
18.1237 139.104
18.3044 90.297
18.4852 83.633
18.666 63.4399
18.8469 60.9926
19.0278 59.6324
19.2088 63.1033
19.3898 76.2802
19.5709 56.9663
19.752 56.1894
19.9332 59.5162
20.1144 72.5704
20.2957 64.2815
20.477 56.7885
20.6586 52.0827
20.84 51.0965
21.0215 51.1934
21.203 52.5232
21.3846 51.7082
21.5662 51.8929
21.7479 55.3099
21.9297 66.6104
22.1115 57.7404
22.2933 52.6785
22.4753 50.9264
22.6572 51.9471
22.8393 54.0745
23.0214 60.09
23.2037 51.5461
23.3859 52.5461
23.5682 57.6637
23.7505 51.2502
23.9329 47.3824
24.1154 46.1781
24.2979 45.4764
24.4805 44.9337
24.6631 44.8611
24.8458 44.3199
25.0286 45.0806
25.2114 46.5761
25.3943 46.7944
25.5773 43.0251
25.7605 42.4882
25.9436 42.5825
26.1268 43.6491
26.31 42.1918
26.4933 42.4331
26.6767 43.9605
26.8601 42.2635
27.0437 40.7768
27.2272 40.3267
27.4109 40.2207
27.5946 40.3113
27.7784 39.7602
27.9623 40.0045
28.1462 40.4937
28.3304 38.9889
28.5145 37.6722
28.6987 37.1795
28.8829 36.9056
29.0673 36.3683
29.2517 35.8641
29.4361 35.7238
29.6207 34.7701
29.8053 34.399
29.99 34.0267
30.1748 33.8776
30.3597 33.765
30.5447 33.6568
30.7297 33.6227
30.915 33.128
31.1002 32.5353
31.2855 32.2953
31.4708 32.1763
31.6563 31.8602
31.8418 31.4702
32.0275 31.319
32.2132 30.8287
32.399 30.1898
32.5848 29.7704
32.7708 29.3601
32.9569 29.2515
33.143 29.0617
33.3293 28.6602
33.5158 28.3743
33.7022 27.852
33.8887 27.5265
34.0753 27.2065
34.262 26.8206
34.4488 26.4552
34.6357 26.0737
34.8227 25.9026
35.0098 25.6166
35.1969 25.2677
35.3842 25.0902
35.5716 24.8109
35.759 24.4891
35.9468 24.1873
36.1345 23.9744
36.3222 23.5921
36.5101 23.3984
36.6981 23.1601
36.8861 22.7505
37.0743 22.4556
37.2626 22.2921
37.451 21.9676
37.6395 21.7798
37.8281 21.3286
38.0168 21.0784
38.2056 20.8855
38.3945 20.5862
38.5837 20.2578
38.7728 20.062
38.9621 19.8442
39.1514 19.5515
39.3409 19.3389
39.5304 19.0783
39.7201 18.8735
39.9099 18.67
40.0999 18.391
40.2899 18.1783
40.48 17.9065
40.6703 17.7047
40.8607 17.5178
41.0512 17.2584
41.242 16.9846
41.4327 16.7739
41.6236 16.5873
41.8146 16.3888
42.0057 16.1004
42.1969 15.9201
42.3882 15.6742
42.5797 15.5321
42.7713 15.2831
42.963 15.1215
43.1549 14.889
43.3468 14.6013
43.5389 14.4685
43.7312 14.1812
43.9237 14.0573
44.1162 13.8493
44.3088 13.6265
44.5016 13.4184
44.6945 13.2684
44.8875 13.1153
45.0806 12.9278
45.2739 12.7665
45.4673 12.6031
45.6609 12.3331
45.8546 12.2281
46.0484 12.0505
46.2424 11.85
46.4365 11.6753
46.631 11.5128
46.8254 11.3091
47.0199 11.1457
47.2146 10.9829
47.4095 10.7931
47.6044 10.6306
47.7996 10.5398
47.9948 10.36
48.1902 10.1866
48.3858 10.0829
48.5815 9.94982
48.7774 9.79936
48.9734 9.65222
49.1696 9.5128
49.3661 9.36664
49.5626 9.19684
49.7592 9.09329
49.956 8.95878
50.153 8.76985
50.3501 8.66319
50.5474 8.53708
50.7448 8.39155
50.9424 8.28775
51.1402 8.15481
51.3381 7.99192
51.5362 7.89365
51.7344 7.75315
51.9328 7.5761
52.1316 7.45531
52.3304 7.36441
52.5293 7.25437
52.7284 7.1645
52.9276 6.97036
53.1271 6.91054
53.3267 6.7983
53.5265 6.64813
53.7264 6.51273
53.9266 6.37456
54.1269 6.29882
54.3274 6.20097
54.528 6.04491
54.7289 5.93182
54.9301 5.67576
55.1314 5.53508
55.3328 5.33028
55.5344 5.10445
55.7361 5.04757