File: XRD/Ni3Fe_FD0776.xy
TT I
1.27165 7.37389
1.45013 6.26186
1.62863 5.05413
1.80712 4.57419
1.98562 4.95847
2.16411 4.62092
2.34263 5.71177
2.52115 7.12753
2.69965 8.32789
2.87818 9.00931
3.05672 11.2092
3.23527 15.3145
3.4138 18.9452
3.59237 23.7958
3.77094 25.9798
3.9495 29.7723
4.12809 35.0609
4.30669 214.505
4.4853 65.042
4.6639 54.9521
4.84253 66.4866
5.02118 85.6238
5.19981 307.855
5.37848 178.866
5.55716 100.597
5.73586 91.3641
5.91455 92.3835
6.09328 4444.31
6.27201 81.3459
6.45075 66.4802
6.62952 62.095
6.8083 58.1481
6.98711 55.4168
7.16591 55.1653
7.34475 90.6534
7.5236 54.2756
7.70247 55.2908
7.88135 57.5039
8.06026 61.4375
8.23919 68.781
8.41812 83.9456
8.59709 1167.47
8.77609 97.2561
8.9551 90.4171
9.13412 81.0028
9.31318 81.6361
9.49226 83.4475
9.67134 97.6629
9.85047 98.5346
10.0296 315.058
10.2088 353.331
10.388 103.265
10.5672 536.629
10.7465 84.9889
10.9257 77.344
11.105 71.0237
11.2844 69.6783
11.4637 64.3903
11.6431 62.9343
11.8225 61.8905
12.002 62.6109
12.1814 156.367
12.3609 69.5011
12.5405 63.7197
12.72 69.2551
12.8996 70.2084
13.0792 77.8216
13.2589 235.155
13.4386 119.398
13.6183 246.648
13.7981 93.6902
13.9779 74.7222
14.1577 71.4599
14.3376 70.7187
14.5175 68.0765
14.6974 69.6193
14.8774 107.605
15.0574 143.916
15.2374 70.1105
15.4175 65.6338
15.5976 65.0574
15.7778 92.0753
15.958 152.476
16.1382 61.8986
16.3185 58.1739
16.4988 54.8652
16.6792 53.8003
16.8596 54.4864
17.04 55.2331
17.2205 66.2457
17.401 68.595
17.5815 58.4075
17.7622 60.5753
17.9428 72.4533
18.1237 142.14
18.3044 89.8762
18.4852 75.2722
18.666 59.7632
18.8469 57.2626
19.0278 56.166
19.2088 58.6776
19.3898 76.5497
19.5709 53.4846
19.752 52.6789
19.9332 55.5453
20.1144 69.7433
20.2957 64.094
20.477 52.6951
20.6586 49.1846
20.84 48.2604
21.0215 48.044
21.203 50.4024
21.3846 48.2855
21.5662 48.0975
21.7479 51.8088
21.9297 64.3903
22.1115 55.7466
22.2933 49.1288
22.4753 48.4001
22.6572 48.1665
22.8393 51.3484
23.0214 56.639
23.2037 48.2832
23.3859 49.0345
23.5682 56.8284
23.7505 47.5435
23.9329 44.7616
24.1154 43.6927
24.2979 43.0068
24.4805 42.5534
24.6631 42.4284
24.8458 41.771
25.0286 42.4522
25.2114 44.2744
25.3943 44.1671
25.5773 40.4237
25.7605 39.9977
25.9436 40.4519
26.1268 41.3521
26.31 39.6162
26.4933 40.2924
26.6767 41.7824
26.8601 40.0381
27.0437 38.6269
27.2272 38.1349
27.4109 38.0748
27.5946 38.0539
27.7784 37.4669
27.9623 38.1012
28.1462 38.3538
28.3304 36.6962
28.5145 35.4348
28.6987 35.4171
28.8829 35.1085
29.0673 34.3583
29.2517 33.9568
29.4361 33.7662
29.6207 32.8628
29.8053 32.5863
29.99 32.2134
30.1748 32.1186
30.3597 31.9395
30.5447 31.8129
30.7297 31.884
30.915 31.3855
31.1002 30.8204
31.2855 30.5053
31.4708 30.5838
31.6563 29.9436
31.8418 29.755
32.0275 29.7015
32.2132 29.1215
32.399 28.5894
32.5848 28.1189
32.7708 27.8669
32.9569 27.7615
33.143 27.5548
33.3293 27.0881
33.5158 26.6497
33.7022 26.4217
33.8887 26.055
34.0753 25.7471
34.262 25.4138
34.4488 24.9901
34.6357 24.6637
34.8227 24.4985
35.0098 24.2385
35.1969 23.9652
35.3842 23.7015
35.5716 23.5615
35.759 23.2237
35.9468 22.8199
36.1345 22.677
36.3222 22.4747
36.5101 22.178
36.6981 21.903
36.8861 21.581
37.0743 21.2769
37.2626 21.0975
37.451 20.7882
37.6395 20.6078
37.8281 20.338
38.0168 20.0528
38.2056 19.8133
38.3945 19.4872
38.5837 19.2416
38.7728 19.0106
38.9621 18.7748
39.1514 18.5374
39.3409 18.3114
39.5304 18.0732
39.7201 17.8861
39.9099 17.6785
40.0999 17.4402
40.2899 17.2078
40.48 16.9735
40.6703 16.76
40.8607 16.6961
41.0512 16.3492
41.242 16.1362
41.4327 15.9446
41.6236 15.702
41.8146 15.5042
42.0057 15.3195
42.1969 15.105
42.3882 14.8421
42.5797 14.6821
42.7713 14.4878
42.963 14.3042
43.1549 14.113
43.3468 13.8463
43.5389 13.6961
43.7312 13.536
43.9237 13.306
44.1162 13.1633
44.3088 12.9748
44.5016 12.7731
44.6945 12.6111
44.8875 12.4477
45.0806 12.2199
45.2739 12.0832
45.4673 11.9604
45.6609 11.7622
45.8546 11.6065
46.0484 11.4421
46.2424 11.23
46.4365 11.0956
46.631 10.9662
46.8254 10.7586
47.0199 10.6294
47.2146 10.5096
47.4095 10.2802
47.6044 10.137
47.7996 10.0152
47.9948 9.85265
48.1902 9.69037
48.3858 9.58249
48.5815 9.44227
48.7774 9.34881
48.9734 9.16867
49.1696 9.01248
49.3661 8.85813
49.5626 8.72023
49.7592 8.62878
49.956 8.51017
50.153 8.36301
50.3501 8.25919
50.5474 8.13693
50.7448 7.97255
50.9424 7.87143
51.1402 7.7416
51.3381 7.62229
51.5362 7.48235
51.7344 7.37677
51.9328 7.24978
52.1316 7.10199
52.3304 7.04642
52.5293 6.91789
52.7284 6.79471
52.9276 6.6242
53.1271 6.58788
53.3267 6.44437
53.5265 6.32369
53.7264 6.22371
53.9266 6.12466
54.1269 6.02132
54.3274 5.91648
54.528 5.78473
54.7289 5.56631
54.9301 5.432
55.1314 5.31381
55.3328 5.12245
55.5344 4.91391
55.7361 4.78448