File: XRD/Ni3Fe_FD1031.xy
TT I
1.27165 6.56923
1.45013 5.82275
1.62863 4.89609
1.80712 4.51455
1.98562 3.97107
2.16411 4.46341
2.34263 4.9364
2.52115 7.79435
2.69965 8.3428
2.87818 9.20688
3.05672 11.4461
3.23527 14.6709
3.4138 18.4713
3.59237 21.3588
3.77094 24.5786
3.9495 28.3215
4.12809 32.602
4.30669 57.6053
4.4853 46.1592
4.6639 52.6604
4.84253 64.0067
5.02118 82.8197
5.19981 227.683
5.37848 222.526
5.55716 97.0076
5.73586 86.9678
5.91455 88.1052
6.09328 4502.29
6.27201 75.4026
6.45075 63.0227
6.62952 57.5873
6.8083 54.124
6.98711 52.3328
7.16591 51.5079
7.34475 56.0767
7.5236 60.3773
7.70247 52.7828
7.88135 54.1948
8.06026 58.2113
8.23919 65.5029
8.41812 77.3303
8.59709 1060.13
8.77609 94.8526
8.9551 81.8239
9.13412 78.9003
9.31318 91.0956
9.49226 80.8168
9.67134 85.855
9.85047 93.3396
10.0296 336.771
10.2088 449.718
10.388 97.2982
10.5672 501.951
10.7465 86.8434
10.9257 73.0784
11.105 67.8472
11.2844 64.387
11.4637 61.4391
11.6431 60.2563
11.8225 59.5702
12.002 67.5713
12.1814 145.69
12.3609 64.0599
12.5405 61.1892
12.72 63.4629
12.8996 67.4335
13.0792 76.4657
13.2589 223.188
13.4386 127.762
13.6183 232.884
13.7981 100.859
13.9779 73.1385
14.1577 76.0689
14.3376 66.8542
14.5175 65.9701
14.6974 66.9659
14.8774 107.343
15.0574 161.35
15.2374 66.1207
15.4175 63.673
15.5976 62.8083
15.7778 92.2458
15.958 167.777
16.1382 59.7207
16.3185 55.2127
16.4988 53.0985
16.6792 52.2886
16.8596 52.5196
17.04 53.4713
17.2205 64.1627
17.401 71.7399
17.5815 56.917
17.7622 59.6157
17.9428 72.3475
18.1237 141.474
18.3044 88.0167
18.4852 79.3033
18.666 58.5117
18.8469 56.0571
19.0278 54.6848
19.2088 57.5709
19.3898 75.9493
19.5709 52.6555
19.752 51.5408
19.9332 54.58
20.1144 70.229
20.2957 63.0204
20.477 52.6906
20.6586 48.0733
20.84 47.644
21.0215 47.0545
21.203 49.1395
21.3846 47.474
21.5662 47.4813
21.7479 51.3173
21.9297 65.137
22.1115 55.8506
22.2933 48.802
22.4753 47.3109
22.6572 47.4642
22.8393 50.9312
23.0214 57.4553
23.2037 47.6335
23.3859 48.9363
23.5682 57.0352
23.7505 47.9115
23.9329 44.1237
24.1154 42.8181
24.2979 42.2613
24.4805 41.7324
24.6631 41.7252
24.8458 40.9485
25.0286 41.6772
25.2114 44.0196
25.3943 44.149
25.5773 40.1023
25.7605 39.3421
25.9436 39.7787
26.1268 41.0533
26.31 39.2865
26.4933 39.8735
26.6767 41.6609
26.8601 39.9166
27.0437 38.0591
27.2272 37.7629
27.4109 37.5593
27.5946 37.6679
27.7784 37.0868
27.9623 37.6983
28.1462 38.4682
28.3304 36.7297
28.5145 35.2577
28.6987 34.776
28.8829 34.7342
29.0673 33.9068
29.2517 33.4833
29.4361 33.5407
29.6207 32.4683
29.8053 32.0681
29.99 31.7504
30.1748 31.6826
30.3597 31.541
30.5447 31.4726
30.7297 31.7001
30.915 31.0556
31.1002 30.5269
31.2855 30.2272
31.4708 30.3409
31.6563 29.7745
31.8418 29.5848
32.0275 29.4263
32.2132 28.7975
32.399 28.3089
32.5848 27.9223
32.7708 27.5178
32.9569 27.5458
33.143 27.2816
33.3293 26.9093
33.5158 26.5121
33.7022 26.0432
33.8887 25.8316
34.0753 25.464
34.262 25.104
34.4488 24.7972
34.6357 24.3832
34.8227 24.1919
35.0098 24.0262
35.1969 23.7236
35.3842 23.5735
35.5716 23.3095
35.759 23.0179
35.9468 22.6763
36.1345 22.426
36.3222 22.2378
36.5101 22.0484
36.6981 21.6941
36.8861 21.3981
37.0743 21.0653
37.2626 20.8652
37.451 20.6168
37.6395 20.3386
37.8281 20.1066
38.0168 19.8095
38.2056 19.5721
38.3945 19.2864
38.5837 19.0571
38.7728 18.8023
38.9621 18.5498
39.1514 18.3045
39.3409 18.0942
39.5304 17.9293
39.7201 17.689
39.9099 17.4564
40.0999 17.232
40.2899 17.04
40.48 16.7885
40.6703 16.6069
40.8607 16.384
41.0512 16.1811
41.242 15.9419
41.4327 15.7499
41.6236 15.5479
41.8146 15.3163
42.0057 15.0726
42.1969 14.901
42.3882 14.7424
42.5797 14.5439
42.7713 14.3094
42.963 14.1398
43.1549 13.9297
43.3468 13.7361
43.5389 13.5678
43.7312 13.3847
43.9237 13.1739
44.1162 13.0293
44.3088 12.8259
44.5016 12.6143
44.6945 12.4636
44.8875 12.2732
45.0806 12.0978
45.2739 11.9564
45.4673 11.8004
45.6609 11.5821
45.8546 11.4386
46.0484 11.2451
46.2424 11.1225
46.4365 11.0002
46.631 10.7883
46.8254 10.6294
47.0199 10.4955
47.2146 10.3496
47.4095 10.2001
47.6044 10.0213
47.7996 9.88744
47.9948 9.7566
48.1902 9.62062
48.3858 9.50612
48.5815 9.33536
48.7774 9.21215
48.9734 9.0729
49.1696 8.91874
49.3661 8.76618
49.5626 8.64872
49.7592 8.52628
49.956 8.41246
50.153 8.28868
50.3501 8.21873
50.5474 8.00517
50.7448 7.87794
50.9424 7.74819
51.1402 7.66958
51.3381 7.5089
51.5362 7.416
51.7344 7.28239
51.9328 7.13103
52.1316 7.00496
52.3304 6.9419
52.5293 6.79327
52.7284 6.73048
52.9276 6.61682
53.1271 6.48442
53.3267 6.38247
53.5265 6.24242
53.7264 6.16652
53.9266 6.03665
54.1269 5.91385
54.3274 5.84567
54.528 5.68375
54.7289 5.53261
54.9301 5.34513
55.1314 5.2285
55.3328 5.02226
55.5344 4.88666
55.7361 4.71365