File: XRD/Ni3Fe_FD0318.xy
TT I
1.27165 7.71853
1.45013 6.45048
1.62863 5.19633
1.80712 4.546
1.98562 4.46303
2.16411 4.85261
2.34263 4.5793
2.52115 5.27149
2.69965 7.06216
2.87818 9.0149
3.05672 11.0398
3.23527 15.1206
3.4138 19.1994
3.59237 24.2119
3.77094 26.5315
3.9495 30.2342
4.12809 35.778
4.30669 224.69
4.4853 67.2605
4.6639 57.0142
4.84253 69.5327
5.02118 90.9191
5.19981 513.709
5.37848 232.326
5.55716 105.991
5.73586 95.9431
5.91455 100.979
6.09328 3926.71
6.27201 87.5003
6.45075 69.8593
6.62952 65.0059
6.8083 60.3323
6.98711 57.3615
7.16591 57.1396
7.34475 94.8128
7.5236 56.173
7.70247 57.8245
7.88135 59.598
8.06026 64.1021
8.23919 71.7249
8.41812 89.2712
8.59709 1107.45
8.77609 105.602
8.9551 94.6914
9.13412 84.4811
9.31318 85.4121
9.49226 87.3523
9.67134 101.796
9.85047 103.758
10.0296 396.646
10.2088 501.829
10.388 109.389
10.5672 475.114
10.7465 89.3761
10.9257 80.7834
11.105 73.6922
11.2844 72.7296
11.4637 66.9675
11.6431 65.6092
11.8225 64.3668
12.002 66.0001
12.1814 147.771
12.3609 73.4358
12.5405 66.5711
12.72 72.4926
12.8996 73.2994
13.0792 81.7382
13.2589 232.984
13.4386 136.109
13.6183 234.874
13.7981 105.177
13.9779 78.1995
14.1577 74.6963
14.3376 74.0017
14.5175 71.1455
14.6974 72.9612
14.8774 114.331
15.0574 160.821
15.2374 73.5522
15.4175 68.503
15.5976 68.0873
15.7778 98.5701
15.958 170.727
16.1382 65.1551
16.3185 60.8632
16.4988 57.2758
16.6792 56.2161
16.8596 57.0068
17.04 57.7246
17.2205 68.4602
17.401 75.1451
17.5815 61.1929
17.7622 63.2857
17.9428 77.5432
18.1237 139.922
18.3044 90.7568
18.4852 81.8626
18.666 62.4698
18.8469 60.1119
19.0278 58.7771
19.2088 61.6925
19.3898 78.1845
19.5709 56.0002
19.752 55.1167
19.9332 58.4539
20.1144 71.4022
20.2957 64.5441
20.477 56.0903
20.6586 51.3525
20.84 50.3564
21.0215 50.264
21.203 52.08
21.3846 50.5308
21.5662 50.3903
21.7479 54.1639
21.9297 66.3461
22.1115 57.2247
22.2933 51.5545
22.4753 50.4915
22.6572 50.5802
22.8393 53.4217
23.0214 59.471
23.2037 50.4977
23.3859 51.5685
23.5682 57.6971
23.7505 50.2887
23.9329 46.8071
24.1154 45.3685
24.2979 44.9147
24.4805 44.2948
24.6631 44.2137
24.8458 43.6023
25.0286 44.2599
25.2114 46.0369
25.3943 46.2476
25.5773 42.2079
25.7605 41.7157
25.9436 42.1522
26.1268 43.0641
26.31 41.4744
26.4933 42.0125
26.6767 43.412
26.8601 41.7715
27.0437 40.2213
27.2272 39.737
27.4109 39.7282
27.5946 39.615
27.7784 39.106
27.9623 39.4951
28.1462 40.0458
28.3304 38.486
28.5145 37.2073
28.6987 36.751
28.8829 36.6041
29.0673 35.9858
29.2517 35.4753
29.4361 35.2626
29.6207 34.1763
29.8053 33.9798
29.99 33.5418
30.1748 33.5106
30.3597 33.3399
30.5447 33.2063
30.7297 33.2302
30.915 32.6021
31.1002 32.1196
31.2855 31.8167
31.4708 31.8051
31.6563 31.3407
31.8418 31.1942
32.0275 30.8932
32.2132 30.2353
32.399 29.9791
32.5848 29.3438
32.7708 28.9412
32.9569 28.9224
33.143 28.5918
33.3293 28.2616
33.5158 27.927
33.7022 27.5202
33.8887 27.1813
34.0753 26.8973
34.262 26.4976
34.4488 26.0871
34.6357 25.8272
34.8227 25.4645
35.0098 25.2543
35.1969 24.9717
35.3842 24.7228
35.5716 24.5511
35.759 24.0836
35.9468 23.8757
36.1345 23.5823
36.3222 23.3235
36.5101 23.1825
36.6981 22.8043
36.8861 22.5156
37.0743 22.1394
37.2626 21.9531
37.451 21.7013
37.6395 21.4279
37.8281 21.1928
38.0168 20.9032
38.2056 20.5705
38.3945 20.3283
38.5837 20.1145
38.7728 19.7914
38.9621 19.4865
39.1514 19.287
39.3409 19.0087
39.5304 18.8094
39.7201 18.5829
39.9099 18.3835
40.0999 18.1628
40.2899 17.9111
40.48 17.6878
40.6703 17.4773
40.8607 17.3066
41.0512 16.9936
41.242 16.7103
41.4327 16.5731
41.6236 16.3363
41.8146 16.1118
42.0057 15.9494
42.1969 15.6524
42.3882 15.5587
42.5797 15.2687
42.7713 15.1332
42.963 14.8641
43.1549 14.6983
43.3468 14.4577
43.5389 14.2586
43.7312 14.0386
43.9237 13.8726
44.1162 13.6738
44.3088 13.5013
44.5016 13.2736
44.6945 13.1203
44.8875 12.943
45.0806 12.7947
45.2739 12.5636
45.4673 12.4989
45.6609 12.2179
45.8546 12.0587
46.0484 11.8659
46.2424 11.728
46.4365 11.5425
46.631 11.3692
46.8254 11.2002
47.0199 11.0258
47.2146 10.874
47.4095 10.7183
47.6044 10.5756
47.7996 10.3858
47.9948 10.2801
48.1902 10.1283
48.3858 9.97362
48.5815 9.81599
48.7774 9.67867
48.9734 9.56466
49.1696 9.40151
49.3661 9.25244
49.5626 9.09092
49.7592 8.9799
49.956 8.84353
50.153 8.69614
50.3501 8.57409
50.5474 8.42457
50.7448 8.32085
50.9424 8.17225
51.1402 8.06207
51.3381 7.89921
51.5362 7.79297
51.7344 7.66064
51.9328 7.53618
52.1316 7.3923
52.3304 7.27355
52.5293 7.14477
52.7284 7.03439
52.9276 6.91707
53.1271 6.82485
53.3267 6.6904
53.5265 6.60015
53.7264 6.47016
53.9266 6.34015
54.1269 6.21106
54.3274 6.11199
54.528 6.02061
54.7289 5.82621
54.9301 5.64303
55.1314 5.50882
55.3328 5.33894
55.5344 5.13129
55.7361 5.00584