File: XRD/Ni3Fe_FD0724.xy
TT I
1.27165 7.02896
1.45013 6.16467
1.62863 5.24218
1.80712 4.794
1.98562 4.87401
2.16411 4.57626
2.34263 5.97044
2.52115 7.28999
2.69965 8.06498
2.87818 8.30795
3.05672 11.2084
3.23527 15.2333
3.4138 19.1984
3.59237 23.6229
3.77094 25.9921
3.9495 29.4152
4.12809 34.5554
4.30669 176.376
4.4853 61.598
4.6639 55.4357
4.84253 67.3831
5.02118 86.9744
5.19981 346.232
5.37848 186.331
5.55716 102.058
5.73586 92.5302
5.91455 93.9604
6.09328 4443.03
6.27201 82.2657
6.45075 67.5489
6.62952 62.4575
6.8083 58.6908
6.98711 55.4622
7.16591 55.2234
7.34475 82.1207
7.5236 54.5304
7.70247 56.1734
7.88135 57.9546
8.06026 62.0373
8.23919 69.5545
8.41812 85.0414
8.59709 1225.58
8.77609 99.2068
8.9551 90.0951
9.13412 82.0868
9.31318 82.8432
9.49226 84.9013
9.67134 96.8189
9.85047 99.6452
10.0296 344.321
10.2088 402.911
10.388 103.85
10.5672 507.15
10.7465 86.2621
10.9257 78.0277
11.105 71.376
11.2844 69.6284
11.4637 64.6852
11.6431 63.3467
11.8225 62.1245
12.002 63.4752
12.1814 154.781
12.3609 69.2204
12.5405 64.1471
12.72 69.2387
12.8996 70.8696
13.0792 78.8646
13.2589 243.597
13.4386 125.807
13.6183 255.742
13.7981 97.292
13.9779 75.8058
14.1577 72.4642
14.3376 71.1907
14.5175 68.8861
14.6974 70.3674
14.8774 111.748
15.0574 147.253
15.2374 70.5693
15.4175 66.3558
15.5976 65.7523
15.7778 95.5367
15.958 153.536
16.1382 62.1527
16.3185 58.0056
16.4988 55.3071
16.6792 54.3524
16.8596 55.1744
17.04 55.5076
17.2205 66.8867
17.401 70.7024
17.5815 59.0227
17.7622 61.0705
17.9428 73.6635
18.1237 137.77
18.3044 91.597
18.4852 77.2258
18.666 60.3014
18.8469 58.1053
19.0278 56.7603
19.2088 59.3942
19.3898 75.5684
19.5709 54.1845
19.752 53.0785
19.9332 56.237
20.1144 69.1179
20.2957 64.0756
20.477 53.6538
20.6586 49.4364
20.84 48.7383
21.0215 48.5339
21.203 50.843
21.3846 48.8674
21.5662 48.7085
21.7479 52.8386
21.9297 64.4521
22.1115 55.667
22.2933 49.7989
22.4753 48.7081
22.6572 48.8925
22.8393 52.0587
23.0214 56.9217
23.2037 48.7485
23.3859 49.5728
23.5682 56.835
23.7505 48.3287
23.9329 45.1202
24.1154 43.8045
24.2979 43.2947
24.4805 42.802
24.6631 42.6928
24.8458 42.1996
25.0286 42.7944
25.2114 44.5643
25.3943 44.3125
25.5773 40.8065
25.7605 40.5178
25.9436 40.7104
26.1268 41.4756
26.31 40.1174
26.4933 40.7544
26.6767 41.8955
26.8601 40.2917
27.0437 38.7385
27.2272 38.3185
27.4109 38.3233
27.5946 38.2591
27.7784 37.86
27.9623 38.4305
28.1462 38.8196
28.3304 37.1071
28.5145 35.9913
28.6987 35.5443
28.8829 35.3079
29.0673 34.598
29.2517 34.3505
29.4361 34.1486
29.6207 32.9906
29.8053 32.8465
29.99 32.569
30.1748 32.2342
30.3597 32.2446
30.5447 32.136
30.7297 32.1254
30.915 31.6156
31.1002 31.1233
31.2855 30.7828
31.4708 30.7325
31.6563 30.3972
31.8418 30.1056
32.0275 29.9146
32.2132 29.3748
32.399 28.8884
32.5848 28.4077
32.7708 28.1256
32.9569 27.9594
33.143 27.6985
33.3293 27.3939
33.5158 27.0172
33.7022 26.553
33.8887 26.1885
34.0753 25.9793
34.262 25.641
34.4488 25.1966
34.6357 24.8827
34.8227 24.6582
35.0098 24.4173
35.1969 24.0854
35.3842 23.9812
35.5716 23.7805
35.759 23.4622
35.9468 23.1036
36.1345 22.9215
36.3222 22.621
36.5101 22.3657
36.6981 22.0542
36.8861 21.7202
37.0743 21.5284
37.2626 21.2272
37.451 20.9478
37.6395 20.8058
37.8281 20.4649
38.0168 20.1669
38.2056 19.9126
38.3945 19.6007
38.5837 19.4511
38.7728 19.2292
38.9621 18.9327
39.1514 18.6657
39.3409 18.3968
39.5304 18.1958
39.7201 18.0195
39.9099 17.8501
40.0999 17.5855
40.2899 17.3617
40.48 17.071
40.6703 16.9099
40.8607 16.737
41.0512 16.4319
41.242 16.2322
41.4327 16.0229
41.6236 15.7941
41.8146 15.6329
42.0057 15.3809
42.1969 15.1698
42.3882 15.0321
42.5797 14.8066
42.7713 14.5628
42.963 14.387
43.1549 14.1577
43.3468 14.0124
43.5389 13.8002
43.7312 13.5798
43.9237 13.4266
44.1162 13.2438
44.3088 13.0901
44.5016 12.835
44.6945 12.6836
44.8875 12.5341
45.0806 12.3235
45.2739 12.1658
45.4673 12.0548
45.6609 11.8331
45.8546 11.6668
46.0484 11.5367
46.2424 11.3524
46.4365 11.1749
46.631 10.9914
46.8254 10.8362
47.0199 10.6774
47.2146 10.5357
47.4095 10.4235
47.6044 10.2621
47.7996 10.0195
47.9948 9.91926
48.1902 9.77368
48.3858 9.64206
48.5815 9.49469
48.7774 9.37533
48.9734 9.24848
49.1696 9.0808
49.3661 8.94855
49.5626 8.79105
49.7592 8.65353
49.956 8.556
50.153 8.43227
50.3501 8.26628
50.5474 8.20844
50.7448 8.01828
50.9424 7.90521
51.1402 7.80298
51.3381 7.62914
51.5362 7.51975
51.7344 7.41882
51.9328 7.25629
52.1316 7.16047
52.3304 7.06933
52.5293 6.92823
52.7284 6.81631
52.9276 6.74125
53.1271 6.6222
53.3267 6.48812
53.5265 6.35615
53.7264 6.25878
53.9266 6.18281
54.1269 6.04418
54.3274 5.93723
54.528 5.80625
54.7289 5.66186
54.9301 5.44767
55.1314 5.41016
55.3328 5.1408
55.5344 4.9969
55.7361 4.8343