File: XRD/Ni3Fe_FD0235.xy
TT I
1.27165 7.75647
1.45013 6.91249
1.62863 6.16011
1.80712 5.5423
1.98562 5.10017
2.16411 4.18554
2.34263 4.98938
2.52115 4.71141
2.69965 6.06454
2.87818 8.01553
3.05672 10.9415
3.23527 14.9704
3.4138 18.8846
3.59237 22.4561
3.77094 25.8156
3.9495 29.9697
4.12809 34.719
4.30669 40.7913
4.4853 48.909
4.6639 58.2054
4.84253 71.7413
5.02118 96.4425
5.19981 888.2
5.37848 273.812
5.55716 111.898
5.73586 101.305
5.91455 110.087
6.09328 3673.15
6.27201 88.7486
6.45075 71.1423
6.62952 64.1515
6.8083 59.9361
6.98711 57.4197
7.16591 56.4412
7.34475 55.9897
7.5236 56.0575
7.70247 58.2704
7.88135 60.4382
8.06026 65.6804
8.23919 73.3287
8.41812 90.2588
8.59709 1074.03
8.77609 110.797
8.9551 90.7678
9.13412 86.545
9.31318 88.3284
9.49226 89.6853
9.67134 95.7009
9.85047 106.88
10.0296 517.369
10.2088 556.502
10.388 115.203
10.5672 451.375
10.7465 92.2699
10.9257 80.5341
11.105 74.6632
11.2844 70.6965
11.4637 67.5366
11.6431 66.4276
11.8225 65.1867
12.002 68.5794
12.1814 142.197
12.3609 70.1421
12.5405 67.3241
12.72 69.8072
12.8996 74.5794
13.0792 86.1657
13.2589 230.397
13.4386 149.722
13.6183 227.092
13.7981 110.479
13.9779 80.1647
14.1577 75.3147
14.3376 73.1543
14.5175 72.5449
14.6974 74.8253
14.8774 119.894
15.0574 169.838
15.2374 72.4751
15.4175 69.826
15.5976 69.933
15.7778 103.904
15.958 174.242
16.1382 63.8672
16.3185 60.3273
16.4988 58.0692
16.6792 57.021
16.8596 57.311
17.04 59.3526
17.2205 68.9555
17.401 77.0575
17.5815 62.1221
17.7622 64.526
17.9428 82.6067
18.1237 139.108
18.3044 90.5758
18.4852 83.0842
18.666 63.3066
18.8469 60.7888
19.0278 59.5783
19.2088 62.8964
19.3898 76.4093
19.5709 56.8855
19.752 56.1211
19.9332 59.6655
20.1144 72.7541
20.2957 64.4796
20.477 56.598
20.6586 52.1673
20.84 51.2436
21.0215 51.2579
21.203 52.3324
21.3846 51.5004
21.5662 51.6748
21.7479 55.5127
21.9297 66.7663
22.1115 57.8684
22.2933 52.6445
22.4753 50.8862
22.6572 51.8489
22.8393 54.2996
23.0214 59.8898
23.2037 51.3467
23.3859 52.5888
23.5682 57.7446
23.7505 51.1297
23.9329 47.4125
24.1154 46.1104
24.2979 45.374
24.4805 44.9073
24.6631 44.7354
24.8458 44.3523
25.0286 45.0351
25.2114 46.5573
25.3943 46.7559
25.5773 42.8934
25.7605 42.4452
25.9436 42.5836
26.1268 43.5094
26.31 42.2933
26.4933 42.5173
26.6767 43.9872
26.8601 42.2641
27.0437 40.7341
27.2272 40.4025
27.4109 40.0385
27.5946 40.2715
27.7784 39.7424
27.9623 40.0581
28.1462 40.5166
28.3304 38.9993
28.5145 37.6802
28.6987 37.2946
28.8829 37.0424
29.0673 36.2904
29.2517 35.7357
29.4361 35.7786
29.6207 34.6589
29.8053 34.3798
29.99 34.0982
30.1748 33.8926
30.3597 33.8082
30.5447 33.6253
30.7297 33.5288
30.915 33.2396
31.1002 32.6687
31.2855 32.4022
31.4708 32.1475
31.6563 31.7905
31.8418 31.4823
32.0275 31.3309
32.2132 30.7314
32.399 30.3196
32.5848 29.7531
32.7708 29.4424
32.9569 29.2899
33.143 29.0788
33.3293 28.6469
33.5158 28.2862
33.7022 27.8238
33.8887 27.5021
34.0753 27.2396
34.262 26.7554
34.4488 26.4642
34.6357 26.0785
34.8227 25.7946
35.0098 25.5341
35.1969 25.2619
35.3842 25.0508
35.5716 24.8019
35.759 24.5605
35.9468 24.1463
36.1345 23.9312
36.3222 23.6873
36.5101 23.454
36.6981 23.1132
36.8861 22.8713
37.0743 22.4668
37.2626 22.2014
37.451 21.9071
37.6395 21.7552
37.8281 21.3976
38.0168 21.0401
38.2056 20.8256
38.3945 20.5746
38.5837 20.2937
38.7728 20.0536
38.9621 19.7248
39.1514 19.5786
39.3409 19.26
39.5304 18.9587
39.7201 18.8358
39.9099 18.5901
40.0999 18.3552
40.2899 18.1391
40.48 17.88
40.6703 17.7139
40.8607 17.4833
41.0512 17.2678
41.242 17.0086
41.4327 16.8248
41.6236 16.5362
41.8146 16.3754
42.0057 16.1241
42.1969 15.9074
42.3882 15.6942
42.5797 15.4771
42.7713 15.2265
42.963 15.0393
43.1549 14.8827
43.3468 14.6722
43.5389 14.4751
43.7312 14.1891
43.9237 14.0487
44.1162 13.8447
44.3088 13.6465
44.5016 13.4636
44.6945 13.2836
44.8875 13.0659
45.0806 12.9141
45.2739 12.6869
45.4673 12.5404
45.6609 12.3789
45.8546 12.1955
46.0484 12.0012
46.2424 11.8566
46.4365 11.6412
46.631 11.4996
46.8254 11.3388
47.0199 11.1516
47.2146 11.0209
47.4095 10.8124
47.6044 10.6669
47.7996 10.5198
47.9948 10.3439
48.1902 10.1938
48.3858 10.0559
48.5815 9.92105
48.7774 9.81698
48.9734 9.63168
49.1696 9.46996
49.3661 9.37643
49.5626 9.18974
49.7592 9.05182
49.956 8.92405
50.153 8.79393
50.3501 8.67046
50.5474 8.54103
50.7448 8.40495
50.9424 8.24724
51.1402 8.11903
51.3381 7.99804
51.5362 7.89949
51.7344 7.73877
51.9328 7.58257
52.1316 7.46412
52.3304 7.35818
52.5293 7.27766
52.7284 7.14839
52.9276 7.03887
53.1271 6.90609
53.3267 6.77764
53.5265 6.66248
53.7264 6.5379
53.9266 6.38896
54.1269 6.32779
54.3274 6.17138
54.528 6.01769
54.7289 5.86658
54.9301 5.6691
55.1314 5.53048
55.3328 5.27
55.5344 5.10073
55.7361 4.9878