File: XRD/Ni3Fe_FD0642.xy
TT I
1.27165 7.38406
1.45013 5.37822
1.62863 4.84212
1.80712 4.72032
1.98562 4.84815
2.16411 5.18557
2.34263 5.38299
2.52115 6.60016
2.69965 8.33418
2.87818 8.92605
3.05672 11.2491
3.23527 15.0348
3.4138 18.8907
3.59237 24.5658
3.77094 26.1224
3.9495 29.9949
4.12809 35.4992
4.30669 264.446
4.4853 70.4032
4.6639 55.4925
4.84253 66.8983
5.02118 86.6469
5.19981 335.826
5.37848 196.653
5.55716 102.164
5.73586 91.8291
5.91455 93.4497
6.09328 4328.88
6.27201 84.5143
6.45075 67.7321
6.62952 63.4526
6.8083 59.4235
6.98711 56.4426
7.16591 56.1971
7.34475 102.59
7.5236 55.3214
7.70247 56.226
7.88135 57.921
8.06026 62.3127
8.23919 69.8126
8.41812 86.2238
8.59709 1101.92
8.77609 100.562
8.9551 93.4974
9.13412 81.9732
9.31318 82.2039
9.49226 84.5328
9.67134 101.346
9.85047 100.099
10.0296 325.102
10.2088 442.906
10.388 104.993
10.5672 497.909
10.7465 86.9721
10.9257 79.1366
11.105 72.1689
11.2844 71.5578
11.4637 65.1474
11.6431 64.037
11.8225 62.9259
12.002 63.7759
12.1814 147.737
12.3609 72.481
12.5405 64.8352
12.72 71.32
12.8996 71.0193
13.0792 78.8371
13.2589 227.294
13.4386 128.68
13.6183 239.638
13.7981 100.425
13.9779 75.9998
14.1577 72.8809
14.3376 72.5018
14.5175 69.0121
14.6974 70.609
14.8774 107.565
15.0574 152.257
15.2374 71.8045
15.4175 66.7114
15.5976 66.0025
15.7778 92.6202
15.958 160.953
16.1382 63.6241
16.3185 59.347
16.4988 55.7692
16.6792 54.7486
16.8596 55.3466
17.04 56.1187
17.2205 66.6621
17.401 72.5385
17.5815 59.2521
17.7622 61.3707
17.9428 73.0923
18.1237 138.408
18.3044 89.6874
18.4852 79.3554
18.666 60.7585
18.8469 58.2201
19.0278 57.0763
19.2088 59.5216
19.3898 76.9139
19.5709 54.5613
19.752 53.4165
19.9332 56.1449
20.1144 69.8973
20.2957 63.5296
20.477 54.1859
20.6586 49.7431
20.84 48.9393
21.0215 48.933
21.203 50.9349
21.3846 49.321
21.5662 49.0396
21.7479 52.6059
21.9297 64.8479
22.1115 56.1102
22.2933 50.0544
22.4753 49.2695
22.6572 48.9118
22.8393 51.9519
23.0214 57.6963
23.2037 48.9755
23.3859 49.8073
23.5682 56.7814
23.7505 48.5511
23.9329 45.5027
24.1154 44.312
24.2979 43.6131
24.4805 43.0492
24.6631 43.0204
24.8458 42.43
25.0286 42.8991
25.2114 44.8226
25.3943 44.8863
25.5773 40.976
25.7605 40.6335
25.9436 40.9289
26.1268 41.9035
26.31 40.1975
26.4933 40.8749
26.6767 42.2899
26.8601 40.5522
27.0437 39.0968
27.2272 38.6758
27.4109 38.5212
27.5946 38.5921
27.7784 38.0737
27.9623 38.2857
28.1462 38.9801
28.3304 37.2434
28.5145 36.172
28.6987 35.7764
28.8829 35.6198
29.0673 34.8394
29.2517 34.4152
29.4361 34.2649
29.6207 33.2957
29.8053 33.1362
29.99 32.7708
30.1748 32.573
30.3597 32.4367
30.5447 32.2843
30.7297 32.4904
30.915 31.7464
31.1002 31.2428
31.2855 30.9446
31.4708 30.8776
31.6563 30.3728
31.8418 30.247
32.0275 30.0773
32.2132 29.3736
32.399 29.0346
32.5848 28.6096
32.7708 28.2978
32.9569 28.0848
33.143 27.8855
33.3293 27.5261
33.5158 27.1851
33.7022 26.692
33.8887 26.503
34.0753 26.0613
34.262 25.7
34.4488 25.4536
34.6357 25.0632
34.8227 24.7332
35.0098 24.5397
35.1969 24.4039
35.3842 24.0739
35.5716 23.8026
35.759 23.5389
35.9468 23.1823
36.1345 23.0077
36.3222 22.7496
36.5101 22.5105
36.6981 22.2201
36.8861 21.8823
37.0743 21.6203
37.2626 21.4061
37.451 21.0779
37.6395 20.9858
37.8281 20.5933
38.0168 20.3291
38.2056 20.0952
38.3945 19.7387
38.5837 19.5458
38.7728 19.3135
38.9621 19.0074
39.1514 18.7748
39.3409 18.5964
39.5304 18.3164
39.7201 18.0891
39.9099 17.9145
40.0999 17.7083
40.2899 17.3938
40.48 17.1908
40.6703 16.9806
40.8607 16.7832
41.0512 16.6264
41.242 16.3122
41.4327 16.1248
41.6236 15.8965
41.8146 15.67
42.0057 15.4746
42.1969 15.262
42.3882 15.1152
42.5797 14.9021
42.7713 14.688
42.963 14.4964
43.1549 14.3509
43.3468 14.0848
43.5389 13.9451
43.7312 13.7139
43.9237 13.5416
44.1162 13.2786
44.3088 13.1133
44.5016 12.9544
44.6945 12.7905
44.8875 12.5831
45.0806 12.4019
45.2739 12.24
45.4673 12.1228
45.6609 11.906
45.8546 11.7637
46.0484 11.5616
46.2424 11.4366
46.4365 11.3019
46.631 11.085
46.8254 10.8887
47.0199 10.8018
47.2146 10.6074
47.4095 10.4533
47.6044 10.2895
47.7996 10.1238
47.9948 9.98605
48.1902 9.8707
48.3858 9.71217
48.5815 9.60187
48.7774 9.42208
48.9734 9.26495
49.1696 9.15233
49.3661 9.01562
49.5626 8.8697
49.7592 8.71966
49.956 8.63437
50.153 8.51047
50.3501 8.32136
50.5474 8.21333
50.7448 8.08284
50.9424 7.99826
51.1402 7.87628
51.3381 7.71777
51.5362 7.57338
51.7344 7.48514
51.9328 7.3283
52.1316 7.21843
52.3304 7.09785
52.5293 7.02231
52.7284 6.85998
52.9276 6.74929
53.1271 6.64948
53.3267 6.51451
53.5265 6.39501
53.7264 6.30649
53.9266 6.22408
54.1269 6.06051
54.3274 5.96653
54.528 5.83572
54.7289 5.65887
54.9301 5.47627
55.1314 5.40026
55.3328 5.20199
55.5344 5.03326
55.7361 4.79483