File: XRD/Ni3Fe_FD0612.xy
TT I
1.27165 7.45626
1.45013 6.78195
1.62863 5.42769
1.80712 5.49141
1.98562 4.84142
2.16411 5.0293
2.34263 6.04418
2.52115 6.45267
2.69965 7.7809
2.87818 8.98022
3.05672 11.168
3.23527 14.8216
3.4138 18.8512
3.59237 23.8775
3.77094 26.4216
3.9495 29.6376
4.12809 34.8962
4.30669 190.001
4.4853 63.3078
4.6639 55.5264
4.84253 67.654
5.02118 87.6486
5.19981 363.562
5.37848 195.28
5.55716 103.196
5.73586 92.8777
5.91455 95.0135
6.09328 4343.12
6.27201 84.0816
6.45075 67.5245
6.62952 63.0505
6.8083 58.6633
6.98711 55.7584
7.16591 54.933
7.34475 86.8997
7.5236 55.2238
7.70247 56.3956
7.88135 58.1733
8.06026 62.1107
8.23919 70.0522
8.41812 85.4516
8.59709 1210.34
8.77609 100.942
8.9551 91.2518
9.13412 82.5443
9.31318 83.2919
9.49226 85.2166
9.67134 97.9101
9.85047 99.9936
10.0296 347.373
10.2088 418.574
10.388 105.307
10.5672 510.193
10.7465 87.2789
10.9257 78.8296
11.105 72.2157
11.2844 70.4592
11.4637 65.4169
11.6431 63.8291
11.8225 62.9271
12.002 63.9397
12.1814 153.639
12.3609 70.5609
12.5405 64.7601
12.72 69.9396
12.8996 71.092
13.0792 79.2196
13.2589 243.616
13.4386 128.774
13.6183 250.405
13.7981 100.076
13.9779 76.5058
14.1577 72.7569
14.3376 71.7719
14.5175 69.4789
14.6974 70.8558
14.8774 112.654
15.0574 152.551
15.2374 71.327
15.4175 66.9653
15.5976 66.0686
15.7778 96.3022
15.958 156.008
16.1382 63.1212
16.3185 58.9998
16.4988 55.8972
16.6792 54.7929
16.8596 55.5195
17.04 56.1456
17.2205 67.4531
17.401 72.6321
17.5815 59.7423
17.7622 61.8091
17.9428 74.508
18.1237 138.474
18.3044 91.7085
18.4852 79.0946
18.666 60.729
18.8469 58.396
19.0278 57.3239
19.2088 59.9493
19.3898 76.0024
19.5709 54.5932
19.752 53.5799
19.9332 56.3793
20.1144 69.5832
20.2957 64.2263
20.477 54.2643
20.6586 50.106
20.84 49.0848
21.0215 48.9857
21.203 50.9679
21.3846 49.2388
21.5662 49.0058
21.7479 52.9621
21.9297 64.1523
22.1115 56.5617
22.2933 50.2161
22.4753 49.1439
22.6572 49.222
22.8393 52.1871
23.0214 57.5535
23.2037 49.0731
23.3859 50.1862
23.5682 57.0497
23.7505 48.8518
23.9329 45.5514
24.1154 44.3063
24.2979 43.6439
24.4805 43.2343
24.6631 43.0789
24.8458 42.3848
25.0286 42.9865
25.2114 44.8897
25.3943 44.7424
25.5773 41.1464
25.7605 40.6455
25.9436 41.0265
26.1268 41.9199
26.31 40.2988
26.4933 40.898
26.6767 42.2398
26.8601 40.7434
27.0437 39.1719
27.2272 38.7734
27.4109 38.6038
27.5946 38.6752
27.7784 38.0598
27.9623 38.6736
28.1462 39.02
28.3304 37.4062
28.5145 36.0888
28.6987 35.9168
28.8829 35.5657
29.0673 34.8966
29.2517 34.5399
29.4361 34.283
29.6207 33.3633
29.8053 33.0234
29.99 32.7644
30.1748 32.619
30.3597 32.4905
30.5447 32.2877
30.7297 32.4575
30.915 31.8976
31.1002 31.3707
31.2855 31.078
31.4708 31.0506
31.6563 30.5489
31.8418 30.3517
32.0275 30.165
32.2132 29.5747
32.399 29.1683
32.5848 28.6509
32.7708 28.3243
32.9569 28.2386
33.143 27.9312
33.3293 27.6143
33.5158 27.0878
33.7022 26.7612
33.8887 26.5174
34.0753 26.1173
34.262 25.7858
34.4488 25.4235
34.6357 25.0141
34.8227 24.8476
35.0098 24.6093
35.1969 24.4043
35.3842 24.2209
35.5716 23.9839
35.759 23.6155
35.9468 23.2779
36.1345 22.9955
36.3222 22.7454
36.5101 22.5246
36.6981 22.3503
36.8861 21.9538
37.0743 21.6659
37.2626 21.3632
37.451 21.1613
37.6395 20.929
37.8281 20.5565
38.0168 20.293
38.2056 20.0629
38.3945 19.8659
38.5837 19.6051
38.7728 19.3247
38.9621 19.0735
39.1514 18.7689
39.3409 18.5525
39.5304 18.3616
39.7201 18.1946
39.9099 17.9421
40.0999 17.7467
40.2899 17.4811
40.48 17.2369
40.6703 16.9821
40.8607 16.8578
41.0512 16.6639
41.242 16.352
41.4327 16.1578
41.6236 15.9414
41.8146 15.7694
42.0057 15.4988
42.1969 15.3025
42.3882 15.1568
42.5797 14.9347
42.7713 14.694
42.963 14.4518
43.1549 14.2755
43.3468 14.0411
43.5389 13.9246
43.7312 13.7284
43.9237 13.5564
44.1162 13.3652
44.3088 13.183
44.5016 12.9759
44.6945 12.8236
44.8875 12.6814
45.0806 12.4368
45.2739 12.2924
45.4673 12.1359
45.6609 11.9583
45.8546 11.7243
46.0484 11.6092
46.2424 11.378
46.4365 11.2608
46.631 11.1264
46.8254 10.9159
47.0199 10.7695
47.2146 10.6308
47.4095 10.4583
47.6044 10.2761
47.7996 10.123
47.9948 9.98162
48.1902 9.85454
48.3858 9.70968
48.5815 9.56465
48.7774 9.45805
48.9734 9.30171
49.1696 9.14297
49.3661 9.01834
49.5626 8.82823
49.7592 8.73881
49.956 8.61691
50.153 8.47434
50.3501 8.32335
50.5474 8.21337
50.7448 8.10064
50.9424 7.96919
51.1402 7.84744
51.3381 7.70083
51.5362 7.60546
51.7344 7.48877
51.9328 7.35084
52.1316 7.19462
52.3304 7.1004
52.5293 7.0198
52.7284 6.87041
52.9276 6.73044
53.1271 6.65761
53.3267 6.54856
53.5265 6.39033
53.7264 6.29169
53.9266 6.20598
54.1269 6.08602
54.3274 5.99211
54.528 5.80051
54.7289 5.71613
54.9301 5.52193
55.1314 5.43242
55.3328 5.13069
55.5344 4.9898
55.7361 4.90288