File: XRD/Ni3Fe_FD0301.xy
TT I
1.27165 7.71009
1.45013 6.65284
1.62863 5.66159
1.80712 5.15561
1.98562 4.93714
2.16411 5.08456
2.34263 5.06063
2.52115 5.3911
2.69965 7.04434
2.87818 8.64774
3.05672 11.5663
3.23527 15.0902
3.4138 19.4701
3.59237 25.4871
3.77094 27.3547
3.9495 30.6135
4.12809 36.0392
4.30669 309.523
4.4853 76.34
4.6639 56.9953
4.84253 69.1532
5.02118 90.4234
5.19981 491.328
5.37848 257.641
5.55716 106.999
5.73586 96.2555
5.91455 100.099
6.09328 3627.26
6.27201 89.9685
6.45075 70.5633
6.62952 66.0737
6.8083 61.3303
6.98711 58.0874
7.16591 58.1984
7.34475 113.471
7.5236 56.9105
7.70247 58.1787
7.88135 59.6642
8.06026 64.5092
8.23919 71.6452
8.41812 89.7061
8.59709 981.575
8.77609 108.217
8.9551 97.4775
9.13412 84.2137
9.31318 85.6132
9.49226 87.4067
9.67134 106.327
9.85047 103.821
10.0296 374.79
10.2088 585.523
10.388 110.496
10.5672 443.439
10.7465 90.6459
10.9257 81.9403
11.105 74.8551
11.2844 74.4219
11.4637 67.3076
11.6431 66.2268
11.8225 64.9246
12.002 65.6904
12.1814 136.407
12.3609 77.4149
12.5405 67.1581
12.72 74.1509
12.8996 73.5471
13.0792 81.8626
13.2589 210.062
13.4386 149.874
13.6183 212.973
13.7981 112.366
13.9779 78.7395
14.1577 75.5809
14.3376 75.1843
14.5175 71.0817
14.6974 73.3598
14.8774 108.47
15.0574 176.454
15.2374 75.0921
15.4175 68.8369
15.5976 68.2198
15.7778 94.7086
15.958 180.662
16.1382 66.4703
16.3185 61.0716
16.4988 57.589
16.6792 56.5353
16.8596 57.4291
17.04 58.0991
17.2205 67.0125
17.401 77.3568
17.5815 61.3528
17.7622 63.2529
17.9428 77.024
18.1237 137.348
18.3044 88.3887
18.4852 85.6671
18.666 62.7096
18.8469 60.1078
19.0278 59.0892
19.2088 61.7814
19.3898 78.2973
19.5709 56.5613
19.752 55.2869
19.9332 58.3068
20.1144 71.1509
20.2957 63.8233
20.477 57.0291
20.6586 51.4818
20.84 50.7922
21.0215 50.3568
21.203 52.3107
21.3846 51.0809
21.5662 50.4593
21.7479 54.069
21.9297 66.2745
22.1115 57.5637
22.2933 52.2798
22.4753 50.8105
22.6572 50.6715
22.8393 53.028
23.0214 60.0466
23.2037 50.7129
23.3859 51.5054
23.5682 57.3216
23.7505 51.0545
23.9329 46.9226
24.1154 45.951
24.2979 44.9029
24.4805 44.3962
24.6631 44.4702
24.8458 43.854
25.0286 44.2513
25.2114 45.9415
25.3943 46.3577
25.5773 42.4271
25.7605 42.0534
25.9436 42.1637
26.1268 43.0949
26.31 41.6302
26.4933 42.0032
26.6767 43.4893
26.8601 42.1221
27.0437 40.2562
27.2272 39.9441
27.4109 39.6601
27.5946 39.7445
27.7784 39.2028
27.9623 39.6171
28.1462 40.3192
28.3304 38.8494
28.5145 37.423
28.6987 36.8961
28.8829 36.6062
29.0673 35.9994
29.2517 35.6468
29.4361 35.4467
29.6207 34.4295
29.8053 34.1527
29.99 33.7635
30.1748 33.6478
30.3597 33.5358
30.5447 33.2691
30.7297 33.4006
30.915 32.8081
31.1002 32.2505
31.2855 31.8944
31.4708 31.8715
31.6563 31.4641
31.8418 31.1813
32.0275 30.9932
32.2132 30.4873
32.399 29.9896
32.5848 29.4884
32.7708 29.2415
32.9569 29.0799
33.143 28.8711
33.3293 28.4157
33.5158 28.0176
33.7022 27.591
33.8887 27.2662
34.0753 26.9732
34.262 26.5542
34.4488 26.257
34.6357 25.9305
34.8227 25.5566
35.0098 25.4407
35.1969 25.0785
35.3842 24.7654
35.5716 24.6364
35.759 24.3375
35.9468 24.0281
36.1345 23.704
36.3222 23.4576
36.5101 23.2111
36.6981 23.0045
36.8861 22.5653
37.0743 22.2917
37.2626 22.0756
37.451 21.7059
37.6395 21.6083
37.8281 21.2328
38.0168 20.9064
38.2056 20.6839
38.3945 20.4172
38.5837 20.1067
38.7728 19.8717
38.9621 19.6605
39.1514 19.3827
39.3409 19.1766
39.5304 18.9216
39.7201 18.7417
39.9099 18.5012
40.0999 18.2586
40.2899 18.0281
40.48 17.7246
40.6703 17.6031
40.8607 17.3627
41.0512 17.1154
41.242 16.8203
41.4327 16.6862
41.6236 16.4014
41.8146 16.2282
42.0057 15.9855
42.1969 15.79
42.3882 15.6035
42.5797 15.3401
42.7713 15.1569
42.963 14.9397
43.1549 14.7703
43.3468 14.4878
43.5389 14.3349
43.7312 14.1775
43.9237 13.9749
44.1162 13.74
44.3088 13.5453
44.5016 13.3998
44.6945 13.178
44.8875 13.0253
45.0806 12.8091
45.2739 12.6566
45.4673 12.505
45.6609 12.2546
45.8546 12.085
46.0484 11.9453
46.2424 11.7944
46.4365 11.6302
46.631 11.4375
46.8254 11.2282
47.0199 11.1482
47.2146 10.9441
47.4095 10.7969
47.6044 10.5557
47.7996 10.4458
47.9948 10.3109
48.1902 10.1527
48.3858 10.0198
48.5815 9.86609
48.7774 9.74387
48.9734 9.56926
49.1696 9.41433
49.3661 9.30071
49.5626 9.10933
49.7592 9.00738
49.956 8.86454
50.153 8.73362
50.3501 8.62045
50.5474 8.49522
50.7448 8.36052
50.9424 8.25019
51.1402 8.1023
51.3381 7.93299
51.5362 7.84259
51.7344 7.69077
51.9328 7.56159
52.1316 7.4575
52.3304 7.32557
52.5293 7.19174
52.7284 7.0641
52.9276 6.94858
53.1271 6.85089
53.3267 6.70317
53.5265 6.62031
53.7264 6.52377
53.9266 6.39639
54.1269 6.30703
54.3274 6.17436
54.528 6.02468
54.7289 5.83389
54.9301 5.64223
55.1314 5.5098
55.3328 5.33081
55.5344 5.1186
55.7361 5.00202