File: XRD/Ni3Fe_FD0435.xy
TT I
1.27165 7.31583
1.45013 5.82263
1.62863 5.81973
1.80712 4.28059
1.98562 4.61325
2.16411 4.50711
2.34263 4.89407
2.52115 5.87222
2.69965 7.58402
2.87818 8.69196
3.05672 11.2027
3.23527 14.5143
3.4138 19.5037
3.59237 23.7205
3.77094 26.6346
3.9495 29.91
4.12809 35.0112
4.30669 194.345
4.4853 63.8512
4.6639 56.3035
4.84253 68.808
5.02118 89.7924
5.19981 445.124
5.37848 207.759
5.55716 104.287
5.73586 94.1716
5.91455 98.1514
6.09328 4178.84
6.27201 85.3309
6.45075 68.2437
6.62952 63.7706
6.8083 59.1121
6.98711 56.5999
7.16591 56.4144
7.34475 88.2251
7.5236 55.3293
7.70247 56.8606
7.88135 58.7394
8.06026 63.3269
8.23919 70.3927
8.41812 87.4229
8.59709 1204.55
8.77609 101.979
8.9551 92.4302
9.13412 83.308
9.31318 84.2168
9.49226 85.9226
9.67134 99.3292
9.85047 101.905
10.0296 384.676
10.2088 434.268
10.388 106.906
10.5672 504.726
10.7465 88.082
10.9257 79.6671
11.105 72.8303
11.2844 70.9035
11.4637 65.7442
11.6431 64.4526
11.8225 63.235
12.002 64.8173
12.1814 152.42
12.3609 71.1638
12.5405 65.486
12.72 70.8073
12.8996 72.2904
13.0792 80.6212
13.2589 241.387
13.4386 128.402
13.6183 247.012
13.7981 99.3499
13.9779 76.9697
14.1577 73.521
14.3376 72.5031
14.5175 70.085
14.6974 71.5597
14.8774 114.868
15.0574 154.412
15.2374 71.9314
15.4175 67.2713
15.5976 66.9491
15.7778 98.9256
15.958 160.071
16.1382 63.5949
16.3185 59.519
16.4988 56.3242
16.6792 55.5994
16.8596 56.0276
17.04 56.8318
17.2205 68.1655
17.401 72.5392
17.5815 60.4762
17.7622 62.3239
17.9428 76.3508
18.1237 139.518
18.3044 91.2368
18.4852 78.9479
18.666 61.4096
18.8469 59.192
19.0278 57.777
19.2088 60.7454
19.3898 77.5784
19.5709 55.1056
19.752 54.157
19.9332 57.4621
20.1144 70.7021
20.2957 64.3609
20.477 54.5277
20.6586 50.5678
20.84 49.6343
21.0215 49.4817
21.203 51.5627
21.3846 49.994
21.5662 49.6836
21.7479 53.8
21.9297 65.5281
22.1115 56.8002
22.2933 50.8654
22.4753 49.8185
22.6572 49.7854
22.8393 52.9446
23.0214 58.2967
23.2037 49.6589
23.3859 50.7489
23.5682 57.5075
23.7505 49.2551
23.9329 45.989
24.1154 45.0264
24.2979 44.19
24.4805 43.5912
24.6631 43.7413
24.8458 43.095
25.0286 43.7394
25.2114 45.5835
25.3943 45.4355
25.5773 41.6532
25.7605 41.2378
25.9436 41.6194
26.1268 42.4232
26.31 40.8691
26.4933 41.4074
26.6767 42.8735
26.8601 41.1675
27.0437 39.5642
27.2272 39.2835
27.4109 39.0962
27.5946 38.9502
27.7784 38.5658
27.9623 39.099
28.1462 39.3387
28.3304 37.7946
28.5145 36.6034
28.6987 36.1981
28.8829 36.0509
29.0673 35.2841
29.2517 34.9413
29.4361 34.7408
29.6207 33.7244
29.8053 33.5103
29.99 33.236
30.1748 32.991
30.3597 32.7495
30.5447 32.7098
30.7297 32.7925
30.915 32.1644
31.1002 31.5967
31.2855 31.4632
31.4708 31.3495
31.6563 30.9201
31.8418 30.6035
32.0275 30.3826
32.2132 29.9104
32.399 29.4065
32.5848 28.9673
32.7708 28.5973
32.9569 28.4883
33.143 28.3511
33.3293 27.9423
33.5158 27.5683
33.7022 27.0243
33.8887 26.8179
34.0753 26.3776
34.262 26.129
34.4488 25.7021
34.6357 25.377
34.8227 25.0914
35.0098 24.8828
35.1969 24.7363
35.3842 24.3792
35.5716 24.2352
35.759 23.8177
35.9468 23.5009
36.1345 23.277
36.3222 23.0838
36.5101 22.8226
36.6981 22.5048
36.8861 22.0957
37.0743 21.8782
37.2626 21.5181
37.451 21.2921
37.6395 21.2892
37.8281 20.8466
38.0168 20.5684
38.2056 20.3424
38.3945 19.9812
38.5837 19.7946
38.7728 19.5179
38.9621 19.2803
39.1514 19.0572
39.3409 18.8739
39.5304 18.5541
39.7201 18.3215
39.9099 18.166
40.0999 17.8778
40.2899 17.6878
40.48 17.4435
40.6703 17.238
40.8607 17.0213
41.0512 16.866
41.242 16.5458
41.4327 16.3214
41.6236 16.1008
41.8146 15.9299
42.0057 15.676
42.1969 15.4466
42.3882 15.3108
42.5797 15.1013
42.7713 14.8494
42.963 14.6749
43.1549 14.4901
43.3468 14.2213
43.5389 14.0977
43.7312 13.8538
43.9237 13.7034
44.1162 13.4716
44.3088 13.2899
44.5016 13.1237
44.6945 12.9221
44.8875 12.7443
45.0806 12.5832
45.2739 12.4242
45.4673 12.2358
45.6609 12.0537
45.8546 11.9082
46.0484 11.7337
46.2424 11.5208
46.4365 11.4132
46.631 11.2549
46.8254 11.0238
47.0199 10.8723
47.2146 10.7298
47.4095 10.6062
47.6044 10.4255
47.7996 10.2183
47.9948 10.0963
48.1902 9.94725
48.3858 9.82973
48.5815 9.6619
48.7774 9.52311
48.9734 9.45597
49.1696 9.28754
49.3661 9.12595
49.5626 8.96847
49.7592 8.83283
49.956 8.69527
50.153 8.56565
50.3501 8.42888
50.5474 8.32153
50.7448 8.2093
50.9424 8.06293
51.1402 7.96666
51.3381 7.82525
51.5362 7.68669
51.7344 7.5432
51.9328 7.40612
52.1316 7.30047
52.3304 7.23396
52.5293 7.06454
52.7284 6.97054
52.9276 6.84567
53.1271 6.70448
53.3267 6.61792
53.5265 6.54791
53.7264 6.39758
53.9266 6.23278
54.1269 6.16364
54.3274 6.01056
54.528 5.92429
54.7289 5.69651
54.9301 5.57929
55.1314 5.42757
55.3328 5.24541
55.5344 5.1112
55.7361 4.91765