File: XRD/Ni3Fe_FD0552.xy
TT I
1.27165 7.63403
1.45013 5.99796
1.62863 5.18872
1.80712 4.72743
1.98562 4.88185
2.16411 4.92032
2.34263 5.20231
2.52115 6.48279
2.69965 7.73002
2.87818 8.57502
3.05672 11.5458
3.23527 14.7036
3.4138 18.7196
3.59237 23.9507
3.77094 26.3174
3.9495 29.7536
4.12809 34.9458
4.30669 178.272
4.4853 61.4392
4.6639 55.9989
4.84253 67.8765
5.02118 88.0248
5.19981 399.663
5.37848 196.129
5.55716 103.012
5.73586 93.019
5.91455 96.205
6.09328 4393.07
6.27201 82.9506
6.45075 67.7619
6.62952 62.903
6.8083 58.8319
6.98711 56.0339
7.16591 55.5552
7.34475 84.1729
7.5236 55.0538
7.70247 56.2572
7.88135 58.0944
8.06026 62.6493
8.23919 70.22
8.41812 85.7794
8.59709 1219.34
8.77609 100.267
8.9551 90.9323
9.13412 82.6887
9.31318 83.2271
9.49226 84.949
9.67134 97.5649
9.85047 100.718
10.0296 367.325
10.2088 390.273
10.388 105.451
10.5672 513.849
10.7465 86.8799
10.9257 78.1583
11.105 72.4585
11.2844 69.9422
11.4637 65.4441
11.6431 64.0174
11.8225 62.6713
12.002 64.2639
12.1814 154.326
12.3609 69.6454
12.5405 64.7176
12.72 70.0434
12.8996 71.6301
13.0792 80.1242
13.2589 245.42
13.4386 122.645
13.6183 252.704
13.7981 96.7571
13.9779 76.1296
14.1577 72.586
14.3376 71.8569
14.5175 69.3263
14.6974 71.101
14.8774 113.745
15.0574 147.628
15.2374 71.0685
15.4175 66.8465
15.5976 66.2188
15.7778 97.7205
15.958 154.783
16.1382 62.4846
16.3185 58.7534
16.4988 55.7218
16.6792 54.8608
16.8596 55.4524
17.04 56.2195
17.2205 67.3305
17.401 71.3068
17.5815 59.6103
17.7622 61.9283
17.9428 75.0906
18.1237 141.228
18.3044 91.4434
18.4852 77.5863
18.666 60.7557
18.8469 58.4404
19.0278 57.3593
19.2088 60.0666
19.3898 76.7456
19.5709 54.5147
19.752 53.5821
19.9332 56.7364
20.1144 70.4807
20.2957 64.3419
20.477 53.842
20.6586 50.1312
20.84 49.0831
21.0215 48.8612
21.203 51.1862
21.3846 49.2872
21.5662 49.0524
21.7479 53.2967
21.9297 65.0821
22.1115 56.3754
22.2933 49.984
22.4753 49.1009
22.6572 49.1499
22.8393 52.2968
23.0214 57.6385
23.2037 49.085
23.3859 50.1727
23.5682 57.284
23.7505 48.1994
23.9329 45.5005
24.1154 44.3379
24.2979 43.8111
24.4805 43.1758
24.6631 43.1177
24.8458 42.6386
25.0286 43.2376
25.2114 44.9801
25.3943 44.7793
25.5773 41.2451
25.7605 40.7346
25.9436 41.0943
26.1268 42.0962
26.31 40.4672
26.4933 41.0836
26.6767 42.5127
26.8601 40.7238
27.0437 39.1328
27.2272 38.7216
27.4109 38.626
27.5946 38.5859
27.7784 38.0701
27.9623 38.6361
28.1462 39.0638
28.3304 37.3893
28.5145 36.1233
28.6987 35.8812
28.8829 35.7815
29.0673 34.8099
29.2517 34.5165
29.4361 34.3763
29.6207 33.286
29.8053 33.056
29.99 32.754
30.1748 32.5656
30.3597 32.5608
30.5447 32.4271
30.7297 32.4039
30.915 31.7699
31.1002 31.3834
31.2855 31.147
31.4708 30.9927
31.6563 30.5066
31.8418 30.3457
32.0275 30.0759
32.2132 29.5816
32.399 29.1275
32.5848 28.725
32.7708 28.2916
32.9569 28.1482
33.143 27.9403
33.3293 27.5984
33.5158 27.2425
33.7022 26.791
33.8887 26.5017
34.0753 26.1292
34.262 25.8254
34.4488 25.4323
34.6357 25.0839
34.8227 24.928
35.0098 24.6476
35.1969 24.3452
35.3842 24.1521
35.5716 23.8881
35.759 23.6562
35.9468 23.2489
36.1345 23.0707
36.3222 22.8761
36.5101 22.6118
36.6981 22.2913
36.8861 21.907
37.0743 21.6542
37.2626 21.3359
37.451 21.1237
37.6395 20.9695
37.8281 20.6591
38.0168 20.3773
38.2056 20.1222
38.3945 19.7604
38.5837 19.5712
38.7728 19.3655
38.9621 19.0802
39.1514 18.8165
39.3409 18.5808
39.5304 18.3623
39.7201 18.1814
39.9099 17.9353
40.0999 17.7154
40.2899 17.5142
40.48 17.2173
40.6703 17.0137
40.8607 16.7995
41.0512 16.5909
41.242 16.3536
41.4327 16.1409
41.6236 15.96
41.8146 15.7714
42.0057 15.5218
42.1969 15.3253
42.3882 15.1494
42.5797 14.898
42.7713 14.7225
42.963 14.5148
43.1549 14.3167
43.3468 14.1019
43.5389 13.9688
43.7312 13.7025
43.9237 13.5036
44.1162 13.3325
44.3088 13.1906
44.5016 13.0029
44.6945 12.8488
44.8875 12.6096
45.0806 12.4547
45.2739 12.2729
45.4673 12.1279
45.6609 11.9052
45.8546 11.7769
46.0484 11.5914
46.2424 11.4859
46.4365 11.2853
46.631 11.1175
46.8254 10.9322
47.0199 10.778
47.2146 10.6037
47.4095 10.4533
47.6044 10.2816
47.7996 10.1371
47.9948 9.97594
48.1902 9.86706
48.3858 9.69951
48.5815 9.55804
48.7774 9.45255
48.9734 9.29993
49.1696 9.15613
49.3661 9.02325
49.5626 8.83491
49.7592 8.77011
49.956 8.64744
50.153 8.48239
50.3501 8.34204
50.5474 8.21915
50.7448 8.10449
50.9424 7.99524
51.1402 7.85454
51.3381 7.71321
51.5362 7.57549
51.7344 7.47309
51.9328 7.32648
52.1316 7.24336
52.3304 7.13254
52.5293 6.94478
52.7284 6.85788
52.9276 6.77612
53.1271 6.64024
53.3267 6.5433
53.5265 6.3957
53.7264 6.30293
53.9266 6.19259
54.1269 6.12748
54.3274 5.95224
54.528 5.81361
54.7289 5.73009
54.9301 5.50849
55.1314 5.32979
55.3328 5.18263
55.5344 5.02627
55.7361 4.87852