File: XRD/Ni3Fe_FD0990.xy
TT I
1.27165 7.45298
1.45013 6.31837
1.62863 4.7287
1.80712 4.63841
1.98562 4.35774
2.16411 4.63908
2.34263 5.46501
2.52115 7.51168
2.69965 8.24348
2.87818 9.34156
3.05672 10.9493
3.23527 15.3977
3.4138 18.9396
3.59237 24.3376
3.77094 26.2866
3.9495 29.7147
4.12809 35.1534
4.30669 242.367
4.4853 67.7906
4.6639 54.6822
4.84253 65.4681
5.02118 84.0232
5.19981 271.359
5.37848 172.961
5.55716 99.366
5.73586 90.1954
5.91455 90.205
6.09328 4576.83
6.27201 81.2408
6.45075 66.3926
6.62952 62.0603
6.8083 58.2334
6.98711 54.8725
7.16591 54.9176
7.34475 96.0379
7.5236 54.1485
7.70247 55.4647
7.88135 56.8515
8.06026 61.4047
8.23919 68.4129
8.41812 83.1446
8.59709 1118.5
8.77609 96.5541
8.9551 90.757
9.13412 80.2121
9.31318 80.8999
9.49226 82.612
9.67134 97.9515
9.85047 97.8091
10.0296 288.308
10.2088 363.719
10.388 102.079
10.5672 535.509
10.7465 84.5677
10.9257 77.3247
11.105 70.4024
11.2844 69.6563
11.4637 63.8916
11.6431 62.4681
11.8225 61.4628
12.002 61.9395
12.1814 150.829
12.3609 69.7293
12.5405 63.4268
12.72 69.3677
12.8996 69.5569
13.0792 76.7156
13.2589 226.438
13.4386 119.197
13.6183 240.917
13.7981 94.4537
13.9779 74.2143
14.1577 71.0029
14.3376 70.4316
14.5175 67.3705
14.6974 68.8377
14.8774 103.515
15.0574 146.214
15.2374 69.7609
15.4175 65.0418
15.5976 64.229
15.7778 89.23
15.958 150.708
16.1382 61.4581
16.3185 57.7262
16.4988 54.4813
16.6792 53.3318
16.8596 54.2173
17.04 54.5654
17.2205 64.6989
17.401 68.6279
17.5815 57.9993
17.7622 59.9718
17.9428 70.1113
18.1237 138.399
18.3044 88.2283
18.4852 75.0155
18.666 59.0516
18.8469 56.7735
19.0278 55.6521
19.2088 58.0249
19.3898 75.1797
19.5709 53.1341
19.752 52.1427
19.9332 54.5727
20.1144 68.5907
20.2957 63.0116
20.477 52.4585
20.6586 48.5618
20.84 47.7717
21.0215 47.5894
21.203 50.0164
21.3846 47.8302
21.5662 47.5609
21.7479 51.1463
21.9297 63.3473
22.1115 55.1658
22.2933 48.849
22.4753 47.9506
22.6572 47.7945
22.8393 50.5131
23.0214 56.4041
23.2037 47.5785
23.3859 48.4638
23.5682 56.3748
23.7505 47.2675
23.9329 44.261
24.1154 43.3394
24.2979 42.4948
24.4805 42.1201
24.6631 41.9188
24.8458 41.374
25.0286 41.8334
25.2114 43.6415
25.3943 43.8647
25.5773 40.1944
25.7605 39.6284
25.9436 39.9479
26.1268 40.9416
26.31 39.2364
26.4933 39.7919
26.6767 41.2155
26.8601 39.672
27.0437 38.0581
27.2272 37.7125
27.4109 37.545
27.5946 37.5789
27.7784 37.0842
27.9623 37.6357
28.1462 38.0132
28.3304 36.4171
28.5145 35.2937
28.6987 34.972
28.8829 34.8015
29.0673 33.9947
29.2517 33.7195
29.4361 33.5589
29.6207 32.461
29.8053 32.3014
29.99 31.7465
30.1748 31.8186
30.3597 31.5314
30.5447 31.4904
30.7297 31.615
30.915 31.0182
31.1002 30.3856
31.2855 30.1697
31.4708 30.2384
31.6563 29.6401
31.8418 29.5373
32.0275 29.3746
32.2132 28.7621
32.399 28.3991
32.5848 27.8928
32.7708 27.6032
32.9569 27.4983
33.143 27.1782
33.3293 26.771
33.5158 26.5245
33.7022 26.0768
33.8887 25.8081
34.0753 25.5036
34.262 25.2159
34.4488 24.8114
34.6357 24.394
34.8227 24.2746
35.0098 23.9595
35.1969 23.6893
35.3842 23.5772
35.5716 23.3364
35.759 23.0557
35.9468 22.6101
36.1345 22.4354
36.3222 22.1983
36.5101 22.0505
36.6981 21.6504
36.8861 21.3117
37.0743 21.0849
37.2626 20.8493
37.451 20.5812
37.6395 20.4521
37.8281 20.0539
38.0168 19.8057
38.2056 19.5435
38.3945 19.2865
38.5837 19.0713
38.7728 18.8202
38.9621 18.5803
39.1514 18.3497
39.3409 18.1314
39.5304 17.8814
39.7201 17.7019
39.9099 17.5067
40.0999 17.2539
40.2899 16.9738
40.48 16.7987
40.6703 16.6223
40.8607 16.4583
41.0512 16.2034
41.242 15.9417
41.4327 15.7767
41.6236 15.5002
41.8146 15.3929
42.0057 15.1674
42.1969 14.9137
42.3882 14.7492
42.5797 14.5489
42.7713 14.3919
42.963 14.1849
43.1549 13.9784
43.3468 13.7534
43.5389 13.6213
43.7312 13.3728
43.9237 13.2195
44.1162 13.0658
44.3088 12.8689
44.5016 12.6155
44.6945 12.5034
44.8875 12.2767
45.0806 12.0682
45.2739 11.9691
45.4673 11.8554
45.6609 11.6714
45.8546 11.4552
46.0484 11.2794
46.2424 11.1754
46.4365 11.0276
46.631 10.788
46.8254 10.6773
47.0199 10.5316
47.2146 10.355
47.4095 10.1932
47.6044 10.047
47.7996 9.8738
47.9948 9.74566
48.1902 9.59544
48.3858 9.49611
48.5815 9.37
48.7774 9.23205
48.9734 9.05246
49.1696 8.9472
49.3661 8.79718
49.5626 8.62985
49.7592 8.53486
49.956 8.41035
50.153 8.25779
50.3501 8.13947
50.5474 8.01018
50.7448 7.92486
50.9424 7.78541
51.1402 7.66864
51.3381 7.57947
51.5362 7.43472
51.7344 7.31588
51.9328 7.17593
52.1316 7.01208
52.3304 6.96552
52.5293 6.79437
52.7284 6.74596
52.9276 6.62623
53.1271 6.50817
53.3267 6.41236
53.5265 6.24488
53.7264 6.22295
53.9266 6.06223
54.1269 5.92789
54.3274 5.8245
54.528 5.73493
54.7289 5.54062
54.9301 5.36766
55.1314 5.29869
55.3328 5.08327
55.5344 4.87789
55.7361 4.69756