File: XRD/Ni3Fe_FD0669.xy
TT I
1.27165 7.50774
1.45013 5.83071
1.62863 5.04477
1.80712 4.73939
1.98562 4.50407
2.16411 4.67924
2.34263 5.22239
2.52115 6.86815
2.69965 7.65339
2.87818 8.58283
3.05672 11.224
3.23527 15.169
3.4138 18.728
3.59237 23.4208
3.77094 25.8203
3.9495 29.6914
4.12809 34.2782
4.30669 171.424
4.4853 60.5392
4.6639 55.6549
4.84253 67.5283
5.02118 87.533
5.19981 371.535
5.37848 181.491
5.55716 101.719
5.73586 92.3084
5.91455 94.5812
6.09328 4476.39
6.27201 81.6054
6.45075 66.9788
6.62952 62.4665
6.8083 58.2408
6.98711 55.6431
7.16591 54.9949
7.34475 81.986
7.5236 54.5834
7.70247 55.8747
7.88135 57.7143
8.06026 62.1539
8.23919 69.3821
8.41812 84.9074
8.59709 1215.94
8.77609 98.6173
8.9551 89.6418
9.13412 81.6557
9.31318 82.7259
9.49226 84.3618
9.67134 96.4856
9.85047 99.9299
10.0296 357.222
10.2088 373.236
10.388 104.562
10.5672 512.648
10.7465 86.2184
10.9257 77.9163
11.105 71.4345
11.2844 69.4326
11.4637 64.5231
11.6431 63.275
11.8225 62.3077
12.002 63.5996
12.1814 152.939
12.3609 68.9008
12.5405 63.9881
12.72 68.9878
12.8996 71.0309
13.0792 79.3984
13.2589 245.125
13.4386 120.68
13.6183 252.955
13.7981 94.4513
13.9779 75.7365
14.1577 72.1854
14.3376 70.9759
14.5175 68.5778
14.6974 70.4335
14.8774 111.735
15.0574 142.444
15.2374 70.2312
15.4175 66.1763
15.5976 65.8303
15.7778 95.753
15.958 153.321
16.1382 62.0082
16.3185 58.32
16.4988 55.4395
16.6792 54.2462
16.8596 55.1294
17.04 55.4663
17.2205 66.8863
17.401 69.9609
17.5815 58.9804
17.7622 61.319
17.9428 74.0733
18.1237 142.743
18.3044 90.9326
18.4852 75.6022
18.666 60.1882
18.8469 57.8771
19.0278 56.6056
19.2088 59.2921
19.3898 76.5817
19.5709 54.0697
19.752 53.1106
19.9332 56.1407
20.1144 69.7416
20.2957 63.9848
20.477 52.9801
20.6586 49.4886
20.84 48.6928
21.0215 48.435
21.203 50.831
21.3846 48.5996
21.5662 48.6854
21.7479 52.7405
21.9297 64.7396
22.1115 56.1738
22.2933 49.6436
22.4753 48.7757
22.6572 48.6455
22.8393 52.1181
23.0214 57.1459
23.2037 48.5702
23.3859 49.7282
23.5682 57.2516
23.7505 47.8973
23.9329 44.982
24.1154 44.0184
24.2979 43.4201
24.4805 42.8495
24.6631 42.6578
24.8458 42.2369
25.0286 42.8863
25.2114 44.6956
25.3943 44.5183
25.5773 40.8318
25.7605 40.3422
25.9436 40.8014
26.1268 41.6793
26.31 40.0873
26.4933 40.7883
26.6767 42.0794
26.8601 40.2979
27.0437 38.6921
27.2272 38.412
27.4109 38.3858
27.5946 38.2328
27.7784 37.7365
27.9623 38.3724
28.1462 38.7294
28.3304 36.9957
28.5145 35.912
28.6987 35.5649
28.8829 35.4521
29.0673 34.6346
29.2517 34.209
29.4361 34.095
29.6207 33.1814
29.8053 32.733
29.99 32.5544
30.1748 32.3876
30.3597 32.169
30.5447 32.0954
30.7297 32.1082
30.915 31.4445
31.1002 31.0395
31.2855 30.8398
31.4708 30.7412
31.6563 30.2706
31.8418 30.0824
32.0275 29.8089
32.2132 29.2832
32.399 28.9329
32.5848 28.4373
32.7708 27.9909
32.9569 27.9209
33.143 27.7397
33.3293 27.3961
33.5158 26.9746
33.7022 26.5285
33.8887 26.2961
34.0753 25.9441
34.262 25.6491
34.4488 25.2674
34.6357 24.8968
34.8227 24.6806
35.0098 24.5116
35.1969 24.1578
35.3842 23.9652
35.5716 23.6972
35.759 23.3874
35.9468 23.0645
36.1345 22.8513
36.3222 22.6534
36.5101 22.3441
36.6981 22.0243
36.8861 21.7938
37.0743 21.4531
37.2626 21.2393
37.451 20.9509
37.6395 20.8106
37.8281 20.4161
38.0168 20.1503
38.2056 19.967
38.3945 19.6406
38.5837 19.4064
38.7728 19.2183
38.9621 18.9496
39.1514 18.67
39.3409 18.4629
39.5304 18.2185
39.7201 18.0154
39.9099 17.804
40.0999 17.5594
40.2899 17.3286
40.48 17.0877
40.6703 16.8994
40.8607 16.7005
41.0512 16.4984
41.242 16.2925
41.4327 16.0377
41.6236 15.7848
41.8146 15.6493
42.0057 15.3932
42.1969 15.1913
42.3882 15.0409
42.5797 14.815
42.7713 14.5993
42.963 14.3862
43.1549 14.2148
43.3468 13.9961
43.5389 13.827
43.7312 13.6304
43.9237 13.444
44.1162 13.2564
44.3088 13.0567
44.5016 12.886
44.6945 12.6622
44.8875 12.5669
45.0806 12.363
45.2739 12.1606
45.4673 12.0191
45.6609 11.8291
45.8546 11.7044
46.0484 11.5245
46.2424 11.3433
46.4365 11.1924
46.631 11.0148
46.8254 10.8431
47.0199 10.7085
47.2146 10.5247
47.4095 10.3497
47.6044 10.2144
47.7996 10.0841
47.9948 9.90919
48.1902 9.80449
48.3858 9.63855
48.5815 9.51405
48.7774 9.36061
48.9734 9.28458
49.1696 9.10985
49.3661 8.96476
49.5626 8.78507
49.7592 8.64407
49.956 8.58049
50.153 8.43244
50.3501 8.27522
50.5474 8.16584
50.7448 8.0995
50.9424 7.94203
51.1402 7.7714
51.3381 7.69364
51.5362 7.56698
51.7344 7.404
51.9328 7.30721
52.1316 7.12187
52.3304 7.08595
52.5293 6.96488
52.7284 6.84902
52.9276 6.68566
53.1271 6.61373
53.3267 6.48484
53.5265 6.38174
53.7264 6.27074
53.9266 6.17467
54.1269 6.05069
54.3274 5.91598
54.528 5.82348
54.7289 5.61506
54.9301 5.48338
55.1314 5.36237
55.3328 5.13193
55.5344 4.91838
55.7361 4.8119