File: XRD/Ni3Fe_FD0928.xy
TT I
1.27165 7.59743
1.45013 6.30788
1.62863 5.28952
1.80712 4.43406
1.98562 4.26337
2.16411 4.95243
2.34263 5.12796
2.52115 6.96248
2.69965 8.69609
2.87818 9.50426
3.05672 11.3997
3.23527 15.2125
3.4138 18.977
3.59237 23.1436
3.77094 25.5998
3.9495 29.3413
4.12809 33.9353
4.30669 98.4148
4.4853 52.6498
4.6639 54.8558
4.84253 67.654
5.02118 86.2431
5.19981 368.97
5.37848 193.377
5.55716 100.82
5.73586 91.8616
5.91455 93.7437
6.09328 4680.43
6.27201 78.9856
6.45075 69.7414
6.62952 62.5563
6.8083 58.8496
6.98711 54.9215
7.16591 55.9068
7.34475 65.8698
7.5236 53.6598
7.70247 56.189
7.88135 56.8966
8.06026 62.0891
8.23919 68.6717
8.41812 82.5026
8.59709 1206.19
8.77609 95.8465
8.9551 88.7666
9.13412 81.9296
9.31318 84.2954
9.49226 83.7961
9.67134 94.6949
9.85047 100.609
10.0296 328.346
10.2088 325.447
10.388 103.143
10.5672 543.528
10.7465 84.9927
10.9257 76.9155
11.105 70.2216
11.2844 67.5284
11.4637 63.4774
11.6431 62.396
11.8225 61.7068
12.002 63.3271
12.1814 159.506
12.3609 65.5685
12.5405 64.0357
12.72 66.6537
12.8996 70.5513
13.0792 79.3508
13.2589 245.516
13.4386 114.396
13.6183 258.45
13.7981 91.6787
13.9779 74.7278
14.1577 70.4948
14.3376 69.2516
14.5175 67.6264
14.6974 69.6669
14.8774 110.134
15.0574 137.489
15.2374 68.4074
15.4175 65.2283
15.5976 64.6635
15.7778 93.6372
15.958 145.787
16.1382 60.2998
16.3185 56.7591
16.4988 54.3595
16.6792 53.5103
16.8596 54.1082
17.04 55.0729
17.2205 66.2132
17.401 67.384
17.5815 58.1922
17.7622 60.3158
17.9428 72.2001
18.1237 140.68
18.3044 90.8396
18.4852 72.8677
18.666 59.1205
18.8469 57.0765
19.0278 55.7884
19.2088 57.9754
19.3898 74.8649
19.5709 52.94
19.752 52.5217
19.9332 55.4469
20.1144 69.4374
20.2957 64.1046
20.477 51.7602
20.6586 48.7808
20.84 47.9658
21.0215 47.5777
21.203 50.137
21.3846 47.9086
21.5662 48.0817
21.7479 51.6769
21.9297 64.2732
22.1115 55.6491
22.2933 48.699
22.4753 47.8398
22.6572 48.0129
22.8393 51.3473
23.0214 56.0718
23.2037 48.0534
23.3859 48.8538
23.5682 56.9244
23.7505 47.101
23.9329 44.468
24.1154 43.3409
24.2979 42.7576
24.4805 42.3665
24.6631 41.9443
24.8458 41.4481
25.0286 42.2586
25.2114 43.9457
25.3943 43.8781
25.5773 40.1879
25.7605 39.6424
25.9436 40.216
26.1268 41.0509
26.31 39.2797
26.4933 40.2106
26.6767 41.5354
26.8601 39.7607
27.0437 38.2959
27.2272 37.7921
27.4109 37.7877
27.5946 37.8211
27.7784 37.4427
27.9623 37.8833
28.1462 38.178
28.3304 36.5379
28.5145 35.4787
28.6987 35.0171
28.8829 34.9329
29.0673 34.0602
29.2517 33.8155
29.4361 33.5375
29.6207 32.6006
29.8053 32.3596
29.99 31.9585
30.1748 31.9016
30.3597 31.7296
30.5447 31.7256
30.7297 31.6572
30.915 31.05
31.1002 30.5941
31.2855 30.4432
31.4708 30.3013
31.6563 29.8053
31.8418 29.7657
32.0275 29.4273
32.2132 28.8158
32.399 28.4225
32.5848 28.0469
32.7708 27.6992
32.9569 27.5322
33.143 27.3636
33.3293 26.9175
33.5158 26.5328
33.7022 26.1621
33.8887 25.9103
34.0753 25.5655
34.262 25.2934
34.4488 24.9016
34.6357 24.4932
34.8227 24.2563
35.0098 24.1013
35.1969 23.7418
35.3842 23.5593
35.5716 23.405
35.759 23.0354
35.9468 22.6326
36.1345 22.4847
36.3222 22.3342
36.5101 22.0715
36.6981 21.7397
36.8861 21.4407
37.0743 21.128
37.2626 20.8897
37.451 20.6531
37.6395 20.4287
37.8281 20.1491
38.0168 19.8668
38.2056 19.605
38.3945 19.3358
38.5837 19.052
38.7728 18.8683
38.9621 18.605
39.1514 18.3471
39.3409 18.1714
39.5304 17.9593
39.7201 17.7348
39.9099 17.525
40.0999 17.2695
40.2899 17.0337
40.48 16.8203
40.6703 16.5875
40.8607 16.465
41.0512 16.2382
41.242 15.9682
41.4327 15.7328
41.6236 15.5935
41.8146 15.4053
42.0057 15.1564
42.1969 14.9302
42.3882 14.7931
42.5797 14.5585
42.7713 14.3592
42.963 14.1746
43.1549 13.9429
43.3468 13.7534
43.5389 13.5952
43.7312 13.3809
43.9237 13.2779
44.1162 13.0259
44.3088 12.8562
44.5016 12.6832
44.6945 12.5275
44.8875 12.3148
45.0806 12.1421
45.2739 11.9896
45.4673 11.8085
45.6609 11.6631
45.8546 11.4921
46.0484 11.3374
46.2424 11.1124
46.4365 11.0072
46.631 10.8417
46.8254 10.6631
47.0199 10.4962
47.2146 10.3887
47.4095 10.2035
47.6044 10.0502
47.7996 9.89125
47.9948 9.75811
48.1902 9.64266
48.3858 9.5283
48.5815 9.33753
48.7774 9.24101
48.9734 9.07404
49.1696 8.96434
49.3661 8.81254
49.5626 8.62392
49.7592 8.53248
49.956 8.40001
50.153 8.27897
50.3501 8.127
50.5474 8.06373
50.7448 7.93727
50.9424 7.79462
51.1402 7.65689
51.3381 7.52771
51.5362 7.43118
51.7344 7.27082
51.9328 7.17118
52.1316 7.05078
52.3304 6.93498
52.5293 6.83446
52.7284 6.73268
52.9276 6.62797
53.1271 6.54531
53.3267 6.39387
53.5265 6.26218
53.7264 6.1594
53.9266 6.10246
54.1269 5.94094
54.3274 5.84578
54.528 5.68418
54.7289 5.57199
54.9301 5.401
55.1314 5.25432
55.3328 5.04227
55.5344 4.85911
55.7361 4.69762