File: XRD/Ni3Fe_FD0506.xy
TT I
1.27165 7.65447
1.45013 6.22699
1.62863 5.45882
1.80712 4.74091
1.98562 4.41966
2.16411 5.5464
2.34263 5.3066
2.52115 6.81986
2.69965 7.90157
2.87818 8.5496
3.05672 11.6184
3.23527 15.1439
3.4138 18.519
3.59237 24.2013
3.77094 26.3937
3.9495 29.9156
4.12809 35.4859
4.30669 216.184
4.4853 65.7512
4.6639 56.0115
4.84253 68.4027
5.02118 88.2724
5.19981 394.776
5.37848 204.641
5.55716 104.1
5.73586 93.3501
5.91455 97.0275
6.09328 4168.1
6.27201 85.1308
6.45075 68.4011
6.62952 63.6869
6.8083 59.5054
6.98711 56.7225
7.16591 55.9414
7.34475 91.9215
7.5236 55.4995
7.70247 56.9745
7.88135 58.5072
8.06026 62.985
8.23919 70.0838
8.41812 86.6561
8.59709 1166.57
8.77609 102.74
8.9551 93.1215
9.13412 83.1484
9.31318 83.5451
9.49226 85.6189
9.67134 100.017
9.85047 101.044
10.0296 358.514
10.2088 444.308
10.388 106.479
10.5672 494.767
10.7465 88.2037
10.9257 79.4171
11.105 72.5364
11.2844 71.373
11.4637 65.9411
11.6431 64.6792
11.8225 63.3009
12.002 64.5017
12.1814 154.551
12.3609 72.0831
12.5405 65.45
12.72 70.9224
12.8996 71.8199
13.0792 79.8438
13.2589 237.916
13.4386 131.362
13.6183 244.8
13.7981 103.061
13.9779 76.938
14.1577 73.4473
14.3376 72.8307
14.5175 69.6509
14.6974 71.5846
14.8774 112.141
15.0574 155.018
15.2374 72.2124
15.4175 67.6138
15.5976 66.4975
15.7778 96.3783
15.958 159.889
16.1382 63.8124
16.3185 59.6297
16.4988 56.2673
16.6792 55.2552
16.8596 56.0126
17.04 56.5656
17.2205 67.3944
17.401 72.588
17.5815 60.1397
17.7622 62.067
17.9428 74.7866
18.1237 137.4
18.3044 91.1822
18.4852 80.6638
18.666 61.1299
18.8469 58.9306
19.0278 57.7796
19.2088 60.4784
19.3898 76.5606
19.5709 55.2859
19.752 54.0028
19.9332 57.292
20.1144 70.0328
20.2957 64.2165
20.477 54.9438
20.6586 50.2152
20.84 49.6004
21.0215 49.2842
21.203 51.3935
21.3846 49.741
21.5662 49.4113
21.7479 53.3429
21.9297 64.7759
22.1115 56.5979
22.2933 50.8296
22.4753 49.5254
22.6572 49.5918
22.8393 52.5598
23.0214 57.9655
23.2037 49.5876
23.3859 50.4741
23.5682 56.9045
23.7505 49.2679
23.9329 45.9477
24.1154 44.7949
24.2979 44.1113
24.4805 43.4987
24.6631 43.4416
24.8458 42.8396
25.0286 43.4509
25.2114 45.2224
25.3943 45.2899
25.5773 41.5518
25.7605 41.0768
25.9436 41.4112
26.1268 42.173
26.31 40.6696
26.4933 41.2565
26.6767 42.6615
26.8601 40.8527
27.0437 39.4464
27.2272 39.1058
27.4109 38.8482
27.5946 38.9636
27.7784 38.4568
27.9623 38.8431
28.1462 39.3544
28.3304 37.6833
28.5145 36.483
28.6987 36.0831
28.8829 35.8288
29.0673 35.1368
29.2517 34.7687
29.4361 34.5837
29.6207 33.5162
29.8053 33.4053
29.99 33.0885
30.1748 32.8896
30.3597 32.7154
30.5447 32.639
30.7297 32.5961
30.915 32.085
31.1002 31.5671
31.2855 31.2618
31.4708 31.2007
31.6563 30.7357
31.8418 30.5202
32.0275 30.3138
32.2132 29.7674
32.399 29.2673
32.5848 28.8454
32.7708 28.5463
32.9569 28.4028
33.143 28.2362
33.3293 27.6918
33.5158 27.5113
33.7022 27.0486
33.8887 26.6586
34.0753 26.3298
34.262 25.9216
34.4488 25.6989
34.6357 25.3366
34.8227 25.036
35.0098 24.7213
35.1969 24.5346
35.3842 24.2293
35.5716 24.0332
35.759 23.801
35.9468 23.3601
36.1345 23.1667
36.3222 22.8676
36.5101 22.6543
36.6981 22.4392
36.8861 22.1199
37.0743 21.7614
37.2626 21.5045
37.451 21.2789
37.6395 21.0517
37.8281 20.8422
38.0168 20.4136
38.2056 20.2822
38.3945 19.973
38.5837 19.7556
38.7728 19.4903
38.9621 19.1818
39.1514 18.9632
39.3409 18.6705
39.5304 18.4647
39.7201 18.2855
39.9099 18.0462
40.0999 17.8463
40.2899 17.6049
40.48 17.3716
40.6703 17.1514
40.8607 16.9768
41.0512 16.7491
41.242 16.5065
41.4327 16.2292
41.6236 16.0246
41.8146 15.8418
42.0057 15.6222
42.1969 15.4016
42.3882 15.276
42.5797 15.0242
42.7713 14.7967
42.963 14.5935
43.1549 14.4253
43.3468 14.1743
43.5389 14.0237
43.7312 13.8491
43.9237 13.6636
44.1162 13.4407
44.3088 13.2586
44.5016 13.0588
44.6945 12.9096
44.8875 12.7159
45.0806 12.4936
45.2739 12.3613
45.4673 12.2424
45.6609 12.0177
45.8546 11.8825
46.0484 11.6603
46.2424 11.4681
46.4365 11.3751
46.631 11.1703
46.8254 10.9939
47.0199 10.8433
47.2146 10.6889
47.4095 10.5547
47.6044 10.3416
47.7996 10.2137
47.9948 10.0761
48.1902 9.923
48.3858 9.75206
48.5815 9.65894
48.7774 9.53943
48.9734 9.35808
49.1696 9.21389
49.3661 9.10135
49.5626 8.92881
49.7592 8.81211
49.956 8.6827
50.153 8.51666
50.3501 8.41241
50.5474 8.27717
50.7448 8.17107
50.9424 8.00513
51.1402 7.90029
51.3381 7.78489
51.5362 7.64289
51.7344 7.53552
51.9328 7.37587
52.1316 7.2896
52.3304 7.16738
52.5293 7.05628
52.7284 6.93967
52.9276 6.80553
53.1271 6.72543
53.3267 6.61797
53.5265 6.47342
53.7264 6.32987
53.9266 6.18698
54.1269 6.12617
54.3274 6.02352
54.528 5.91188
54.7289 5.67066
54.9301 5.54552
55.1314 5.44911
55.3328 5.20589
55.5344 5.05354
55.7361 4.85514