File: XRD/Ni3Fe_FD0145.xy
TT I
1.27165 8.27878
1.45013 6.79091
1.62863 5.64153
1.80712 5.15103
1.98562 4.50406
2.16411 4.86388
2.34263 4.70837
2.52115 4.77617
2.69965 5.49771
2.87818 7.76511
3.05672 11.2364
3.23527 15.1229
3.4138 19.1235
3.59237 21.6168
3.77094 25.0772
3.9495 28.5248
4.12809 32.9532
4.30669 37.2921
4.4853 44.9279
4.6639 53.6748
4.84253 66.1634
5.02118 90.6612
5.19981 553.591
5.37848 459.702
5.55716 107.147
5.73586 95.168
5.91455 105.042
6.09328 2670.21
6.27201 89.3431
6.45075 66.2715
6.62952 59.5551
6.8083 55.3855
6.98711 53.594
7.16591 51.9627
7.34475 51.7193
7.5236 55.7248
7.70247 53.6454
7.88135 56.153
8.06026 60.5772
8.23919 68.025
8.41812 83.0952
8.59709 876.321
8.77609 116.442
8.9551 84.8303
9.13412 81.1783
9.31318 86.6017
9.49226 83.0227
9.67134 87.9586
9.85047 98.353
10.0296 548.018
10.2088 996.978
10.388 104.137
10.5672 327.635
10.7465 91.1475
10.9257 75.2064
11.105 69.7462
11.2844 65.6444
11.4637 63.1019
11.6431 61.9494
11.8225 61.1755
12.002 65.1928
12.1814 116.497
12.3609 74.7144
12.5405 62.7998
12.72 64.8072
12.8996 69.5714
13.0792 79.0705
13.2589 202.49
13.4386 214.193
13.6183 190.568
13.7981 153.662
13.9779 75.6579
14.1577 74.0641
14.3376 68.524
14.5175 67.8145
14.6974 69.3663
14.8774 120.606
15.0574 204.944
15.2374 68.644
15.4175 65.8307
15.5976 65.257
15.7778 107.128
15.958 184.075
16.1382 61.633
16.3185 57.1272
16.4988 54.7414
16.6792 53.8203
16.8596 53.9229
17.04 55.1451
17.2205 64.7636
17.401 80.4225
17.5815 58.7029
17.7622 61.0016
17.9428 83.4973
18.1237 113.24
18.3044 88.0058
18.4852 95.347
18.666 60.5596
18.8469 57.9476
19.0278 56.355
19.2088 61.6664
19.3898 68.5973
19.5709 56.0973
19.752 53.212
19.9332 57.9415
20.1144 66.5897
20.2957 60.6186
20.477 58.9175
20.6586 49.5437
20.84 48.8328
21.0215 48.6872
21.203 49.5283
21.3846 50.3293
21.5662 48.693
21.7479 53.8832
21.9297 61.558
22.1115 56.021
22.2933 52.3148
22.4753 48.6807
22.6572 48.9562
22.8393 51.8812
23.0214 56.9976
23.2037 49.6094
23.3859 51.8335
23.5682 53.1666
23.7505 53.3263
23.9329 45.4915
24.1154 44.0933
24.2979 43.5255
24.4805 42.7758
24.6631 42.9506
24.8458 42.5667
25.0286 42.879
25.2114 44.4284
25.3943 44.7628
25.5773 41.6063
25.7605 40.7102
25.9436 40.9472
26.1268 41.6667
26.31 40.8169
26.4933 40.7245
26.6767 42.029
26.8601 41.3113
27.0437 39.3604
27.2272 38.6666
27.4109 38.5187
27.5946 38.6376
27.7784 38.3811
27.9623 38.4488
28.1462 39.3714
28.3304 37.9299
28.5145 36.241
28.6987 35.8144
28.8829 35.4242
29.0673 34.9965
29.2517 34.427
29.4361 34.1832
29.6207 33.4239
29.8053 32.9658
29.99 32.6559
30.1748 32.431
30.3597 32.4801
30.5447 32.3215
30.7297 32.2126
30.915 31.9229
31.1002 31.3642
31.2855 31.0582
31.4708 30.8842
31.6563 30.7545
31.8418 30.3169
32.0275 30.1381
32.2132 29.6517
32.399 29.059
32.5848 28.6836
32.7708 28.3289
32.9569 28.1331
33.143 27.8539
33.3293 27.6241
33.5158 27.2283
33.7022 26.8016
33.8887 26.4718
34.0753 26.1739
34.262 25.7094
34.4488 25.4305
34.6357 25.0666
34.8227 24.835
35.0098 24.5985
35.1969 24.351
35.3842 23.9758
35.5716 23.8895
35.759 23.5774
35.9468 23.2417
36.1345 22.9893
36.3222 22.8168
36.5101 22.5376
36.6981 22.2325
36.8861 21.9299
37.0743 21.6019
37.2626 21.3378
37.451 21.106
37.6395 20.9535
37.8281 20.5628
38.0168 20.2758
38.2056 20.0152
38.3945 19.7578
38.5837 19.4584
38.7728 19.3036
38.9621 19.058
39.1514 18.8045
39.3409 18.5652
39.5304 18.3805
39.7201 18.1104
39.9099 17.889
40.0999 17.6471
40.2899 17.4758
40.48 17.2318
40.6703 17.0156
40.8607 16.8468
41.0512 16.5951
41.242 16.3223
41.4327 16.1619
41.6236 15.9143
41.8146 15.7084
42.0057 15.487
42.1969 15.2817
42.3882 15.0511
42.5797 14.9208
42.7713 14.6576
42.963 14.459
43.1549 14.3248
43.3468 14.0455
43.5389 13.9268
43.7312 13.6828
43.9237 13.5034
44.1162 13.2789
44.3088 13.1314
44.5016 12.9825
44.6945 12.7685
44.8875 12.5753
45.0806 12.4261
45.2739 12.273
45.4673 12.1317
45.6609 11.8753
45.8546 11.7158
46.0484 11.6091
46.2424 11.3937
46.4365 11.2525
46.631 11.0815
46.8254 10.8885
47.0199 10.7254
47.2146 10.5808
47.4095 10.4448
47.6044 10.2758
47.7996 10.1201
47.9948 9.99951
48.1902 9.86317
48.3858 9.70053
48.5815 9.57614
48.7774 9.41286
48.9734 9.26057
49.1696 9.14153
49.3661 8.98664
49.5626 8.85931
49.7592 8.71096
49.956 8.59298
50.153 8.49475
50.3501 8.30902
50.5474 8.22309
50.7448 8.06282
50.9424 7.96687
51.1402 7.80917
51.3381 7.72269
51.5362 7.58253
51.7344 7.42539
51.9328 7.35056
52.1316 7.23315
52.3304 7.09558
52.5293 6.97279
52.7284 6.89434
52.9276 6.8004
53.1271 6.67628
53.3267 6.51964
53.5265 6.41972
53.7264 6.30145
53.9266 6.19379
54.1269 6.0655
54.3274 5.9472
54.528 5.79509
54.7289 5.64494
54.9301 5.44785
55.1314 5.30238
55.3328 5.06611
55.5344 4.89421
55.7361 4.79721