File: XRD/Ni3Fe_FD0660.xy
TT I
1.27165 7.19097
1.45013 6.56939
1.62863 5.62999
1.80712 4.72252
1.98562 4.46889
2.16411 4.94426
2.34263 5.41417
2.52115 6.688
2.69965 8.11739
2.87818 9.14886
3.05672 11.0273
3.23527 15.0382
3.4138 18.8571
3.59237 23.8507
3.77094 26.0047
3.9495 30.12
4.12809 34.7996
4.30669 229.0
4.4853 66.5892
4.6639 55.2585
4.84253 66.8514
5.02118 86.8705
5.19981 326.885
5.37848 186.443
5.55716 101.126
5.73586 91.3411
5.91455 94.0032
6.09328 4579.59
6.27201 82.4289
6.45075 67.0303
6.62952 62.701
6.8083 58.546
6.98711 55.8551
7.16591 55.6951
7.34475 94.3956
7.5236 54.5873
7.70247 56.1093
7.88135 57.5948
8.06026 61.9047
8.23919 69.3386
8.41812 84.8886
8.59709 1168.46
8.77609 99.0608
8.9551 91.7579
9.13412 81.4059
9.31318 82.4204
9.49226 84.0932
9.67134 98.8614
9.85047 99.3137
10.0296 330.105
10.2088 404.48
10.388 103.854
10.5672 514.133
10.7465 86.5531
10.9257 78.2428
11.105 71.6797
11.2844 70.3294
11.4637 64.6808
11.6431 63.607
11.8225 62.1404
12.002 63.5057
12.1814 152.734
12.3609 70.5543
12.5405 64.7102
12.72 70.1502
12.8996 70.8236
13.0792 78.8023
13.2589 236.214
13.4386 121.236
13.6183 245.979
13.7981 95.3468
13.9779 75.4
14.1577 72.3611
14.3376 71.7093
14.5175 68.7507
14.6974 70.2494
14.8774 108.718
15.0574 146.724
15.2374 71.1788
15.4175 66.1314
15.5976 65.6937
15.7778 93.2374
15.958 157.034
16.1382 62.6107
16.3185 58.6513
16.4988 55.3569
16.6792 54.4956
16.8596 55.2001
17.04 55.5852
17.2205 66.2752
17.401 71.0504
17.5815 59.1293
17.7622 61.2014
17.9428 73.2784
18.1237 143.292
18.3044 90.2417
18.4852 77.0487
18.666 60.4641
18.8469 58.0208
19.0278 56.7372
19.2088 59.2607
19.3898 77.4696
19.5709 54.2958
19.752 53.1982
19.9332 56.1294
20.1144 70.257
20.2957 63.9966
20.477 53.4366
20.6586 49.6038
20.84 48.9682
21.0215 48.6284
21.203 50.7038
21.3846 48.9868
21.5662 48.757
21.7479 52.3931
21.9297 65.1774
22.1115 56.181
22.2933 49.738
22.4753 48.8982
22.6572 48.7311
22.8393 51.8951
23.0214 57.5995
23.2037 48.6838
23.3859 49.6666
23.5682 57.4017
23.7505 47.9964
23.9329 45.2734
24.1154 44.1081
24.2979 43.57
24.4805 42.8979
24.6631 42.6781
24.8458 42.2527
25.0286 42.7041
25.2114 44.7426
25.3943 44.6057
25.5773 40.9854
25.7605 40.3847
25.9436 40.787
26.1268 41.8606
26.31 40.0643
26.4933 40.8635
26.6767 42.2379
26.8601 40.473
27.0437 38.8438
27.2272 38.6254
27.4109 38.4608
27.5946 38.2901
27.7784 37.9597
27.9623 38.4669
28.1462 38.8095
28.3304 37.1355
28.5145 35.9395
28.6987 35.6396
28.8829 35.4947
29.0673 34.6114
29.2517 34.266
29.4361 34.1377
29.6207 33.2863
29.8053 32.95
29.99 32.7063
30.1748 32.4529
30.3597 32.3075
30.5447 32.1768
30.7297 32.2411
30.915 31.6984
31.1002 31.2461
31.2855 30.8807
31.4708 30.9329
31.6563 30.3614
31.8418 30.1993
32.0275 29.9874
32.2132 29.4
32.399 28.9158
32.5848 28.5499
32.7708 28.1303
32.9569 28.0404
33.143 27.8174
33.3293 27.3986
33.5158 27.0474
33.7022 26.5189
33.8887 26.3311
34.0753 26.0272
34.262 25.6602
34.4488 25.2919
34.6357 25.0274
34.8227 24.7234
35.0098 24.5023
35.1969 24.2055
35.3842 24.0559
35.5716 23.8728
35.759 23.5179
35.9468 23.1851
36.1345 22.9093
36.3222 22.6031
36.5101 22.4766
36.6981 22.1365
36.8861 21.889
37.0743 21.5143
37.2626 21.2945
37.451 21.0237
37.6395 20.8813
37.8281 20.5262
38.0168 20.2471
38.2056 19.9715
38.3945 19.7178
38.5837 19.5172
38.7728 19.2326
38.9621 19.004
39.1514 18.7112
39.3409 18.4981
39.5304 18.247
39.7201 18.0445
39.9099 17.8488
40.0999 17.5879
40.2899 17.3602
40.48 17.2094
40.6703 16.9322
40.8607 16.7492
41.0512 16.5067
41.242 16.2739
41.4327 16.0616
41.6236 15.8791
41.8146 15.6489
42.0057 15.4464
42.1969 15.2618
42.3882 15.095
42.5797 14.8087
42.7713 14.6291
42.963 14.4256
43.1549 14.2967
43.3468 14.0716
43.5389 13.8113
43.7312 13.66
43.9237 13.4798
44.1162 13.288
44.3088 13.1389
44.5016 12.8617
44.6945 12.7684
44.8875 12.5194
45.0806 12.4407
45.2739 12.1852
45.4673 12.0903
45.6609 11.8656
45.8546 11.7063
46.0484 11.5436
46.2424 11.3885
46.4365 11.2473
46.631 11.0586
46.8254 10.8496
47.0199 10.7409
47.2146 10.5652
47.4095 10.4067
47.6044 10.2927
47.7996 10.0805
47.9948 9.97731
48.1902 9.80117
48.3858 9.67977
48.5815 9.53975
48.7774 9.41332
48.9734 9.25393
49.1696 9.14032
49.3661 8.97758
49.5626 8.81531
49.7592 8.69512
49.956 8.61393
50.153 8.43302
50.3501 8.3251
50.5474 8.19469
50.7448 8.07872
50.9424 7.95487
51.1402 7.80727
51.3381 7.68382
51.5362 7.56412
51.7344 7.47674
51.9328 7.27478
52.1316 7.18418
52.3304 7.0847
52.5293 6.92846
52.7284 6.91732
52.9276 6.72634
53.1271 6.63886
53.3267 6.5365
53.5265 6.3949
53.7264 6.29013
53.9266 6.20953
54.1269 6.05744
54.3274 5.91723
54.528 5.78416
54.7289 5.6259
54.9301 5.49383
55.1314 5.33045
55.3328 5.12939
55.5344 4.95979
55.7361 4.85441