File: XRD/Ni3Fe_FD0750.xy
TT I
1.27165 7.38708
1.45013 6.31256
1.62863 4.88928
1.80712 4.72967
1.98562 4.1619
2.16411 5.15834
2.34263 5.05521
2.52115 7.06316
2.69965 8.03795
2.87818 9.00221
3.05672 11.48
3.23527 15.3937
3.4138 18.7072
3.59237 24.5083
3.77094 26.1956
3.9495 29.7723
4.12809 34.9988
4.30669 239.545
4.4853 67.9735
4.6639 55.0484
4.84253 66.64
5.02118 85.2968
5.19981 312.115
5.37848 186.544
5.55716 101.594
5.73586 91.4827
5.91455 91.7628
6.09328 4317.02
6.27201 82.7631
6.45075 67.0757
6.62952 62.4698
6.8083 58.7756
6.98711 56.0125
7.16591 55.7275
7.34475 96.1734
7.5236 54.7708
7.70247 55.9746
7.88135 57.5651
8.06026 61.9431
8.23919 68.9946
8.41812 84.4596
8.59709 1137.72
8.77609 98.5459
8.9551 91.8087
9.13412 81.2241
9.31318 81.7447
9.49226 84.0255
9.67134 99.0139
9.85047 99.1042
10.0296 314.243
10.2088 404.102
10.388 103.763
10.5672 512.44
10.7465 85.8809
10.9257 77.851
11.105 71.3763
11.2844 70.2181
11.4637 64.4677
11.6431 63.3088
11.8225 62.074
12.002 63.0895
12.1814 150.183
12.3609 71.2564
12.5405 63.9752
12.72 69.879
12.8996 70.635
13.0792 77.7231
13.2589 230.597
13.4386 125.919
13.6183 241.128
13.7981 97.6082
13.9779 75.1405
14.1577 71.9988
14.3376 71.5403
14.5175 68.2337
14.6974 69.8216
14.8774 106.966
15.0574 152.162
15.2374 70.8775
15.4175 65.9215
15.5976 65.2399
15.7778 91.9338
15.958 156.716
16.1382 62.7099
16.3185 58.4957
16.4988 55.1849
16.6792 54.2749
16.8596 55.1109
17.04 55.4742
17.2205 65.7065
17.401 71.0819
17.5815 58.7458
17.7622 60.6743
17.9428 71.9911
18.1237 138.696
18.3044 89.742
18.4852 77.6144
18.666 60.2343
18.8469 57.6343
19.0278 56.5409
19.2088 59.0513
19.3898 76.4523
19.5709 53.8286
19.752 52.9706
19.9332 55.5014
20.1144 69.4088
20.2957 63.5199
20.477 53.4361
20.6586 49.3483
20.84 48.6356
21.0215 48.3269
21.203 50.5349
21.3846 48.6263
21.5662 48.5176
21.7479 51.9993
21.9297 64.2082
22.1115 55.7642
22.2933 49.7525
22.4753 48.7612
22.6572 48.3697
22.8393 51.4019
23.0214 57.0901
23.2037 48.5294
23.3859 49.2029
23.5682 56.9963
23.7505 48.0876
23.9329 44.9424
24.1154 43.9225
24.2979 43.0565
24.4805 42.7316
24.6631 42.6784
24.8458 41.9517
25.0286 42.4981
25.2114 44.3577
25.3943 44.3761
25.5773 40.685
25.7605 40.0933
25.9436 40.5908
26.1268 41.5149
26.31 39.7873
26.4933 40.4739
26.6767 41.9071
26.8601 40.1445
27.0437 38.6139
27.2272 38.2276
27.4109 38.2366
27.5946 38.0774
27.7784 37.7193
27.9623 38.1073
28.1462 38.534
28.3304 36.864
28.5145 35.7251
28.6987 35.4802
28.8829 35.274
29.0673 34.4472
29.2517 34.1817
29.4361 33.8723
29.6207 33.0135
29.8053 32.775
29.99 32.4088
30.1748 32.2088
30.3597 32.0807
30.5447 32.1395
30.7297 31.9303
30.915 31.404
31.1002 30.8722
31.2855 30.6265
31.4708 30.5182
31.6563 30.2348
31.8418 30.0191
32.0275 29.8103
32.2132 29.2607
32.399 28.7434
32.5848 28.3116
32.7708 28.0238
32.9569 27.8243
33.143 27.6757
33.3293 27.2981
33.5158 26.9418
33.7022 26.4402
33.8887 26.2573
34.0753 25.8683
34.262 25.5136
34.4488 25.1036
34.6357 24.8175
34.8227 24.6047
35.0098 24.2662
35.1969 24.0687
35.3842 23.8195
35.5716 23.6409
35.759 23.3007
35.9468 22.9483
36.1345 22.7632
36.3222 22.5398
36.5101 22.2936
36.6981 22.0232
36.8861 21.6544
37.0743 21.4186
37.2626 21.1705
37.451 20.8702
37.6395 20.7314
37.8281 20.4193
38.0168 20.0832
38.2056 19.8359
38.3945 19.6061
38.5837 19.398
38.7728 19.1341
38.9621 18.8918
39.1514 18.5794
39.3409 18.3975
39.5304 18.0947
39.7201 17.9559
39.9099 17.8036
40.0999 17.5695
40.2899 17.2947
40.48 17.0027
40.6703 16.7868
40.8607 16.6474
41.0512 16.4131
41.242 16.1757
41.4327 15.9941
41.6236 15.7496
41.8146 15.5397
42.0057 15.3184
42.1969 15.1843
42.3882 15.0046
42.5797 14.7096
42.7713 14.5803
42.963 14.3989
43.1549 14.2172
43.3468 13.9272
43.5389 13.7999
43.7312 13.5299
43.9237 13.3338
44.1162 13.1955
44.3088 13.044
44.5016 12.8184
44.6945 12.651
44.8875 12.541
45.0806 12.2889
45.2739 12.1887
45.4673 11.9924
45.6609 11.7479
45.8546 11.669
46.0484 11.4892
46.2424 11.2731
46.4365 11.1472
46.631 10.9808
46.8254 10.7945
47.0199 10.6904
47.2146 10.4917
47.4095 10.3715
47.6044 10.1963
47.7996 10.0427
47.9948 9.87494
48.1902 9.79245
48.3858 9.61648
48.5815 9.49076
48.7774 9.3761
48.9734 9.1712
49.1696 9.08608
49.3661 8.89607
49.5626 8.78596
49.7592 8.63782
49.956 8.56417
50.153 8.37615
50.3501 8.25061
50.5474 8.15746
50.7448 8.03168
50.9424 7.91264
51.1402 7.73623
51.3381 7.62386
51.5362 7.55065
51.7344 7.36754
51.9328 7.26912
52.1316 7.15224
52.3304 7.08219
52.5293 6.93154
52.7284 6.80177
52.9276 6.69797
53.1271 6.61082
53.3267 6.47096
53.5265 6.37022
53.7264 6.2789
53.9266 6.13072
54.1269 6.03479
54.3274 5.91198
54.528 5.81069
54.7289 5.64186
54.9301 5.46646
55.1314 5.33978
55.3328 5.09694
55.5344 4.95125
55.7361 4.84946