File: XRD/Ni3Fe_FD0573.xy
TT I
1.27165 7.43919
1.45013 6.621
1.62863 5.48617
1.80712 5.03446
1.98562 5.15611
2.16411 4.90492
2.34263 4.68219
2.52115 6.94317
2.69965 8.42361
2.87818 8.60381
3.05672 10.9547
3.23527 14.9038
3.4138 18.6
3.59237 23.4588
3.77094 25.9741
3.9495 29.8059
4.12809 34.7673
4.30669 130.347
4.4853 57.4382
4.6639 56.6699
4.84253 68.5903
5.02118 89.1877
5.19981 464.504
5.37848 196.687
5.55716 103.753
5.73586 94.0152
5.91455 97.5269
6.09328 4596.43
6.27201 82.8786
6.45075 68.615
6.62952 62.8918
6.8083 59.1499
6.98711 56.2841
7.16591 55.587
7.34475 74.3433
7.5236 55.2357
7.70247 56.8824
7.88135 58.2603
8.06026 62.8556
8.23919 70.1587
8.41812 86.3414
8.59709 1246.01
8.77609 100.041
8.9551 90.162
9.13412 83.2992
9.31318 84.1312
9.49226 85.5886
9.67134 96.8694
9.85047 101.585
10.0296 383.999
10.2088 366.654
10.388 106.8
10.5672 523.781
10.7465 87.4139
10.9257 78.568
11.105 72.3177
11.2844 69.75
11.4637 65.2051
11.6431 63.989
11.8225 63.0737
12.002 64.838
12.1814 157.508
12.3609 68.2805
12.5405 65.4429
12.72 69.2509
12.8996 71.9466
13.0792 81.0937
13.2589 252.951
13.4386 121.181
13.6183 257.457
13.7981 95.6842
13.9779 76.574
14.1577 72.6781
14.3376 71.3765
14.5175 69.6356
14.6974 71.3124
14.8774 116.734
15.0574 143.01
15.2374 70.6715
15.4175 67.1306
15.5976 66.5308
15.7778 99.2449
15.958 148.727
16.1382 62.4114
16.3185 58.7828
16.4988 56.1279
16.6792 54.9373
16.8596 55.4713
17.04 56.581
17.2205 68.1611
17.401 70.7554
17.5815 59.7054
17.7622 61.9847
17.9428 75.8128
18.1237 141.22
18.3044 92.261
18.4852 76.109
18.666 61.1192
18.8469 58.7263
19.0278 57.268
19.2088 60.3552
19.3898 76.3297
19.5709 54.4416
19.752 53.7301
19.9332 57.0666
20.1144 70.1548
20.2957 64.0957
20.477 53.5779
20.6586 50.0067
20.84 49.0853
21.0215 49.1008
21.203 51.2202
21.3846 49.2316
21.5662 49.4676
21.7479 53.4113
21.9297 64.9904
22.1115 56.3824
22.2933 50.0886
22.4753 49.0809
22.6572 49.3389
22.8393 52.607
23.0214 57.4108
23.2037 49.2019
23.3859 50.221
23.5682 57.2106
23.7505 48.3765
23.9329 45.485
24.1154 44.4516
24.2979 43.7659
24.4805 43.2049
24.6631 43.16
24.8458 42.5126
25.0286 43.3314
25.2114 44.8993
25.3943 44.9003
25.5773 41.1962
25.7605 40.7063
25.9436 41.2087
26.1268 41.9465
26.31 40.516
26.4933 41.2546
26.6767 42.4739
26.8601 40.796
27.0437 39.1714
27.2272 38.8868
27.4109 38.7736
27.5946 38.619
27.7784 38.1202
27.9623 38.6148
28.1462 39.079
28.3304 37.3372
28.5145 36.2989
28.6987 35.8123
28.8829 35.6547
29.0673 34.8542
29.2517 34.6403
29.4361 34.4255
29.6207 33.351
29.8053 33.1678
29.99 32.7706
30.1748 32.7071
30.3597 32.4698
30.5447 32.4516
30.7297 32.42
30.915 31.8195
31.1002 31.4131
31.2855 31.0651
31.4708 31.0739
31.6563 30.5865
31.8418 30.4334
32.0275 30.1319
32.2132 29.6352
32.399 29.1712
32.5848 28.6244
32.7708 28.3553
32.9569 28.0999
33.143 27.9777
33.3293 27.5617
33.5158 27.2228
33.7022 26.7929
33.8887 26.4906
34.0753 26.2096
34.262 25.7754
34.4488 25.4709
34.6357 25.1065
34.8227 24.921
35.0098 24.6429
35.1969 24.3782
35.3842 24.1558
35.5716 23.8998
35.759 23.6671
35.9468 23.2872
36.1345 23.0473
36.3222 22.8309
36.5101 22.5761
36.6981 22.2965
36.8861 21.9682
37.0743 21.7257
37.2626 21.4566
37.451 21.1266
37.6395 21.0146
37.8281 20.617
38.0168 20.3858
38.2056 20.1012
38.3945 19.8617
38.5837 19.5882
38.7728 19.3285
38.9621 19.1078
39.1514 18.8424
39.3409 18.57
39.5304 18.3687
39.7201 18.1324
39.9099 18.007
40.0999 17.7398
40.2899 17.4636
40.48 17.199
40.6703 17.0288
40.8607 16.7834
41.0512 16.6104
41.242 16.3788
41.4327 16.1507
41.6236 15.8753
41.8146 15.7384
42.0057 15.491
42.1969 15.3371
42.3882 15.1459
42.5797 14.9095
42.7713 14.7456
42.963 14.5099
43.1549 14.3413
43.3468 14.1283
43.5389 13.9349
43.7312 13.6986
43.9237 13.5599
44.1162 13.3337
44.3088 13.1503
44.5016 12.9885
44.6945 12.8069
44.8875 12.623
45.0806 12.4588
45.2739 12.2467
45.4673 12.1152
45.6609 11.9238
45.8546 11.786
46.0484 11.5849
46.2424 11.4204
46.4365 11.3127
46.631 11.1234
46.8254 10.9178
47.0199 10.7594
47.2146 10.6251
47.4095 10.4547
47.6044 10.2905
47.7996 10.1317
47.9948 10.0202
48.1902 9.86348
48.3858 9.73091
48.5815 9.61914
48.7774 9.46034
48.9734 9.28315
49.1696 9.16668
49.3661 9.02071
49.5626 8.83717
49.7592 8.72329
49.956 8.63625
50.153 8.45421
50.3501 8.32668
50.5474 8.19597
50.7448 8.10155
50.9424 7.94698
51.1402 7.8547
51.3381 7.73824
51.5362 7.64073
51.7344 7.49226
51.9328 7.33599
52.1316 7.19461
52.3304 7.10633
52.5293 6.97564
52.7284 6.89816
52.9276 6.74251
53.1271 6.65265
53.3267 6.56522
53.5265 6.4134
53.7264 6.35746
53.9266 6.19322
54.1269 6.09728
54.3274 5.99291
54.528 5.88867
54.7289 5.72045
54.9301 5.57023
55.1314 5.38226
55.3328 5.19074
55.5344 5.00557
55.7361 4.85267