File: XRD/Ni3Fe_FD0670.xy
TT I
1.27165 7.30477
1.45013 6.25205
1.62863 5.3062
1.80712 4.96604
1.98562 4.89281
2.16411 4.93003
2.34263 4.88175
2.52115 7.3109
2.69965 8.18539
2.87818 9.52838
3.05672 10.9522
3.23527 15.1349
3.4138 18.925
3.59237 23.547
3.77094 26.0597
3.9495 29.8665
4.12809 35.085
4.30669 167.741
4.4853 60.7044
4.6639 55.7462
4.84253 67.5739
5.02118 87.2712
5.19981 375.616
5.37848 181.337
5.55716 101.877
5.73586 92.4996
5.91455 94.8627
6.09328 4508.61
6.27201 81.892
6.45075 67.1729
6.62952 62.6545
6.8083 58.1607
6.98711 55.6259
7.16591 55.0688
7.34475 81.2217
7.5236 54.634
7.70247 55.9919
7.88135 57.4845
8.06026 62.183
8.23919 69.5377
8.41812 85.154
8.59709 1224.48
8.77609 98.2805
8.9551 90.1204
9.13412 81.823
9.31318 82.3459
9.49226 84.7452
9.67134 96.6221
9.85047 99.5879
10.0296 358.926
10.2088 372.093
10.388 104.248
10.5672 511.505
10.7465 86.2045
10.9257 77.5942
11.105 71.5571
11.2844 69.1601
11.4637 64.8215
11.6431 63.6017
11.8225 62.3062
12.002 63.7229
12.1814 153.163
12.3609 68.9822
12.5405 64.3404
12.72 68.9598
12.8996 70.8625
13.0792 79.4474
13.2589 245.696
13.4386 120.674
13.6183 253.092
13.7981 94.0375
13.9779 75.4135
14.1577 72.2156
14.3376 70.9261
14.5175 68.9044
14.6974 70.1484
14.8774 112.373
15.0574 142.175
15.2374 70.1742
15.4175 66.1398
15.5976 65.6112
15.7778 95.8837
15.958 153.472
16.1382 61.9358
16.3185 58.2239
16.4988 55.5005
16.6792 54.3937
16.8596 54.998
17.04 55.7322
17.2205 67.0672
17.401 69.7682
17.5815 59.1317
17.7622 61.0337
17.9428 74.1469
18.1237 142.653
18.3044 91.1524
18.4852 75.5769
18.666 60.1508
18.8469 57.7527
19.0278 56.7056
19.2088 59.4577
19.3898 76.7281
19.5709 54.0972
19.752 53.2551
19.9332 56.2218
20.1144 69.9462
20.2957 64.057
20.477 53.0284
20.6586 49.5132
20.84 48.6148
21.0215 48.4188
21.203 50.846
21.3846 48.8237
21.5662 48.7166
21.7479 52.5977
21.9297 64.9004
22.1115 56.2388
22.2933 49.5896
22.4753 48.5593
22.6572 48.9812
22.8393 52.0456
23.0214 57.1079
23.2037 48.7355
23.3859 49.5957
23.5682 57.2522
23.7505 47.8679
23.9329 45.0323
24.1154 43.9586
24.2979 43.3551
24.4805 42.8102
24.6631 42.6847
24.8458 42.3827
25.0286 42.9479
25.2114 44.5599
25.3943 44.4609
25.5773 40.8288
25.7605 40.3044
25.9436 40.8824
26.1268 41.6597
26.31 39.9644
26.4933 40.6468
26.6767 42.2342
26.8601 40.4031
27.0437 38.9747
27.2272 38.3449
27.4109 38.4664
27.5946 38.2703
27.7784 37.8255
27.9623 38.4661
28.1462 38.726
28.3304 37.0326
28.5145 35.9408
28.6987 35.6429
28.8829 35.4135
29.0673 34.6324
29.2517 34.2697
29.4361 34.0915
29.6207 33.1182
29.8053 32.887
29.99 32.4956
30.1748 32.4042
30.3597 32.2632
30.5447 32.1206
30.7297 32.1586
30.915 31.5304
31.1002 31.1365
31.2855 30.8254
31.4708 30.7585
31.6563 30.2754
31.8418 30.1072
32.0275 29.838
32.2132 29.2815
32.399 28.8424
32.5848 28.3245
32.7708 28.0791
32.9569 28.0074
33.143 27.7126
33.3293 27.3494
33.5158 26.9999
33.7022 26.6256
33.8887 26.3058
34.0753 25.9181
34.262 25.6774
34.4488 25.2722
34.6357 24.9628
34.8227 24.698
35.0098 24.4272
35.1969 24.2241
35.3842 24.0112
35.5716 23.7303
35.759 23.4201
35.9468 23.0536
36.1345 22.9639
36.3222 22.6409
36.5101 22.348
36.6981 22.0526
36.8861 21.7647
37.0743 21.4437
37.2626 21.2787
37.451 20.9998
37.6395 20.7811
37.8281 20.4913
38.0168 20.1938
38.2056 19.8991
38.3945 19.6339
38.5837 19.4897
38.7728 19.1555
38.9621 18.9385
39.1514 18.7176
39.3409 18.514
39.5304 18.1848
39.7201 18.0348
39.9099 17.7991
40.0999 17.555
40.2899 17.2939
40.48 17.0643
40.6703 16.8849
40.8607 16.7024
41.0512 16.4954
41.242 16.2459
41.4327 16.0346
41.6236 15.8821
41.8146 15.6082
42.0057 15.4184
42.1969 15.2291
42.3882 15.0283
42.5797 14.7992
42.7713 14.6104
42.963 14.3777
43.1549 14.2199
43.3468 13.9959
43.5389 13.8379
43.7312 13.5662
43.9237 13.4417
44.1162 13.2447
44.3088 13.0847
44.5016 12.8687
44.6945 12.7241
44.8875 12.5536
45.0806 12.3437
45.2739 12.1792
45.4673 12.0249
45.6609 11.852
45.8546 11.6865
46.0484 11.5661
46.2424 11.3278
46.4365 11.216
46.631 10.9927
46.8254 10.8614
47.0199 10.6816
47.2146 10.5565
47.4095 10.3429
47.6044 10.2486
47.7996 10.0878
47.9948 9.93434
48.1902 9.769
48.3858 9.63699
48.5815 9.55918
48.7774 9.3504
48.9734 9.18881
49.1696 9.06633
49.3661 8.94778
49.5626 8.80665
49.7592 8.73946
49.956 8.56867
50.153 8.40235
50.3501 8.28718
50.5474 8.16557
50.7448 8.03189
50.9424 7.92469
51.1402 7.79031
51.3381 7.6534
51.5362 7.5284
51.7344 7.43385
51.9328 7.27409
52.1316 7.16298
52.3304 7.03834
52.5293 6.9324
52.7284 6.85145
52.9276 6.67176
53.1271 6.61442
53.3267 6.46149
53.5265 6.40182
53.7264 6.26035
53.9266 6.19563
54.1269 6.06697
54.3274 5.90586
54.528 5.80494
54.7289 5.65792
54.9301 5.47789
55.1314 5.35285
55.3328 5.10268
55.5344 4.96565
55.7361 4.796