File: XRD/Ni3Fe_FD0492.xy
TT I
1.27165 7.66144
1.45013 6.30886
1.62863 5.64524
1.80712 5.31418
1.98562 4.40233
2.16411 4.94417
2.34263 5.01754
2.52115 6.7982
2.69965 7.60139
2.87818 8.76737
3.05672 11.0087
3.23527 15.0506
3.4138 19.1223
3.59237 23.568
3.77094 26.4004
3.9495 30.1127
4.12809 34.968
4.30669 173.731
4.4853 62.2668
4.6639 56.1284
4.84253 68.3392
5.02118 88.5408
5.19981 427.83
5.37848 206.175
5.55716 104.283
5.73586 94.1801
5.91455 97.1869
6.09328 4191.9
6.27201 84.5927
6.45075 68.4645
6.62952 63.4729
6.8083 59.5932
6.98711 56.4004
7.16591 55.8675
7.34475 83.8639
7.5236 55.5392
7.70247 56.6084
7.88135 58.5018
8.06026 63.3793
8.23919 70.5761
8.41812 86.3047
8.59709 1207.98
8.77609 102.71
8.9551 91.9018
9.13412 83.5264
9.31318 84.1053
9.49226 85.3835
9.67134 98.0819
9.85047 101.635
10.0296 378.497
10.2088 462.264
10.388 106.559
10.5672 500.443
10.7465 88.2103
10.9257 79.2187
11.105 72.6523
11.2844 70.7345
11.4637 65.8863
11.6431 64.5094
11.8225 63.3765
12.002 64.632
12.1814 156.371
12.3609 70.7924
12.5405 65.463
12.72 70.0393
12.8996 72.0837
13.0792 80.2442
13.2589 246.047
13.4386 132.166
13.6183 249.702
13.7981 103.36
13.9779 76.8808
14.1577 73.2604
14.3376 72.4589
14.5175 70.0563
14.6974 71.4646
14.8774 114.772
15.0574 156.448
15.2374 71.7142
15.4175 67.5603
15.5976 66.8077
15.7778 98.5451
15.958 158.224
16.1382 63.336
16.3185 59.341
16.4988 56.349
16.6792 55.4397
16.8596 56.0069
17.04 56.8923
17.2205 68.2837
17.401 72.94
17.5815 60.0529
17.7622 62.0661
17.9428 75.6757
18.1237 135.723
18.3044 91.7004
18.4852 80.8054
18.666 61.3573
18.8469 58.8172
19.0278 57.7026
19.2088 60.5583
19.3898 75.554
19.5709 54.9365
19.752 54.2632
19.9332 57.2242
20.1144 69.9062
20.2957 64.2694
20.477 54.8657
20.6586 50.4502
20.84 49.6303
21.0215 49.5158
21.203 51.5823
21.3846 49.8669
21.5662 49.6319
21.7479 53.4577
21.9297 64.85
22.1115 56.5394
22.2933 50.8855
22.4753 49.6412
22.6572 49.798
22.8393 53.0087
23.0214 57.8066
23.2037 49.5335
23.3859 50.6084
23.5682 57.0359
23.7505 49.43
23.9329 45.9002
24.1154 44.7991
24.2979 44.0912
24.4805 43.7161
24.6631 43.4615
24.8458 42.8539
25.0286 43.6359
25.2114 45.3821
25.3943 45.1601
25.5773 41.6242
25.7605 41.1774
25.9436 41.4755
26.1268 42.2601
26.31 40.6273
26.4933 41.337
26.6767 42.5215
26.8601 41.0413
27.0437 39.4818
27.2272 39.1439
27.4109 38.9631
27.5946 38.8994
27.7784 38.5652
27.9623 38.9692
28.1462 39.4116
28.3304 37.7982
28.5145 36.5405
28.6987 36.1031
28.8829 35.9682
29.0673 35.1758
29.2517 34.8319
29.4361 34.5925
29.6207 33.5961
29.8053 33.417
29.99 33.0959
30.1748 32.8826
30.3597 32.7957
30.5447 32.6768
30.7297 32.7748
30.915 32.1199
31.1002 31.5326
31.2855 31.2756
31.4708 31.2128
31.6563 30.7989
31.8418 30.5963
32.0275 30.374
32.2132 29.7678
32.399 29.3203
32.5848 28.9223
32.7708 28.6381
32.9569 28.4252
33.143 28.2232
33.3293 27.7593
33.5158 27.3848
33.7022 26.9734
33.8887 26.6275
34.0753 26.3682
34.262 26.0511
34.4488 25.7046
34.6357 25.36
34.8227 25.0457
35.0098 24.8035
35.1969 24.5094
35.3842 24.3451
35.5716 24.1085
35.759 23.8323
35.9468 23.532
36.1345 23.2757
36.3222 23.0318
36.5101 22.7274
36.6981 22.4373
36.8861 22.1332
37.0743 21.8396
37.2626 21.5771
37.451 21.2873
37.6395 21.0628
37.8281 20.8012
38.0168 20.4918
38.2056 20.1842
38.3945 20.0124
38.5837 19.8041
38.7728 19.4491
38.9621 19.261
39.1514 19.0306
39.3409 18.7241
39.5304 18.5398
39.7201 18.3469
39.9099 18.0569
40.0999 17.8177
40.2899 17.6111
40.48 17.3349
40.6703 17.165
40.8607 16.9527
41.0512 16.7373
41.242 16.4835
41.4327 16.3202
41.6236 16.0689
41.8146 15.8833
42.0057 15.6555
42.1969 15.4531
42.3882 15.2567
42.5797 14.9789
42.7713 14.8253
42.963 14.6165
43.1549 14.3692
43.3468 14.1847
43.5389 14.0283
43.7312 13.8054
43.9237 13.6651
44.1162 13.444
44.3088 13.3203
44.5016 13.0739
44.6945 12.9059
44.8875 12.7057
45.0806 12.56
45.2739 12.4415
45.4673 12.2174
45.6609 12.0159
45.8546 11.8864
46.0484 11.7428
46.2424 11.5344
46.4365 11.3536
46.631 11.1829
46.8254 11.0523
47.0199 10.8559
47.2146 10.7327
47.4095 10.5179
47.6044 10.3541
47.7996 10.1982
47.9948 10.0694
48.1902 9.91071
48.3858 9.81816
48.5815 9.64906
48.7774 9.50774
48.9734 9.38378
49.1696 9.2405
49.3661 9.07457
49.5626 8.95451
49.7592 8.81964
49.956 8.6825
50.153 8.53803
50.3501 8.40855
50.5474 8.2735
50.7448 8.1744
50.9424 8.0546
51.1402 7.92754
51.3381 7.79539
51.5362 7.67452
51.7344 7.50099
51.9328 7.37314
52.1316 7.28512
52.3304 7.17482
52.5293 7.0321
52.7284 6.94355
52.9276 6.85336
53.1271 6.70222
53.3267 6.55359
53.5265 6.48036
53.7264 6.38245
53.9266 6.2561
54.1269 6.17918
54.3274 6.03014
54.528 5.86185
54.7289 5.71894
54.9301 5.58442
55.1314 5.45141
55.3328 5.22521
55.5344 5.00599
55.7361 4.93146