File: XRD/Ni3Fe_FD0029.xy
TT I
1.27165 32.8805
1.45013 28.8139
1.62863 25.0413
1.80712 23.1544
1.98562 22.7674
2.16411 24.6131
2.34263 25.2134
2.52115 24.1564
2.69965 27.9091
2.87818 37.7445
3.05672 63.9345
3.23527 74.1507
3.4138 39.8548
3.59237 38.2146
3.77094 38.1115
3.9495 35.2757
4.12809 47.3422
4.30669 92.2365
4.4853 59.7115
4.6639 45.4098
4.84253 52.3381
5.02118 87.8491
5.19981 288.876
5.37848 3599.0
5.55716 154.274
5.73586 100.391
5.91455 113.001
6.09328 479.069
6.27201 293.706
6.45075 71.8298
6.62952 56.0428
6.8083 55.6428
6.98711 43.9672
7.16591 47.3738
7.34475 77.2739
7.5236 54.9019
7.70247 44.5895
7.88135 37.4157
8.06026 39.3484
8.23919 45.3124
8.41812 57.9521
8.59709 166.985
8.77609 600.809
8.9551 77.4092
9.13412 59.7134
9.31318 249.641
9.49226 54.0102
9.67134 54.3219
9.85047 62.0102
10.0296 104.444
10.2088 535.899
10.388 124.71
10.5672 92.5843
10.7465 249.441
10.9257 49.5943
11.105 43.8692
11.2844 42.9049
11.4637 38.8815
11.6431 38.5604
11.8225 37.1641
12.002 75.6711
12.1814 47.4836
12.3609 95.7609
12.5405 44.6835
12.72 42.5979
12.8996 40.0629
13.0792 43.3794
13.2589 65.1751
13.4386 160.374
13.6183 89.3479
13.7981 169.315
13.9779 59.6833
14.1577 49.355
14.3376 46.5336
14.5175 39.2274
14.6974 39.0738
14.8774 44.3113
15.0574 63.0127
15.2374 83.0267
15.4175 41.7477
15.5976 39.0173
15.7778 42.3189
15.958 56.0415
16.1382 106.784
16.3185 39.5947
16.4988 34.1902
16.6792 32.3226
16.8596 32.3371
17.04 40.2064
17.2205 34.0212
17.401 37.269
17.5815 45.6313
17.7622 35.7943
17.9428 40.1122
18.1237 43.5049
18.3044 92.3815
18.4852 55.5292
18.666 59.9938
18.8469 36.3993
19.0278 34.0468
19.2088 34.0737
19.3898 40.8319
19.5709 47.18
19.752 35.371
19.9332 32.2336
20.1144 32.9595
20.2957 43.7034
20.477 38.9496
20.6586 37.1069
20.84 32.2865
21.0215 29.8935
21.203 29.1082
21.3846 29.7384
21.5662 31.9308
21.7479 30.0656
21.9297 31.4916
22.1115 41.7285
22.2933 40.8277
22.4753 34.4285
22.6572 30.2719
22.8393 30.7577
23.0214 31.429
23.2037 39.4436
23.3859 33.0236
23.5682 34.065
23.7505 34.6369
23.9329 38.6302
24.1154 29.251
24.2979 27.6447
24.4805 26.7719
24.6631 26.7634
24.8458 27.6745
25.0286 26.389
25.2114 26.5382
25.3943 28.931
25.5773 30.2601
25.7605 27.8733
25.9436 26.6856
26.1268 25.6543
26.31 26.9255
26.4933 27.4
26.6767 25.8663
26.8601 27.4829
27.0437 29.3718
27.2272 26.3268
27.4109 24.836
27.5946 24.5884
27.7784 25.0973
27.9623 24.9775
28.1462 25.4382
28.3304 27.1306
28.5145 26.585
28.6987 24.5975
28.8829 23.0657
29.0673 22.7814
29.2517 23.3051
29.4361 22.2429
29.6207 22.1287
29.8053 22.4263
29.99 21.4391
30.1748 21.3863
30.3597 21.1107
30.5447 21.4879
30.7297 21.0306
30.915 21.2061
31.1002 22.4523
31.2855 21.3751
31.4708 20.5135
31.6563 20.608
31.8418 21.2202
32.0275 20.3223
32.2132 20.3381
32.399 20.4643
32.5848 19.5776
32.7708 18.9828
32.9569 18.8837
33.143 18.789
33.3293 18.4316
33.5158 18.7943
33.7022 18.7475
33.8887 17.8837
34.0753 17.6778
34.262 17.6335
34.4488 17.2094
34.6357 16.9899
34.8227 16.8981
35.0098 16.5364
35.1969 16.3463
35.3842 16.2906
35.5716 16.183
35.759 16.4146
35.9468 16.4338
36.1345 15.9279
36.3222 15.6586
36.5101 15.626
36.6981 15.3469
36.8861 15.1458
37.0743 15.0369
37.2626 14.7114
37.451 14.5307
37.6395 14.4278
37.8281 14.1542
38.0168 14.1084
38.2056 13.9329
38.3945 13.6185
38.5837 13.4956
38.7728 13.4419
38.9621 13.1606
39.1514 13.0628
39.3409 12.856
39.5304 12.6869
39.7201 12.5555
39.9099 12.4441
40.0999 12.2992
40.2899 12.2035
40.48 11.9888
40.6703 11.8649
40.8607 11.7811
41.0512 11.5839
41.242 11.5038
41.4327 11.3424
41.6236 11.1331
41.8146 11.0488
42.0057 10.8853
42.1969 10.8208
42.3882 10.6514
42.5797 10.4974
42.7713 10.3523
42.963 10.1753
43.1549 10.0002
43.3468 9.88736
43.5389 9.77062
43.7312 9.64674
43.9237 9.49472
44.1162 9.41051
44.3088 9.3323
44.5016 9.17277
44.6945 9.05731
44.8875 8.94204
45.0806 8.79295
45.2739 8.68679
45.4673 8.55963
45.6609 8.44895
45.8546 8.338
46.0484 8.23912
46.2424 8.13429
46.4365 8.03882
46.631 7.88835
46.8254 7.77221
47.0199 7.64855
47.2146 7.56907
47.4095 7.44467
47.6044 7.31485
47.7996 7.25249
47.9948 7.14805
48.1902 7.0101
48.3858 6.93778
48.5815 6.84421
48.7774 6.76882
48.9734 6.65339
49.1696 6.54686
49.3661 6.46198
49.5626 6.35899
49.7592 6.30521
49.956 6.21521
50.153 6.16192
50.3501 5.98853
50.5474 5.93063
50.7448 5.85882
50.9424 5.75768
51.1402 5.67619
51.3381 5.5917
51.5362 5.49868
51.7344 5.40469
51.9328 5.32569
52.1316 5.24802
52.3304 5.17682
52.5293 5.08088
52.7284 5.01432
52.9276 4.93064
53.1271 4.8633
53.3267 4.79335
53.5265 4.68527
53.7264 4.57557
53.9266 4.54741
54.1269 4.45508
54.3274 4.35421
54.528 4.20807
54.7289 4.12893
54.9301 3.96821
55.1314 3.86931
55.3328 3.69429
55.5344 3.54333
55.7361 3.45688