File: XRD/Ni3Fe_FD1081.xy
TT I
1.27165 6.65262
1.45013 5.82825
1.62863 4.95444
1.80712 4.71282
1.98562 4.82657
2.16411 4.38116
2.34263 4.67823
2.52115 6.60578
2.69965 8.85665
2.87818 8.70181
3.05672 10.9778
3.23527 15.0518
3.4138 17.7794
3.59237 21.5027
3.77094 24.7078
3.9495 28.5021
4.12809 32.4641
4.30669 55.8905
4.4853 46.0514
4.6639 52.8335
4.84253 64.1548
5.02118 82.9591
5.19981 232.623
5.37848 203.798
5.55716 97.4539
5.73586 87.7541
5.91455 88.8252
6.09328 4460.42
6.27201 76.0507
6.45075 63.5892
6.62952 58.402
6.8083 54.6902
6.98711 52.4587
7.16591 51.961
7.34475 55.8085
7.5236 57.6035
7.70247 53.4163
7.88135 54.6079
8.06026 59.3519
8.23919 65.7779
8.41812 78.0134
8.59709 1120.95
8.77609 94.7439
8.9551 82.558
9.13412 78.946
9.31318 87.8662
9.49226 81.5075
9.67134 86.8802
9.85047 94.5265
10.0296 354.082
10.2088 440.665
10.388 97.7296
10.5672 517.015
10.7465 85.8303
10.9257 73.6286
11.105 68.5606
11.2844 64.788
11.4637 61.9921
11.6431 60.4993
11.8225 59.825
12.002 66.0048
12.1814 147.958
12.3609 64.6568
12.5405 61.572
12.72 63.9528
12.8996 67.8443
13.0792 76.6919
13.2589 232.073
13.4386 125.346
13.6183 238.022
13.7981 99.8463
13.9779 73.885
14.1577 74.6868
14.3376 67.2782
14.5175 66.5722
14.6974 67.4198
14.8774 111.289
15.0574 158.038
15.2374 66.4907
15.4175 64.3098
15.5976 63.6872
15.7778 95.4606
15.958 168.618
16.1382 60.0332
16.3185 55.6549
16.4988 53.49
16.6792 52.7454
16.8596 52.9625
17.04 53.6766
17.2205 65.1429
17.401 72.1109
17.5815 57.3078
17.7622 60.0313
17.9428 73.7372
18.1237 142.815
18.3044 89.1635
18.4852 78.8693
18.666 59.0143
18.8469 56.5797
19.0278 55.1388
19.2088 58.1886
19.3898 75.9388
19.5709 52.9365
19.752 51.8638
19.9332 55.4162
20.1144 70.4582
20.2957 63.764
20.477 52.6596
20.6586 48.5351
20.84 47.8246
21.0215 47.5085
21.203 49.6966
21.3846 47.9949
21.5662 47.6373
21.7479 52.0601
21.9297 65.4272
22.1115 55.9429
22.2933 48.992
22.4753 47.6209
22.6572 47.6381
22.8393 51.2078
23.0214 57.203
23.2037 47.7864
23.3859 49.5437
23.5682 57.2179
23.7505 48.3764
23.9329 44.4249
24.1154 43.2013
24.2979 42.4145
24.4805 42.1786
24.6631 42.1511
24.8458 41.4003
25.0286 42.0931
25.2114 44.2936
25.3943 44.4348
25.5773 40.2868
25.7605 39.7062
25.9436 40.2517
26.1268 41.4163
26.31 39.431
26.4933 40.0254
26.6767 41.9996
26.8601 40.1423
27.0437 38.3725
27.2272 37.9049
27.4109 37.8269
27.5946 38.0308
27.7784 37.3019
27.9623 38.0716
28.1462 38.6583
28.3304 36.8451
28.5145 35.3795
28.6987 35.1335
28.8829 34.9771
29.0673 34.3107
29.2517 33.7739
29.4361 33.7862
29.6207 32.6761
29.8053 32.2102
29.99 32.163
30.1748 31.929
30.3597 31.8162
30.5447 31.7601
30.7297 31.9548
30.915 31.2837
31.1002 30.7804
31.2855 30.4349
31.4708 30.5125
31.6563 30.0996
31.8418 29.7814
32.0275 29.6253
32.2132 29.0616
32.399 28.52
32.5848 28.1635
32.7708 27.8077
32.9569 27.5947
33.143 27.4507
33.3293 27.0421
33.5158 26.7098
33.7022 26.202
33.8887 26.0073
34.0753 25.5989
34.262 25.3063
34.4488 24.9985
34.6357 24.6303
34.8227 24.4117
35.0098 24.1891
35.1969 23.917
35.3842 23.6881
35.5716 23.473
35.759 23.139
35.9468 22.7663
36.1345 22.6074
36.3222 22.4074
36.5101 22.0992
36.6981 21.8084
36.8861 21.4741
37.0743 21.2621
37.2626 20.996
37.451 20.777
37.6395 20.5769
37.8281 20.253
38.0168 19.9161
38.2056 19.7528
38.3945 19.4173
38.5837 19.1884
38.7728 18.9648
38.9621 18.6992
39.1514 18.4299
39.3409 18.2257
39.5304 17.9475
39.7201 17.8668
39.9099 17.5647
40.0999 17.3483
40.2899 17.1118
40.48 16.8849
40.6703 16.6719
40.8607 16.5399
41.0512 16.2839
41.242 16.0285
41.4327 15.9029
41.6236 15.6123
41.8146 15.4354
42.0057 15.186
42.1969 15.014
42.3882 14.7681
42.5797 14.6047
42.7713 14.3752
42.963 14.2523
43.1549 14.0218
43.3468 13.7788
43.5389 13.6537
43.7312 13.451
43.9237 13.314
44.1162 13.096
44.3088 12.8591
44.5016 12.6787
44.6945 12.5467
44.8875 12.4306
45.0806 12.2133
45.2739 12.0376
45.4673 11.8958
45.6609 11.7257
45.8546 11.5355
46.0484 11.3471
46.2424 11.1935
46.4365 11.0639
46.631 10.8776
46.8254 10.704
47.0199 10.5725
47.2146 10.4558
47.4095 10.2177
47.6044 10.1369
47.7996 9.98272
47.9948 9.79634
48.1902 9.69687
48.3858 9.55476
48.5815 9.38851
48.7774 9.27968
48.9734 9.10711
49.1696 8.97907
49.3661 8.83394
49.5626 8.70851
49.7592 8.59901
49.956 8.44671
50.153 8.32977
50.3501 8.22101
50.5474 8.07263
50.7448 7.96473
50.9424 7.83021
51.1402 7.71872
51.3381 7.54139
51.5362 7.46752
51.7344 7.32923
51.9328 7.20528
52.1316 7.07466
52.3304 6.97915
52.5293 6.88048
52.7284 6.74098
52.9276 6.61259
53.1271 6.55767
53.3267 6.42271
53.5265 6.25443
53.7264 6.2043
53.9266 6.08947
54.1269 6.01627
54.3274 5.9322
54.528 5.75024
54.7289 5.57966
54.9301 5.46019
55.1314 5.27075
55.3328 5.11521
55.5344 4.94345
55.7361 4.73424