File: XRD/Ni3Fe_FD0381.xy
TT I
1.27165 7.35598
1.45013 6.30513
1.62863 5.49481
1.80712 4.73453
1.98562 4.21798
2.16411 5.16374
2.34263 5.33705
2.52115 5.85206
2.69965 7.19034
2.87818 8.57706
3.05672 11.1137
3.23527 14.9637
3.4138 18.7298
3.59237 24.344
3.77094 26.643
3.9495 30.2231
4.12809 35.508
4.30669 197.672
4.4853 64.1035
4.6639 57.0989
4.84253 69.0708
5.02118 90.1059
5.19981 470.605
5.37848 226.55
5.55716 106.01
5.73586 95.3462
5.91455 99.164
6.09328 3984.55
6.27201 86.7321
6.45075 69.1063
6.62952 64.3404
6.8083 60.2547
6.98711 57.163
7.16591 56.8732
7.34475 88.9005
7.5236 56.1823
7.70247 57.6815
7.88135 59.0798
8.06026 63.7562
8.23919 71.5733
8.41812 88.0032
8.59709 1167.34
8.77609 104.85
8.9551 93.5753
9.13412 84.4086
9.31318 85.3353
9.49226 86.6838
9.67134 100.473
9.85047 102.679
10.0296 396.478
10.2088 511.486
10.388 108.479
10.5672 479.851
10.7465 89.2285
10.9257 80.474
11.105 73.7972
11.2844 71.8205
11.4637 66.7378
11.6431 65.0046
11.8225 64.19
12.002 65.3672
12.1814 149.877
12.3609 72.8233
12.5405 66.3625
12.72 71.3711
12.8996 73.1575
13.0792 81.6523
13.2589 240.059
13.4386 141.737
13.6183 241.306
13.7981 107.195
13.9779 77.97
14.1577 74.2108
14.3376 73.2166
14.5175 70.5207
14.6974 72.5334
14.8774 115.4
15.0574 163.634
15.2374 72.6892
15.4175 68.0354
15.5976 67.674
15.7778 99.1389
15.958 167.021
16.1382 64.4911
16.3185 60.1499
16.4988 56.9966
16.6792 55.9353
16.8596 56.6429
17.04 57.4203
17.2205 68.2837
17.401 74.334
17.5815 60.7359
17.7622 62.921
17.9428 77.1457
18.1237 136.159
18.3044 91.7275
18.4852 82.5729
18.666 62.1829
18.8469 59.6619
19.0278 58.5319
19.2088 61.4434
19.3898 76.5802
19.5709 55.7897
19.752 54.7652
19.9332 57.9361
20.1144 70.4762
20.2957 64.464
20.477 55.8056
20.6586 51.0515
20.84 50.1884
21.0215 50.0218
21.203 51.8667
21.3846 50.4782
21.5662 50.215
21.7479 54.1975
21.9297 65.2615
22.1115 57.1956
22.2933 51.6047
22.4753 50.1416
22.6572 50.2905
22.8393 53.3142
23.0214 58.6597
23.2037 50.1859
23.3859 51.3669
23.5682 57.5294
23.7505 50.1987
23.9329 46.4254
24.1154 45.3234
24.2979 44.7645
24.4805 44.0876
24.6631 44.0033
24.8458 43.464
25.0286 44.0432
25.2114 45.9349
25.3943 45.7064
25.5773 42.0391
25.7605 41.5776
25.9436 41.993
26.1268 42.7647
26.31 41.4179
26.4933 41.7178
26.6767 43.1895
26.8601 41.5815
27.0437 39.8706
27.2272 39.6098
27.4109 39.4857
27.5946 39.4432
27.7784 39.0471
27.9623 39.5379
28.1462 39.9074
28.3304 38.3184
28.5145 37.0519
28.6987 36.6294
28.8829 36.3198
29.0673 35.7681
29.2517 35.3488
29.4361 35.2088
29.6207 34.0513
29.8053 33.7818
29.99 33.5316
30.1748 33.3675
30.3597 33.1577
30.5447 33.0716
30.7297 33.1314
30.915 32.4513
31.1002 31.9938
31.2855 31.7537
31.4708 31.7213
31.6563 31.1599
31.8418 30.9319
32.0275 30.7826
32.2132 30.2447
32.399 29.8016
32.5848 29.2605
32.7708 28.9295
32.9569 28.95
33.143 28.5841
33.3293 28.1637
33.5158 27.8042
33.7022 27.3401
33.8887 26.9423
34.0753 26.7805
34.262 26.2864
34.4488 25.9977
34.6357 25.6781
34.8227 25.3757
35.0098 25.1204
35.1969 24.8178
35.3842 24.623
35.5716 24.3974
35.759 24.1623
35.9468 23.7119
36.1345 23.516
36.3222 23.2609
36.5101 23.0382
36.6981 22.6947
36.8861 22.3749
37.0743 22.0296
37.2626 21.8625
37.451 21.5107
37.6395 21.4145
37.8281 21.041
38.0168 20.6956
38.2056 20.5098
38.3945 20.264
38.5837 19.9729
38.7728 19.6892
38.9621 19.4546
39.1514 19.139
39.3409 18.9944
39.5304 18.7722
39.7201 18.5445
39.9099 18.316
40.0999 18.0822
40.2899 17.7691
40.48 17.6069
40.6703 17.3472
40.8607 17.2192
41.0512 16.9411
41.242 16.6939
41.4327 16.4587
41.6236 16.2488
41.8146 16.07
42.0057 15.8573
42.1969 15.6154
42.3882 15.4392
42.5797 15.2232
42.7713 15.0403
42.963 14.8084
43.1549 14.586
43.3468 14.3791
43.5389 14.2189
43.7312 14.0211
43.9237 13.8046
44.1162 13.5965
44.3088 13.4469
44.5016 13.2201
44.6945 13.0511
44.8875 12.8437
45.0806 12.6558
45.2739 12.5383
45.4673 12.3679
45.6609 12.1743
45.8546 12.0098
46.0484 11.822
46.2424 11.6408
46.4365 11.5163
46.631 11.2721
46.8254 11.141
47.0199 11.004
47.2146 10.8295
47.4095 10.6729
47.6044 10.5121
47.7996 10.3736
47.9948 10.162
48.1902 10.0453
48.3858 9.91478
48.5815 9.77985
48.7774 9.63038
48.9734 9.46494
49.1696 9.33575
49.3661 9.17129
49.5626 9.08798
49.7592 8.93972
49.956 8.81833
50.153 8.67466
50.3501 8.55644
50.5474 8.39529
50.7448 8.28162
50.9424 8.12791
51.1402 8.06437
51.3381 7.87002
51.5362 7.73162
51.7344 7.63701
51.9328 7.50863
52.1316 7.3587
52.3304 7.28743
52.5293 7.1495
52.7284 6.98882
52.9276 6.89805
53.1271 6.79936
53.3267 6.68482
53.5265 6.5302
53.7264 6.45011
53.9266 6.33146
54.1269 6.24656
54.3274 6.05919
54.528 5.96214
54.7289 5.80064
54.9301 5.66369
55.1314 5.54725
55.3328 5.26749
55.5344 5.08901
55.7361 4.95152